96,   96, MVIRI VIS channel from srf_MET7_2009213_2009214_1801-Release_S10EE_10.dat
Number of data points:
793
Wavenumber (cm-1)   Filter response
     8442.380800       0.000000
     8449.514200       0.000000
     8456.659600       0.000004
     8463.817200       0.000056
     8470.986900       0.000166
     8478.168700       0.000331
     8485.362700       0.000551
     8492.569000       0.000824
     8499.787500       0.001149
     8507.018300       0.001523
     8514.261400       0.001945
     8521.516800       0.002414
     8528.784600       0.002929
     8536.064900       0.003489
     8543.357500       0.004092
     8550.662700       0.004736
     8557.980300       0.005421
     8565.310500       0.006146
     8572.653200       0.006910
     8580.008600       0.007711
     8587.376600       0.008549
     8594.757200       0.009423
     8602.150500       0.010331
     8609.556600       0.011273
     8616.975400       0.012249
     8624.407100       0.013256
     8631.851500       0.014295
     8639.308900       0.015365
     8646.779100       0.016466
     8654.262200       0.017595
     8661.758300       0.018753
     8669.267400       0.019940
     8676.789600       0.021154
     8684.324800       0.022396
     8691.873100       0.023664
     8699.434500       0.024958
     8707.009100       0.026278
     8714.596900       0.027623
     8722.198000       0.028993
     8729.812300       0.030388
     8737.439900       0.031806
     8745.080900       0.033248
     8752.735200       0.034714
     8760.403000       0.036203
     8768.084200       0.037715
     8775.778900       0.039249
     8783.487000       0.040806
     8791.208800       0.042384
     8798.944100       0.043985
     8806.693100       0.045608
     8814.455700       0.047252
     8822.232000       0.048918
     8830.022100       0.050604
     8837.825900       0.052313
     8845.643500       0.054042
     8853.475000       0.055792
     8861.320300       0.057563
     8869.179600       0.059355
     8877.052800       0.061168
     8884.940000       0.063001
     8892.841300       0.064855
     8900.756600       0.066730
     8908.686000       0.068625
     8916.629500       0.070541
     8924.587200       0.072478
     8932.559200       0.074435
     8940.545400       0.076413
     8948.545900       0.078412
     8956.560700       0.080432
     8964.589900       0.082472
     8972.633500       0.084533
     8980.691500       0.086615
     8988.764000       0.088718
     8996.851100       0.090841
     9004.952700       0.092986
     9013.068900       0.095152
     9021.199800       0.097339
     9029.345400       0.099547
     9037.505600       0.101777
     9045.680700       0.104028
     9053.870500       0.106300
     9062.075200       0.108594
     9070.294800       0.110910
     9078.529300       0.113248
     9086.778700       0.115607
     9095.043200       0.117989
     9103.322700       0.120392
     9111.617300       0.122817
     9119.927000       0.125265
     9128.251900       0.127735
     9136.592100       0.130227
     9144.947400       0.132742
     9153.318100       0.135279
     9161.704100       0.137839
     9170.105500       0.140422
     9178.522300       0.143027
     9186.954500       0.145655
     9195.402300       0.148307
     9203.865600       0.150981
     9212.344500       0.153678
     9220.839100       0.156399
     9229.349300       0.159143
     9237.875300       0.161910
     9246.417000       0.164700
     9254.974500       0.167514
     9263.547900       0.170351
     9272.137200       0.173212
     9280.742500       0.176097
     9289.363700       0.179004
     9298.000900       0.181936
     9306.654300       0.184891
     9315.323700       0.187870
     9324.009300       0.190873
     9332.711200       0.193899
     9341.429200       0.196949
     9350.163600       0.200023
     9358.914400       0.203120
     9367.681500       0.206241
     9376.465100       0.209386
     9385.265100       0.212555
     9394.081700       0.215747
     9402.914900       0.218963
     9411.764700       0.222202
     9420.631200       0.225465
     9429.514400       0.228752
     9438.414300       0.232062
     9447.331100       0.235395
     9456.264800       0.238752
     9465.215300       0.242132
     9474.182900       0.245535
     9483.167400       0.248961
     9492.169000       0.252410
     9501.187600       0.255882
     9510.223500       0.259378
     9519.276500       0.262895
     9528.346800       0.266436
     9537.434400       0.269998
     9546.539400       0.273583
     9555.661700       0.277191
     9564.801500       0.280820
     9573.958800       0.284471
     9583.133700       0.288145
     9592.326100       0.291839
     9601.536200       0.295555
     9610.764100       0.299292
     9620.009600       0.303051
     9629.273000       0.306831
     9638.554200       0.310630
     9647.853400       0.314451
     9657.170400       0.318292
     9666.505600       0.322153
     9675.858700       0.326034
     9685.230000       0.329934
     9694.619500       0.333854
     9704.027200       0.337793
     9713.453100       0.341751
     9722.897400       0.345728
     9732.360100       0.349723
     9741.841200       0.353736
     9751.340800       0.357767
     9760.859000       0.361816
     9770.395700       0.365883
     9779.951100       0.369965
     9789.525200       0.374066
     9799.118100       0.378182
     9808.729800       0.382315
     9818.360300       0.386463
     9828.009800       0.390627
     9837.678300       0.394807
     9847.365800       0.399001
     9857.072400       0.403210
     9866.798200       0.407433
     9876.543200       0.411670
     9886.307500       0.415920
     9896.091000       0.420184
     9905.894000       0.424461
     9915.716400       0.428750
     9925.558300       0.433051
     9935.419800       0.437364
     9945.300800       0.441689
     9955.201600       0.446024
     9965.122100       0.450370
     9975.062300       0.454726
     9985.022500       0.459093
     9995.002500       0.463469
    10005.002500       0.467854
    10015.022500       0.472247
    10025.062700       0.476649
    10035.122900       0.481058
    10045.203400       0.485475
    10055.304200       0.489899
    10065.425300       0.494330
    10075.566800       0.498767
    10085.728700       0.503209
    10095.911200       0.507657
    10106.114200       0.512110
    10116.337900       0.516567
    10126.582300       0.521028
    10136.847400       0.525493
    10147.133400       0.529961
    10157.440300       0.534432
    10167.768200       0.538904
    10178.117000       0.543379
    10188.487000       0.547855
    10198.878100       0.552332
    10209.290500       0.556809
    10219.724100       0.561286
    10230.179000       0.565763
    10240.655400       0.570239
    10251.153300       0.574713
    10261.672700       0.579186
    10272.213700       0.583656
    10282.776300       0.588123
    10293.360800       0.592587
    10303.967000       0.597047
    10314.595200       0.601503
    10325.245200       0.605954
    10335.917300       0.610401
    10346.611500       0.614841
    10357.327800       0.619275
    10368.066400       0.623703
    10378.827200       0.628123
    10389.610400       0.632537
    10400.416000       0.636942
    10411.244100       0.641338
    10422.094800       0.645726
    10432.968200       0.650104
    10443.864200       0.654473
    10454.783100       0.658830
    10465.724800       0.663177
    10476.689400       0.667513
    10487.677000       0.671837
    10498.687700       0.676149
    10509.721500       0.680448
    10520.778500       0.684734
    10531.858900       0.689006
    10542.962600       0.693264
    10554.089700       0.697507
    10565.240400       0.701736
    10576.414600       0.705949
    10587.612500       0.710146
    10598.834100       0.714326
    10610.079600       0.718490
    10621.348900       0.722637
    10632.642200       0.726765
    10643.959600       0.730876
    10655.301000       0.734968
    10666.666700       0.739040
    10678.056600       0.743094
    10689.470900       0.747127
    10700.909600       0.751140
    10712.372800       0.755132
    10723.860600       0.759103
    10735.373100       0.763052
    10746.910300       0.766980
    10758.472300       0.770884
    10770.059200       0.774766
    10781.671200       0.778624
    10793.308100       0.782459
    10804.970300       0.786270
    10816.657700       0.790056
    10828.370300       0.793817
    10840.108400       0.797553
    10851.871900       0.801263
    10863.661100       0.804948
    10875.475800       0.808605
    10887.316300       0.812236
    10899.182600       0.815840
    10911.074700       0.819416
    10922.992900       0.822964
    10934.937100       0.826484
    10946.907500       0.829975
    10958.904100       0.833438
    10970.927000       0.836871
    10982.976400       0.840274
    10995.052200       0.843647
    11007.154700       0.846990
    11019.283700       0.850303
    11031.439600       0.853584
    11043.622300       0.856835
    11055.832000       0.860053
    11068.068600       0.863240
    11080.332400       0.866395
    11092.623400       0.869517
    11104.941700       0.872606
    11117.287400       0.875663
    11129.660500       0.878686
    11142.061300       0.881676
    11154.489700       0.884631
    11166.945800       0.887553
    11179.429800       0.890441
    11191.941800       0.893293
    11204.481800       0.896111
    11217.049900       0.898894
    11229.646300       0.901642
    11242.270900       0.904354
    11254.924000       0.907031
    11267.605600       0.909672
    11280.315800       0.912276
    11293.054800       0.914844
    11305.822500       0.917376
    11318.619100       0.919871
    11331.444800       0.922329
    11344.299500       0.924750
    11357.183400       0.927134
    11370.096600       0.929481
    11383.039300       0.931790
    11396.011400       0.934062
    11409.013100       0.936295
    11422.044500       0.938491
    11435.105800       0.940649
    11448.196900       0.942769
    11461.318100       0.944850
    11474.469300       0.946893
    11487.650800       0.948897
    11500.862600       0.950864
    11514.104800       0.952791
    11527.377500       0.954679
    11540.680900       0.956529
    11554.015000       0.958340
    11567.380000       0.960112
    11580.775900       0.961846
    11594.202900       0.963540
    11607.661100       0.965195
    11621.150500       0.966811
    11634.671300       0.968388
    11648.223600       0.969925
    11661.807600       0.971424
    11675.423200       0.972884
    11689.070700       0.974304
    11702.750100       0.975685
    11716.461600       0.977028
    11730.205300       0.978331
    11743.981200       0.979595
    11757.789500       0.980820
    11771.630400       0.982006
    11785.503800       0.983153
    11799.410000       0.984262
    11813.349100       0.985331
    11827.321100       0.986362
    11841.326200       0.987354
    11855.364600       0.988308
    11869.436200       0.989223
    11883.541300       0.990100
    11897.680000       0.990938
    11911.852300       0.991739
    11926.058400       0.992501
    11940.298500       0.993226
    11954.572600       0.993912
    11968.880900       0.994561
    11983.223500       0.995173
    11997.600500       0.995747
    12012.012000       0.996284
    12026.458200       0.996784
    12040.939200       0.997247
    12055.455100       0.997674
    12070.006000       0.998063
    12084.592100       0.998417
    12099.213600       0.998734
    12113.870400       0.999016
    12128.562800       0.999262
    12143.290800       0.999472
    12158.054700       0.999647
    12172.854500       0.999787
    12187.690400       0.999892
    12202.562500       0.999962
    12217.471000       0.999998
    12232.415900       1.000000
    12247.397400       0.999968
    12262.415700       0.999902
    12277.470800       0.999803
    12292.563000       0.999671
    12307.692300       0.999506
    12322.858900       0.999309
    12338.062900       0.999079
    12353.304500       0.998818
    12368.583800       0.998524
    12383.900900       0.998200
    12399.256000       0.997844
    12414.649300       0.997457
    12430.080800       0.997040
    12445.550700       0.996593
    12461.059200       0.996116
    12476.606400       0.995610
    12492.192400       0.995075
    12507.817400       0.994510
    12523.481500       0.993918
    12539.185000       0.993297
    12554.927800       0.992648
    12570.710200       0.991972
    12586.532400       0.991269
    12602.394500       0.990539
    12618.296500       0.989783
    12634.238800       0.989001
    12650.221400       0.988193
    12666.244500       0.987360
    12682.308200       0.986503
    12698.412700       0.985621
    12714.558200       0.984714
    12730.744700       0.983785
    12746.972600       0.982832
    12763.241900       0.981856
    12779.552700       0.980858
    12795.905300       0.979837
    12812.299800       0.978795
    12828.736400       0.977732
    12845.215200       0.976648
    12861.736300       0.975543
    12878.300100       0.974419
    12894.906500       0.973275
    12911.555800       0.972112
    12928.248200       0.970930
    12944.983800       0.969730
    12961.762800       0.968512
    12978.585300       0.967277
    12995.451600       0.966025
    13012.361700       0.964756
    13029.316000       0.963471
    13046.314400       0.962171
    13063.357300       0.960855
    13080.444700       0.959524
    13097.576900       0.958179
    13114.754100       0.956821
    13131.976400       0.955448
    13149.243900       0.954063
    13166.556900       0.952666
    13183.915600       0.951256
    13201.320100       0.949834
    13218.770700       0.948402
    13236.267400       0.946958
    13253.810500       0.945505
    13271.400100       0.944041
    13289.036500       0.942568
    13306.719900       0.941086
    13324.450400       0.939596
    13342.228200       0.938098
    13360.053400       0.936592
    13377.926400       0.935079
    13395.847300       0.933559
    13413.816200       0.932033
    13431.833400       0.930502
    13449.899100       0.928965
    13468.013500       0.927423
    13486.176700       0.925876
    13504.388900       0.924326
    13522.650400       0.922772
    13540.961400       0.921215
    13559.322000       0.919656
    13577.732500       0.918094
    13596.193100       0.916530
    13614.703900       0.914966
    13633.265200       0.913400
    13651.877100       0.911834
    13670.540000       0.910267
    13689.253900       0.908701
    13708.019200       0.907136
    13726.836000       0.905573
    13745.704500       0.904011
    13764.624900       0.902451
    13783.597500       0.900893
    13802.622500       0.899338
    13821.700100       0.897787
    13840.830400       0.896240
    13860.013900       0.894696
    13879.250500       0.893157
    13898.540700       0.891624
    13917.884500       0.890095
    13937.282200       0.888572
    13956.734100       0.887056
    13976.240400       0.885545
    13995.801300       0.884042
    14015.417000       0.882546
    14035.087700       0.881058
    14054.813800       0.879577
    14074.595400       0.878105
    14094.432700       0.876642
    14114.326000       0.875188
    14134.275600       0.873743
    14154.281700       0.872308
    14174.344400       0.870883
    14194.464200       0.869469
    14214.641100       0.868065
    14234.875400       0.866672
    14255.167500       0.865291
    14275.517500       0.863922
    14295.925700       0.862564
    14316.392300       0.861219
    14336.917600       0.859887
    14357.501800       0.858568
    14378.145200       0.857261
    14398.848100       0.855969
    14419.610700       0.854690
    14440.433200       0.853425
    14461.316000       0.852175
    14482.259200       0.850939
    14503.263200       0.849718
    14524.328200       0.848512
    14545.454500       0.847321
    14566.642400       0.846146
    14587.892000       0.844986
    14609.203800       0.843843
    14630.577900       0.842716
    14652.014700       0.841605
    14673.514300       0.840511
    14695.077100       0.839433
    14716.703500       0.838373
    14738.393500       0.837329
    14760.147600       0.836303
    14781.966000       0.835295
    14803.849000       0.834304
    14825.796900       0.833331
    14847.809900       0.832376
    14869.888500       0.831438
    14892.032800       0.830520
    14914.243100       0.829619
    14936.519800       0.828736
    14958.863100       0.827873
    14981.273400       0.827027
    15003.750900       0.826201
    15026.296000       0.825393
    15048.909000       0.824604
    15071.590100       0.823834
    15094.339600       0.823082
    15117.158000       0.822350
    15140.045400       0.821637
    15163.002300       0.820942
    15186.028900       0.820267
    15209.125500       0.819611
    15232.292500       0.818974
    15255.530100       0.818355
    15278.838800       0.817756
    15302.218800       0.817176
    15325.670500       0.816615
    15349.194200       0.816072
    15372.790200       0.815549
    15396.458800       0.815044
    15420.200500       0.814558
    15444.015400       0.814091
    15467.904100       0.813642
    15491.866800       0.813212
    15515.903800       0.812800
    15540.015500       0.812406
    15564.202300       0.812031
    15588.464500       0.811673
    15612.802500       0.811333
    15637.216600       0.811011
    15661.707100       0.810706
    15686.274500       0.810419
    15710.919100       0.810149
    15735.641200       0.809896
    15760.441300       0.809659
    15785.319700       0.809440
    15810.276700       0.809236
    15835.312700       0.809049
    15860.428200       0.808877
    15885.623500       0.808722
    15910.899000       0.808581
    15936.255000       0.808456
    15961.691900       0.808345
    15987.210200       0.808250
    16012.810200       0.808168
    16038.492400       0.808100
    16064.257000       0.808046
    16090.104600       0.808006
    16116.035500       0.807978
    16142.050000       0.807963
    16168.148700       0.807961
    16194.332000       0.807970
    16220.600200       0.807991
    16246.953700       0.808023
    16273.393000       0.808067
    16299.918500       0.808120
    16326.530600       0.808184
    16353.229800       0.808257
    16380.016400       0.808340
    16406.890900       0.808431
    16433.853700       0.808531
    16460.905300       0.808639
    16488.046200       0.808754
    16515.276600       0.808877
    16542.597200       0.809005
    16570.008300       0.809140
    16597.510400       0.809281
    16625.103900       0.809426
    16652.789300       0.809577
    16680.567100       0.809731
    16708.437800       0.809889
    16736.401700       0.810050
    16764.459300       0.810213
    16792.611300       0.810378
    16820.857900       0.810545
    16849.199700       0.810713
    16877.637100       0.810881
    16906.170800       0.811048
    16934.801000       0.811215
    16963.528400       0.811380
    16992.353400       0.811544
    17021.276600       0.811704
    17050.298400       0.811861
    17079.419300       0.812015
    17108.639900       0.812164
    17137.960600       0.812308
    17167.382000       0.812446
    17196.904600       0.812577
    17226.528900       0.812702
    17256.255400       0.812819
    17286.084700       0.812927
    17316.017300       0.813026
    17346.053800       0.813116
    17376.194600       0.813195
    17406.440400       0.813264
    17436.791600       0.813320
    17467.248900       0.813364
    17497.812800       0.813395
    17528.483800       0.813412
    17559.262500       0.813414
    17590.149500       0.813401
    17621.145400       0.813372
    17652.250700       0.813326
    17683.466000       0.813263
