03, goes_14_imager_04.flt Release RevH plus STAR correction
Number of data points:
1651
Wavenumber (cm-1)   Filter response
      855.000000       0.000000
      855.100000       0.000000
      855.200000       0.000000
      855.300000       0.000000
      855.400000       0.000000
      855.500000       0.000000
      855.600000       0.000000
      855.700000       0.000000
      855.800000       0.000000
      855.900000       0.000000
      856.000000       0.000000
      856.100000       0.000000
      856.200000       0.000000
      856.300000       0.000000
      856.400000       0.000000
      856.500000       0.000000
      856.600000       0.000000
      856.700000       0.000000
      856.800000       0.000000
      856.900000       0.000000
      857.000000       0.000000
      857.100000       0.000000
      857.200000       0.000000
      857.300000       0.000000
      857.400000       0.000000
      857.500000       0.000000
      857.600000       0.000000
      857.700000       0.000000
      857.800000       0.000000
      857.900000       0.000000
      858.000000       0.000000
      858.100000       0.000000
      858.200000       0.000000
      858.300000       0.000001
      858.400000       0.000001
      858.500000       0.000002
      858.600000       0.000002
      858.700000       0.000003
      858.800000       0.000004
      858.900000       0.000005
      859.000000       0.000006
      859.100000       0.000008
      859.200000       0.000009
      859.300000       0.000011
      859.400000       0.000013
      859.500000       0.000015
      859.600000       0.000018
      859.700000       0.000020
      859.800000       0.000023
      859.900000       0.000025
      860.000000       0.000028
      860.100000       0.000031
      860.200000       0.000034
      860.300000       0.000037
      860.400000       0.000040
      860.500000       0.000042
      860.600000       0.000045
      860.700000       0.000048
      860.800000       0.000051
      860.900000       0.000054
      861.000000       0.000057
      861.100000       0.000060
      861.200000       0.000063
      861.300000       0.000066
      861.400000       0.000069
      861.500000       0.000072
      861.600000       0.000075
      861.700000       0.000079
      861.800000       0.000082
      861.900000       0.000086
      862.000000       0.000090
      862.100000       0.000093
      862.200000       0.000097
      862.300000       0.000101
      862.400000       0.000105
      862.500000       0.000108
      862.600000       0.000112
      862.700000       0.000116
      862.800000       0.000120
      862.900000       0.000124
      863.000000       0.000128
      863.100000       0.000132
      863.200000       0.000136
      863.300000       0.000141
      863.400000       0.000145
      863.500000       0.000150
      863.600000       0.000156
      863.700000       0.000161
      863.800000       0.000167
      863.900000       0.000174
      864.000000       0.000180
      864.100000       0.000188
      864.200000       0.000195
      864.300000       0.000203
      864.400000       0.000212
      864.500000       0.000221
      864.600000       0.000230
      864.700000       0.000241
      864.800000       0.000251
      864.900000       0.000263
      865.000000       0.000275
      865.100000       0.000287
      865.200000       0.000300
      865.300000       0.000313
      865.400000       0.000327
      865.500000       0.000342
      865.600000       0.000357
      865.700000       0.000372
      865.800000       0.000388
      865.900000       0.000405
      866.000000       0.000421
      866.100000       0.000439
      866.200000       0.000457
      866.300000       0.000475
      866.400000       0.000494
      866.500000       0.000514
      866.600000       0.000534
      866.700000       0.000555
      866.800000       0.000576
      866.900000       0.000599
      867.000000       0.000622
      867.100000       0.000646
      867.200000       0.000671
      867.300000       0.000696
      867.400000       0.000723
      867.500000       0.000750
      867.600000       0.000777
      867.700000       0.000806
      867.800000       0.000835
      867.900000       0.000866
      868.000000       0.000896
      868.100000       0.000928
      868.200000       0.000961
      868.300000       0.000994
      868.400000       0.001028
      868.500000       0.001063
      868.600000       0.001098
      868.700000       0.001135
      868.800000       0.001172
      868.900000       0.001210
      869.000000       0.001249
      869.100000       0.001289
      869.200000       0.001329
      869.300000       0.001370
      869.400000       0.001413
      869.500000       0.001456
      869.600000       0.001501
      869.700000       0.001546
      869.800000       0.001593
      869.900000       0.001641
      870.000000       0.001690
      870.100000       0.001740
      870.200000       0.001793
      870.300000       0.001846
      870.400000       0.001901
      870.500000       0.001958
      870.600000       0.002016
      870.700000       0.002076
      870.800000       0.002138
      870.900000       0.002201
      871.000000       0.002266
      871.100000       0.002333
      871.200000       0.002402
      871.300000       0.002473
      871.400000       0.002546
      871.500000       0.002621
      871.600000       0.002698
      871.700000       0.002778
      871.800000       0.002861
      871.900000       0.002945
      872.000000       0.003033
      872.100000       0.003123
      872.200000       0.003217
      872.300000       0.003314
      872.400000       0.003414
      872.500000       0.003518
      872.600000       0.003626
      872.700000       0.003737
      872.800000       0.003851
      872.900000       0.003969
      873.000000       0.004091
      873.100000       0.004216
      873.200000       0.004345
      873.300000       0.004478
      873.400000       0.004614
      873.500000       0.004755
      873.600000       0.004900
      873.700000       0.005049
      873.800000       0.005203
      873.900000       0.005361
      874.000000       0.005523
      874.100000       0.005690
      874.200000       0.005863
      874.300000       0.006040
      874.400000       0.006224
      874.500000       0.006413
      874.600000       0.006608
      874.700000       0.006810
      874.800000       0.007018
      874.900000       0.007232
      875.000000       0.007452
      875.100000       0.007679
      875.200000       0.007911
      875.300000       0.008150
      875.400000       0.008395
      875.500000       0.008646
      875.600000       0.008904
      875.700000       0.009169
      875.800000       0.009441
      875.900000       0.009721
      876.000000       0.010007
      876.100000       0.010301
      876.200000       0.010603
      876.300000       0.010912
      876.400000       0.011230
      876.500000       0.011556
      876.600000       0.011891
      876.700000       0.012236
      876.800000       0.012592
      876.900000       0.012958
      877.000000       0.013334
      877.100000       0.013722
      877.200000       0.014121
      877.300000       0.014532
      877.400000       0.014956
      877.500000       0.015392
      877.600000       0.015843
      877.700000       0.016308
      877.800000       0.016788
      877.900000       0.017286
      878.000000       0.017801
      878.100000       0.018334
      878.200000       0.018886
      878.300000       0.019457
      878.400000       0.020048
      878.500000       0.020661
      878.600000       0.021296
      878.700000       0.021956
      878.800000       0.022641
      878.900000       0.023354
      879.000000       0.024096
      879.100000       0.024867
      879.200000       0.025666
      879.300000       0.026494
      879.400000       0.027351
      879.500000       0.028238
      879.600000       0.029155
      879.700000       0.030104
      879.800000       0.031085
      879.900000       0.032101
      880.000000       0.033148
      880.100000       0.034226
      880.200000       0.035335
      880.300000       0.036470
      880.400000       0.037634
      880.500000       0.038823
      880.600000       0.040039
      880.700000       0.041281
      880.800000       0.042548
      880.900000       0.043841
      881.000000       0.045158
      881.100000       0.046501
      881.200000       0.047871
      881.300000       0.049266
      881.400000       0.050690
      881.500000       0.052140
      881.600000       0.053619
      881.700000       0.055130
      881.800000       0.056673
      881.900000       0.058249
      882.000000       0.059858
      882.100000       0.061501
      882.200000       0.063178
      882.300000       0.064889
      882.400000       0.066637
      882.500000       0.068421
      882.600000       0.070243
      882.700000       0.072107
      882.800000       0.074012
      882.900000       0.075964
      883.000000       0.077959
      883.100000       0.079998
      883.200000       0.082079
      883.300000       0.084198
      883.400000       0.086358
      883.500000       0.088556
      883.600000       0.090791
      883.700000       0.093066
      883.800000       0.095379
      883.900000       0.097731
      884.000000       0.100123
      884.100000       0.102555
      884.200000       0.105030
      884.300000       0.107545
      884.400000       0.110104
      884.500000       0.112707
      884.600000       0.115356
      884.700000       0.118056
      884.800000       0.120806
      884.900000       0.123614
      885.000000       0.126479
      885.100000       0.129408
      885.200000       0.132398
      885.300000       0.135444
      885.400000       0.138547
      885.500000       0.141700
      885.600000       0.144902
      885.700000       0.148156
      885.800000       0.151455
      885.900000       0.154803
      886.000000       0.158196
      886.100000       0.161636
      886.200000       0.165126
      886.300000       0.168660
      886.400000       0.172241
      886.500000       0.175866
      886.600000       0.179536
      886.700000       0.183254
      886.800000       0.187016
      886.900000       0.190830
      887.000000       0.194690
      887.100000       0.198601
      887.200000       0.202569
      887.300000       0.206586
      887.400000       0.210656
      887.500000       0.214771
      887.600000       0.218932
      887.700000       0.223140
      887.800000       0.227391
      887.900000       0.231688
      888.000000       0.236027
      888.100000       0.240410
      888.200000       0.244841
      888.300000       0.249315
      888.400000       0.253835
      888.500000       0.258395
      888.600000       0.262995
      888.700000       0.267640
      888.800000       0.272322
      888.900000       0.277048
      889.000000       0.281813
      889.100000       0.286621
      889.200000       0.291476
      889.300000       0.296372
      889.400000       0.301313
      889.500000       0.306289
      889.600000       0.311304
      889.700000       0.316356
      889.800000       0.321440
      889.900000       0.326561
      890.000000       0.331712
      890.100000       0.336896
      890.200000       0.342118
      890.300000       0.347371
      890.400000       0.352661
      890.500000       0.357980
      890.600000       0.363332
      890.700000       0.368721
      890.800000       0.374139
      890.900000       0.379594
      891.000000       0.385080
      891.100000       0.390601
      891.200000       0.396163
      891.300000       0.401755
      891.400000       0.407383
      891.500000       0.413032
      891.600000       0.418702
      891.700000       0.424393
      891.800000       0.430094
      891.900000       0.435808
      892.000000       0.441523
      892.100000       0.447241
      892.200000       0.452960
      892.300000       0.458672
      892.400000       0.464385
      892.500000       0.470094
      892.600000       0.475804
      892.700000       0.481520
      892.800000       0.487237
      892.900000       0.492963
      893.000000       0.498694
      893.100000       0.504435
      893.200000       0.510191
      893.300000       0.515953
      893.400000       0.521726
      893.500000       0.527498
      893.600000       0.533272
      893.700000       0.539046
      893.800000       0.544811
      893.900000       0.550571
      894.000000       0.556315
      894.100000       0.562043
      894.200000       0.567757
      894.300000       0.573450
      894.400000       0.579137
      894.500000       0.584810
      894.600000       0.590480
      894.700000       0.596151
      894.800000       0.601822
      894.900000       0.607502
      895.000000       0.613188
      895.100000       0.618885
      895.200000       0.624597
      895.300000       0.630307
      895.400000       0.636017
      895.500000       0.641713
      895.600000       0.647391
      895.700000       0.653048
      895.800000       0.658672
      895.900000       0.664260
      896.000000       0.669799
      896.100000       0.675294
      896.200000       0.680747
      896.300000       0.686156
      896.400000       0.691527
      896.500000       0.696852
      896.600000       0.702137
      896.700000       0.707383
      896.800000       0.712582
      896.900000       0.717742
      897.000000       0.722853
      897.100000       0.727916
      897.200000       0.732934
      897.300000       0.737897
      897.400000       0.742808
      897.500000       0.747658
      897.600000       0.752445
      897.700000       0.757167
      897.800000       0.761816
      897.900000       0.766399
      898.000000       0.770914
      898.100000       0.775367
      898.200000       0.779761
      898.300000       0.784092
      898.400000       0.788366
      898.500000       0.792578
      898.600000       0.796729
      898.700000       0.800822
      898.800000       0.804852
      898.900000       0.808826
      899.000000       0.812741
      899.100000       0.816600
      899.200000       0.820403
      899.300000       0.824145
      899.400000       0.827826
      899.500000       0.831441
      899.600000       0.834989
      899.700000       0.838472
      899.800000       0.841892
      899.900000       0.845258
      900.000000       0.848567
      900.100000       0.851826
      900.200000       0.855039
      900.300000       0.858204
      900.400000       0.861325
      900.500000       0.864402
      900.600000       0.867434
      900.700000       0.870426
      900.800000       0.873375
      900.900000       0.876284
      901.000000       0.879151
      901.100000       0.881978
      901.200000       0.884764
      901.300000       0.887505
      901.400000       0.890201
      901.500000       0.892847
      901.600000       0.895440
      901.700000       0.897985
      901.800000       0.900480
      901.900000       0.902930
      902.000000       0.905333
      902.100000       0.907691
      902.200000       0.910009
      902.300000       0.912284
      902.400000       0.914521
      902.500000       0.916717
      902.600000       0.918875
      902.700000       0.920995
      902.800000       0.923075
      902.900000       0.925120
      903.000000       0.927125
      903.100000       0.929094
      903.200000       0.931026
      903.300000       0.932921
      903.400000       0.934781
      903.500000       0.936604
      903.600000       0.938390
      903.700000       0.940142
      903.800000       0.941858
      903.900000       0.943542
      904.000000       0.945196
      904.100000       0.946821
      904.200000       0.948419
      904.300000       0.949987
      904.400000       0.951528
      904.500000       0.953040
      904.600000       0.954522
      904.700000       0.955975
      904.800000       0.957395
      904.900000       0.958786
      905.000000       0.960145
      905.100000       0.961472
      905.200000       0.962771
      905.300000       0.964041
      905.400000       0.965283
      905.500000       0.966498
      905.600000       0.967686
      905.700000       0.968848
      905.800000       0.969982
      905.900000       0.971089
      906.000000       0.972170
      906.100000       0.973225
      906.200000       0.974256
      906.300000       0.975262
      906.400000       0.976246
      906.500000       0.977207
      906.600000       0.978144
      906.700000       0.979059
      906.800000       0.979949
      906.900000       0.980815
      907.000000       0.981656
      907.100000       0.982469
      907.200000       0.983258
      907.300000       0.984022
      907.400000       0.984763
      907.500000       0.985481
      907.600000       0.986178
      907.700000       0.986854
      907.800000       0.987509
      907.900000       0.988144
      908.000000       0.988759
      908.100000       0.989352
      908.200000       0.989925
      908.300000       0.990479
      908.400000       0.991013
      908.500000       0.991530
      908.600000       0.992031
      908.700000       0.992515
      908.800000       0.992984
      908.900000       0.993439
      909.000000       0.993879
      909.100000       0.994304
      909.200000       0.994716
      909.300000       0.995111
      909.400000       0.995492
      909.500000       0.995855
      909.600000       0.996203
      909.700000       0.996534
      909.800000       0.996848
      909.900000       0.997147
      910.000000       0.997428
      910.100000       0.997694
      910.200000       0.997945
      910.300000       0.998181
      910.400000       0.998404
      910.500000       0.998615
      910.600000       0.998811
      910.700000       0.998994
      910.800000       0.999163
      910.900000       0.999316
      911.000000       0.999455
      911.100000       0.999578
      911.200000       0.999686
      911.300000       0.999776
      911.400000       0.999853
      911.500000       0.999913
      911.600000       0.999957
      911.700000       0.999987
      911.800000       1.000000
      911.900000       0.999996
      912.000000       0.999974
      912.100000       0.999934
      912.200000       0.999878
      912.300000       0.999806
      912.400000       0.999720
      912.500000       0.999622
      912.600000       0.999511
      912.700000       0.999391
      912.800000       0.999260
      912.900000       0.999119
      913.000000       0.998968
      913.100000       0.998807
      913.200000       0.998637
      913.300000       0.998459
      913.400000       0.998272
      913.500000       0.998079
      913.600000       0.997877
      913.700000       0.997669
      913.800000       0.997454
      913.900000       0.997232
      914.000000       0.997004
      914.100000       0.996769
      914.200000       0.996529
      914.300000       0.996282
      914.400000       0.996028
      914.500000       0.995771
      914.600000       0.995509
      914.700000       0.995243
      914.800000       0.994974
      914.900000       0.994702
      915.000000       0.994428
      915.100000       0.994153
      915.200000       0.993876
      915.300000       0.993599
      915.400000       0.993321
      915.500000       0.993043
      915.600000       0.992763
      915.700000       0.992483
      915.800000       0.992203
      915.900000       0.991921
      916.000000       0.991639
      916.100000       0.991356
      916.200000       0.991073
      916.300000       0.990790
      916.400000       0.990506
      916.500000       0.990222
      916.600000       0.989939
      916.700000       0.989654
      916.800000       0.989371
      916.900000       0.989086
      917.000000       0.988802
