8,   8, MVIRI VIS channel from srf_MET7_1998213_1998214_1801-Release_S10EE_10.dat
Number of data points:
793
Wavenumber (cm-1)   Filter response
     8442.380800       0.000000
     8449.514200       0.000000
     8456.659600       0.000004
     8463.817200       0.000052
     8470.986900       0.000153
     8478.168700       0.000306
     8485.362700       0.000509
     8492.569000       0.000761
     8499.787500       0.001061
     8507.018300       0.001406
     8514.261400       0.001797
     8521.516800       0.002231
     8528.784600       0.002707
     8536.064900       0.003225
     8543.357500       0.003782
     8550.662700       0.004378
     8557.980300       0.005013
     8565.310500       0.005684
     8572.653200       0.006391
     8580.008600       0.007133
     8587.376600       0.007909
     8594.757200       0.008718
     8602.150500       0.009560
     8609.556600       0.010434
     8616.975400       0.011338
     8624.407100       0.012272
     8631.851500       0.013236
     8639.308900       0.014229
     8646.779100       0.015250
     8654.262200       0.016299
     8661.758300       0.017374
     8669.267400       0.018476
     8676.789600       0.019604
     8684.324800       0.020758
     8691.873100       0.021936
     8699.434500       0.023140
     8707.009100       0.024367
     8714.596900       0.025618
     8722.198000       0.026892
     8729.812300       0.028190
     8737.439900       0.029510
     8745.080900       0.030853
     8752.735200       0.032218
     8760.403000       0.033605
     8768.084200       0.035014
     8775.778900       0.036443
     8783.487000       0.037894
     8791.208800       0.039367
     8798.944100       0.040860
     8806.693100       0.042374
     8814.455700       0.043908
     8822.232000       0.045462
     8830.022100       0.047037
     8837.825900       0.048633
     8845.643500       0.050248
     8853.475000       0.051883
     8861.320300       0.053538
     8869.179600       0.055213
     8877.052800       0.056909
     8884.940000       0.058624
     8892.841300       0.060358
     8900.756600       0.062113
     8908.686000       0.063887
     8916.629500       0.065681
     8924.587200       0.067495
     8932.559200       0.069329
     8940.545400       0.071182
     8948.545900       0.073056
     8956.560700       0.074949
     8964.589900       0.076863
     8972.633500       0.078796
     8980.691500       0.080750
     8988.764000       0.082723
     8996.851100       0.084717
     9004.952700       0.086732
     9013.068900       0.088766
     9021.199800       0.090821
     9029.345400       0.092897
     9037.505600       0.094993
     9045.680700       0.097110
     9053.870500       0.099247
     9062.075200       0.101406
     9070.294800       0.103585
     9078.529300       0.105786
     9086.778700       0.108008
     9095.043200       0.110251
     9103.322700       0.112515
     9111.617300       0.114801
     9119.927000       0.117108
     9128.251900       0.119438
     9136.592100       0.121788
     9144.947400       0.124161
     9153.318100       0.126556
     9161.704100       0.128972
     9170.105500       0.131411
     9178.522300       0.133872
     9186.954500       0.136355
     9195.402300       0.138861
     9203.865600       0.141389
     9212.344500       0.143940
     9220.839100       0.146513
     9229.349300       0.149109
     9237.875300       0.151728
     9246.417000       0.154369
     9254.974500       0.157034
     9263.547900       0.159722
     9272.137200       0.162432
     9280.742500       0.165166
     9289.363700       0.167923
     9298.000900       0.170703
     9306.654300       0.173506
     9315.323700       0.176332
     9324.009300       0.179182
     9332.711200       0.182056
     9341.429200       0.184952
     9350.163600       0.187872
     9358.914400       0.190815
     9367.681500       0.193782
     9376.465100       0.196772
     9385.265100       0.199785
     9394.081700       0.202823
     9402.914900       0.205883
     9411.764700       0.208967
     9420.631200       0.212074
     9429.514400       0.215204
     9438.414300       0.218358
     9447.331100       0.221534
     9456.264800       0.224735
     9465.215300       0.227958
     9474.182900       0.231204
     9483.167400       0.234474
     9492.169000       0.237766
     9501.187600       0.241082
     9510.223500       0.244420
     9519.276500       0.247781
     9528.346800       0.251165
     9537.434400       0.254571
     9546.539400       0.257999
     9555.661700       0.261450
     9564.801500       0.264923
     9573.958800       0.268419
     9583.133700       0.271936
     9592.326100       0.275475
     9601.536200       0.279036
     9610.764100       0.282618
     9620.009600       0.286222
     9629.273000       0.289847
     9638.554200       0.293492
     9647.853400       0.297159
     9657.170400       0.300847
     9666.505600       0.304555
     9675.858700       0.308284
     9685.230000       0.312032
     9694.619500       0.315801
     9704.027200       0.319589
     9713.453100       0.323397
     9722.897400       0.327224
     9732.360100       0.331070
     9741.841200       0.334936
     9751.340800       0.338819
     9760.859000       0.342722
     9770.395700       0.346642
     9779.951100       0.350580
     9789.525200       0.354536
     9799.118100       0.358509
     9808.729800       0.362499
     9818.360300       0.366506
     9828.009800       0.370529
     9837.678300       0.374569
     9847.365800       0.378625
     9857.072400       0.382696
     9866.798200       0.386783
     9876.543200       0.390885
     9886.307500       0.395001
     9896.091000       0.399132
     9905.894000       0.403277
     9915.716400       0.407436
     9925.558300       0.411608
     9935.419800       0.415793
     9945.300800       0.419991
     9955.201600       0.424201
     9965.122100       0.428424
     9975.062300       0.432658
     9985.022500       0.436904
     9995.002500       0.441160
    10005.002500       0.445427
    10015.022500       0.449705
    10025.062700       0.453992
    10035.122900       0.458288
    10045.203400       0.462594
    10055.304200       0.466909
    10065.425300       0.471232
    10075.566800       0.475563
    10085.728700       0.479901
    10095.911200       0.484247
    10106.114200       0.488599
    10116.337900       0.492957
    10126.582300       0.497322
    10136.847400       0.501692
    10147.133400       0.506067
    10157.440300       0.510447
    10167.768200       0.514831
    10178.117000       0.519219
    10188.487000       0.523611
    10198.878100       0.528005
    10209.290500       0.532402
    10219.724100       0.536802
    10230.179000       0.541202
    10240.655400       0.545605
    10251.153300       0.550008
    10261.672700       0.554411
    10272.213700       0.558815
    10282.776300       0.563217
    10293.360800       0.567620
    10303.967000       0.572020
    10314.595200       0.576419
    10325.245200       0.580816
    10335.917300       0.585210
    10346.611500       0.589600
    10357.327800       0.593987
    10368.066400       0.598370
    10378.827200       0.602749
    10389.610400       0.607123
    10400.416000       0.611491
    10411.244100       0.615853
    10422.094800       0.620209
    10432.968200       0.624559
    10443.864200       0.628901
    10454.783100       0.633235
    10465.724800       0.637562
    10476.689400       0.641880
    10487.677000       0.646189
    10498.687700       0.650488
    10509.721500       0.654777
    10520.778500       0.659056
    10531.858900       0.663325
    10542.962600       0.667582
    10554.089700       0.671827
    10565.240400       0.676061
    10576.414600       0.680281
    10587.612500       0.684489
    10598.834100       0.688683
    10610.079600       0.692864
    10621.348900       0.697030
    10632.642200       0.701181
    10643.959600       0.705317
    10655.301000       0.709437
    10666.666700       0.713542
    10678.056600       0.717629
    10689.470900       0.721700
    10700.909600       0.725754
    10712.372800       0.729790
    10723.860600       0.733808
    10735.373100       0.737807
    10746.910300       0.741787
    10758.472300       0.745748
    10770.059200       0.749688
    10781.671200       0.753609
    10793.308100       0.757509
    10804.970300       0.761388
    10816.657700       0.765246
    10828.370300       0.769082
    10840.108400       0.772895
    10851.871900       0.776686
    10863.661100       0.780455
    10875.475800       0.784199
    10887.316300       0.787920
    10899.182600       0.791617
    10911.074700       0.795290
    10922.992900       0.798938
    10934.937100       0.802560
    10946.907500       0.806157
    10958.904100       0.809728
    10970.927000       0.813273
    10982.976400       0.816792
    10995.052200       0.820283
    11007.154700       0.823748
    11019.283700       0.827184
    11031.439600       0.830593
    11043.622300       0.833974
    11055.832000       0.837326
    11068.068600       0.840650
    11080.332400       0.843944
    11092.623400       0.847209
    11104.941700       0.850444
    11117.287400       0.853649
    11129.660500       0.856824
    11142.061300       0.859968
    11154.489700       0.863082
    11166.945800       0.866164
    11179.429800       0.869215
    11191.941800       0.872235
    11204.481800       0.875222
    11217.049900       0.878177
    11229.646300       0.881100
    11242.270900       0.883991
    11254.924000       0.886848
    11267.605600       0.889673
    11280.315800       0.892464
    11293.054800       0.895222
    11305.822500       0.897946
    11318.619100       0.900636
    11331.444800       0.903292
    11344.299500       0.905913
    11357.183400       0.908501
    11370.096600       0.911053
    11383.039300       0.913571
    11396.011400       0.916054
    11409.013100       0.918502
    11422.044500       0.920914
    11435.105800       0.923291
    11448.196900       0.925633
    11461.318100       0.927938
    11474.469300       0.930208
    11487.650800       0.932442
    11500.862600       0.934640
    11514.104800       0.936801
    11527.377500       0.938926
    11540.680900       0.941015
    11554.015000       0.943068
    11567.380000       0.945084
    11580.775900       0.947063
    11594.202900       0.949005
    11607.661100       0.950911
    11621.150500       0.952780
    11634.671300       0.954612
    11648.223600       0.956407
    11661.807600       0.958165
    11675.423200       0.959887
    11689.070700       0.961571
    11702.750100       0.963218
    11716.461600       0.964828
    11730.205300       0.966401
    11743.981200       0.967937
    11757.789500       0.969436
    11771.630400       0.970897
    11785.503800       0.972322
    11799.410000       0.973710
    11813.349100       0.975061
    11827.321100       0.976375
    11841.326200       0.977652
    11855.364600       0.978892
    11869.436200       0.980096
    11883.541300       0.981263
    11897.680000       0.982393
    11911.852300       0.983487
    11926.058400       0.984544
    11940.298500       0.985565
    11954.572600       0.986550
    11968.880900       0.987498
    11983.223500       0.988411
    11997.600500       0.989287
    12012.012000       0.990128
    12026.458200       0.990933
    12040.939200       0.991702
    12055.455100       0.992437
    12070.006000       0.993136
    12084.592100       0.993799
    12099.213600       0.994428
    12113.870400       0.995022
    12128.562800       0.995582
    12143.290800       0.996107
    12158.054700       0.996598
    12172.854500       0.997055
    12187.690400       0.997478
    12202.562500       0.997867
    12217.471000       0.998224
    12232.415900       0.998546
    12247.397400       0.998836
    12262.415700       0.999093
    12277.470800       0.999318
    12292.563000       0.999510
    12307.692300       0.999670
    12322.858900       0.999799
    12338.062900       0.999896
    12353.304500       0.999961
    12368.583800       0.999996
    12383.900900       1.000000
    12399.256000       0.999973
    12414.649300       0.999917
    12430.080800       0.999830
    12445.550700       0.999714
    12461.059200       0.999568
    12476.606400       0.999394
    12492.192400       0.999190
    12507.817400       0.998959
    12523.481500       0.998699
    12539.185000       0.998411
    12554.927800       0.998096
    12570.710200       0.997754
    12586.532400       0.997385
    12602.394500       0.996990
    12618.296500       0.996569
    12634.238800       0.996122
    12650.221400       0.995649
    12666.244500       0.995152
    12682.308200       0.994629
    12698.412700       0.994083
    12714.558200       0.993513
    12730.744700       0.992919
    12746.972600       0.992301
    12763.241900       0.991661
    12779.552700       0.990999
    12795.905300       0.990314
    12812.299800       0.989608
    12828.736400       0.988881
    12845.215200       0.988132
    12861.736300       0.987364
    12878.300100       0.986575
    12894.906500       0.985766
    12911.555800       0.984938
    12928.248200       0.984092
    12944.983800       0.983227
    12961.762800       0.982344
    12978.585300       0.981443
    12995.451600       0.980525
    13012.361700       0.979591
    13029.316000       0.978640
    13046.314400       0.977673
    13063.357300       0.976691
    13080.444700       0.975693
    13097.576900       0.974681
    13114.754100       0.973655
    13131.976400       0.972616
    13149.243900       0.971563
    13166.556900       0.970497
    13183.915600       0.969418
    13201.320100       0.968328
    13218.770700       0.967226
    13236.267400       0.966113
    13253.810500       0.964990
    13271.400100       0.963856
    13289.036500       0.962713
    13306.719900       0.961560
    13324.450400       0.960399
    13342.228200       0.959229
    13360.053400       0.958051
    13377.926400       0.956866
    13395.847300       0.955674
    13413.816200       0.954475
    13431.833400       0.953270
    13449.899100       0.952060
    13468.013500       0.950844
    13486.176700       0.949624
    13504.388900       0.948399
    13522.650400       0.947170
    13540.961400       0.945938
    13559.322000       0.944703
    13577.732500       0.943466
    13596.193100       0.942226
    13614.703900       0.940985
    13633.265200       0.939743
    13651.877100       0.938499
    13670.540000       0.937256
    13689.253900       0.936013
    13708.019200       0.934770
    13726.836000       0.933529
    13745.704500       0.932288
    13764.624900       0.931050
    13783.597500       0.929814
    13802.622500       0.928581
    13821.700100       0.927351
    13840.830400       0.926125
    13860.013900       0.924902
    13879.250500       0.923684
    13898.540700       0.922471
    13917.884500       0.921263
    13937.282200       0.920061
    13956.734100       0.918865
    13976.240400       0.917676
    13995.801300       0.916493
    14015.417000       0.915318
    14035.087700       0.914150
    14054.813800       0.912990
    14074.595400       0.911839
    14094.432700       0.910697
    14114.326000       0.909564
    14134.275600       0.908440
    14154.281700       0.907327
    14174.344400       0.906224
    14194.464200       0.905131
    14214.641100       0.904050
    14234.875400       0.902980
    14255.167500       0.901921
    14275.517500       0.900875
    14295.925700       0.899841
    14316.392300       0.898820
    14336.917600       0.897812
    14357.501800       0.896817
    14378.145200       0.895836
    14398.848100       0.894870
    14419.610700       0.893917
    14440.433200       0.892979
    14461.316000       0.892056
    14482.259200       0.891148
    14503.263200       0.890256
    14524.328200       0.889379
    14545.454500       0.888519
    14566.642400       0.887675
    14587.892000       0.886847
    14609.203800       0.886036
    14630.577900       0.885242
    14652.014700       0.884466
    14673.514300       0.883707
    14695.077100       0.882965
    14716.703500       0.882242
    14738.393500       0.881537
    14760.147600       0.880850
    14781.966000       0.880182
    14803.849000       0.879532
    14825.796900       0.878902
    14847.809900       0.878290
    14869.888500       0.877698
    14892.032800       0.877125
    14914.243100       0.876571
    14936.519800       0.876038
    14958.863100       0.875524
    14981.273400       0.875030
    15003.750900       0.874556
    15026.296000       0.874102
    15048.909000       0.873669
    15071.590100       0.873256
    15094.339600       0.872863
    15117.158000       0.872491
    15140.045400       0.872140
    15163.002300       0.871809
    15186.028900       0.871499
    15209.125500       0.871209
    15232.292500       0.870940
    15255.530100       0.870692
    15278.838800       0.870465
    15302.218800       0.870259
    15325.670500       0.870073
    15349.194200       0.869908
    15372.790200       0.869764
    15396.458800       0.869640
    15420.200500       0.869537
    15444.015400       0.869455
    15467.904100       0.869393
    15491.866800       0.869352
    15515.903800       0.869331
    15540.015500       0.869330
    15564.202300       0.869350
    15588.464500       0.869389
    15612.802500       0.869449
    15637.216600       0.869528
    15661.707100       0.869627
    15686.274500       0.869745
    15710.919100       0.869883
    15735.641200       0.870040
    15760.441300       0.870216
    15785.319700       0.870411
    15810.276700       0.870624
    15835.312700       0.870856
    15860.428200       0.871106
    15885.623500       0.871373
    15910.899000       0.871659
    15936.255000       0.871961
    15961.691900       0.872281
    15987.210200       0.872618
    16012.810200       0.872972
    16038.492400       0.873341
    16064.257000       0.873727
    16090.104600       0.874128
    16116.035500       0.874545
    16142.050000       0.874976
    16168.148700       0.875423
    16194.332000       0.875883
    16220.600200       0.876357
    16246.953700       0.876845
    16273.393000       0.877346
    16299.918500       0.877860
    16326.530600       0.878386
    16353.229800       0.878924
    16380.016400       0.879474
    16406.890900       0.880034
    16433.853700       0.880605
    16460.905300       0.881186
    16488.046200       0.881777
    16515.276600       0.882377
    16542.597200       0.882986
    16570.008300       0.883602
    16597.510400       0.884227
    16625.103900       0.884858
    16652.789300       0.885496
    16680.567100       0.886140
    16708.437800       0.886789
    16736.401700       0.887444
    16764.459300       0.888102
    16792.611300       0.888765
    16820.857900       0.889430
    16849.199700       0.890098
    16877.637100       0.890768
    16906.170800       0.891439
    16934.801000       0.892111
    16963.528400       0.892783
    16992.353400       0.893454
    17021.276600       0.894124
    17050.298400       0.894792
    17079.419300       0.895458
    17108.639900       0.896120
    17137.960600       0.896778
    17167.382000       0.897431
    17196.904600       0.898079
    17226.528900       0.898720
    17256.255400       0.899355
    17286.084700       0.899982
    17316.017300       0.900601
    17346.053800       0.901210
    17376.194600       0.901810
    17406.440400       0.902398
    17436.791600       0.902976
    17467.248900       0.903541
    17497.812800       0.904093
    17528.483800       0.904631
    17559.262500       0.905154
    17590.149500       0.905662
    17621.145400       0.906154
    17652.250700       0.906628
    17683.466000       0.907085
