14,   channel 14 SRF from file IR112.txt received February 2021 from Eunha Sohn (KMA)
Number of data points:
1191
Wavenumber (cm-1)   Filter response
      833.300000       0.002064
      833.400000       0.002091
      833.500000       0.002116
      833.600000       0.002139
      833.700000       0.002161
      833.800000       0.002180
      833.900000       0.002199
      834.000000       0.002217
      834.100000       0.002235
      834.200000       0.002252
      834.300000       0.002270
      834.400000       0.002290
      834.500000       0.002310
      834.600000       0.002332
      834.700000       0.002357
      834.800000       0.002383
      834.900000       0.002411
      835.000000       0.002442
      835.100000       0.002476
      835.200000       0.002511
      835.300000       0.002548
      835.400000       0.002587
      835.500000       0.002628
      835.600000       0.002670
      835.700000       0.002713
      835.800000       0.002756
      835.900000       0.002801
      836.000000       0.002845
      836.100000       0.002890
      836.200000       0.002934
      836.300000       0.002977
      836.400000       0.003021
      836.500000       0.003063
      836.600000       0.003104
      836.700000       0.003145
      836.800000       0.003185
      836.900000       0.003223
      837.000000       0.003262
      837.100000       0.003299
      837.200000       0.003337
      837.300000       0.003374
      837.400000       0.003411
      837.500000       0.003449
      837.600000       0.003487
      837.700000       0.003526
      837.800000       0.003567
      837.900000       0.003609
      838.000000       0.003654
      838.100000       0.003700
      838.200000       0.003751
      838.300000       0.003804
      838.400000       0.003861
      838.500000       0.003922
      838.600000       0.003985
      838.700000       0.004053
      838.800000       0.004124
      838.900000       0.004198
      839.000000       0.004275
      839.100000       0.004355
      839.200000       0.004436
      839.300000       0.004519
      839.400000       0.004603
      839.500000       0.004686
      839.600000       0.004769
      839.700000       0.004851
      839.800000       0.004932
      839.900000       0.005010
      840.000000       0.005087
      840.100000       0.005163
      840.200000       0.005235
      840.300000       0.005306
      840.400000       0.005376
      840.500000       0.005443
      840.600000       0.005511
      840.700000       0.005578
      840.800000       0.005646
      840.900000       0.005714
      841.000000       0.005784
      841.100000       0.005856
      841.200000       0.005931
      841.300000       0.006008
      841.400000       0.006090
      841.500000       0.006177
      841.600000       0.006265
      841.700000       0.006360
      841.800000       0.006458
      841.900000       0.006562
      842.000000       0.006668
      842.100000       0.006778
      842.200000       0.006894
      842.300000       0.007011
      842.400000       0.007131
      842.500000       0.007254
      842.600000       0.007381
      842.700000       0.007508
      842.800000       0.007638
      842.900000       0.007771
      843.000000       0.007906
      843.100000       0.008042
      843.200000       0.008183
      843.300000       0.008325
      843.400000       0.008470
      843.500000       0.008619
      843.600000       0.008769
      843.700000       0.008922
      843.800000       0.009081
      843.900000       0.009241
      844.000000       0.009403
      844.100000       0.009567
      844.200000       0.009735
      844.300000       0.009905
      844.400000       0.010078
      844.500000       0.010254
      844.600000       0.010432
      844.700000       0.010613
      844.800000       0.010797
      844.900000       0.010985
      845.000000       0.011173
      845.100000       0.011365
      845.200000       0.011561
      845.300000       0.011758
      845.400000       0.011961
      845.500000       0.012168
      845.600000       0.012377
      845.700000       0.012593
      845.800000       0.012814
      845.900000       0.013039
      846.000000       0.013271
      846.100000       0.013510
      846.200000       0.013753
      846.300000       0.014001
      846.400000       0.014256
      846.500000       0.014520
      846.600000       0.014786
      846.700000       0.015061
      846.800000       0.015343
      846.900000       0.015629
      847.000000       0.015921
      847.100000       0.016219
      847.200000       0.016521
      847.300000       0.016829
      847.400000       0.017144
      847.500000       0.017462
      847.600000       0.017788
      847.700000       0.018118
      847.800000       0.018450
      847.900000       0.018792
      848.000000       0.019139
      848.100000       0.019495
      848.200000       0.019865
      848.300000       0.020239
      848.400000       0.020621
      848.500000       0.021011
      848.600000       0.021406
      848.700000       0.021810
      848.800000       0.022224
      848.900000       0.022641
      849.000000       0.023067
      849.100000       0.023503
      849.200000       0.023944
      849.300000       0.024394
      849.400000       0.024852
      849.500000       0.025314
      849.600000       0.025791
      849.700000       0.026271
      849.800000       0.026767
      849.900000       0.027268
      850.000000       0.027785
      850.100000       0.028308
      850.200000       0.028848
      850.300000       0.029395
      850.400000       0.029953
      850.500000       0.030515
      850.600000       0.031097
      850.700000       0.031692
      850.800000       0.032296
      850.900000       0.032921
      851.000000       0.033557
      851.100000       0.034208
      851.200000       0.034873
      851.300000       0.035553
      851.400000       0.036249
      851.500000       0.036958
      851.600000       0.037679
      851.700000       0.038413
      851.800000       0.039165
      851.900000       0.039962
      852.000000       0.040785
      852.100000       0.041626
      852.200000       0.042487
      852.300000       0.043362
      852.400000       0.044258
      852.500000       0.045172
      852.600000       0.046120
      852.700000       0.047076
      852.800000       0.048053
      852.900000       0.049046
      853.000000       0.050035
      853.100000       0.051026
      853.200000       0.052034
      853.300000       0.053062
      853.400000       0.054109
      853.500000       0.055169
      853.600000       0.056260
      853.700000       0.057358
      853.800000       0.058487
      853.900000       0.059683
      854.000000       0.060976
      854.100000       0.062295
      854.200000       0.063655
      854.300000       0.065039
      854.400000       0.066460
      854.500000       0.067921
      854.600000       0.069411
      854.700000       0.070938
      854.800000       0.072479
      854.900000       0.074058
      855.000000       0.075692
      855.100000       0.077343
      855.200000       0.079019
      855.300000       0.080680
      855.400000       0.082364
      855.500000       0.084089
      855.600000       0.085837
      855.700000       0.087614
      855.800000       0.089424
      855.900000       0.091290
      856.000000       0.093198
      856.100000       0.095140
      856.200000       0.097114
      856.300000       0.099128
      856.400000       0.101230
      856.500000       0.103391
      856.600000       0.105595
      856.700000       0.107844
      856.800000       0.110147
      856.900000       0.112541
      857.000000       0.114987
      857.100000       0.117468
      857.200000       0.120003
      857.300000       0.122561
      857.400000       0.125167
      857.500000       0.127838
      857.600000       0.130529
      857.700000       0.133248
      857.800000       0.136017
      857.900000       0.138853
      858.000000       0.141713
      858.100000       0.144632
      858.200000       0.147617
      858.300000       0.150659
      858.400000       0.153815
      858.500000       0.156992
      858.600000       0.160279
      858.700000       0.163635
      858.800000       0.167057
      858.900000       0.170595
      859.000000       0.174215
      859.100000       0.177898
      859.200000       0.181691
      859.300000       0.185561
      859.400000       0.189486
      859.500000       0.193515
      859.600000       0.197582
      859.700000       0.201779
      859.800000       0.206002
      859.900000       0.210270
      860.000000       0.214650
      860.100000       0.219038
      860.200000       0.223503
      860.300000       0.228036
      860.400000       0.232629
      860.500000       0.237318
      860.600000       0.242018
      860.700000       0.246766
      860.800000       0.251597
      860.900000       0.256470
      861.000000       0.261402
      861.100000       0.266367
      861.200000       0.271409
      861.300000       0.276480
      861.400000       0.281668
      861.500000       0.286863
      861.600000       0.292131
      861.700000       0.297446
      861.800000       0.302873
      861.900000       0.308340
      862.000000       0.313827
      862.100000       0.319411
      862.200000       0.325086
      862.300000       0.330817
      862.400000       0.336612
      862.500000       0.342536
      862.600000       0.348573
      862.700000       0.354653
      862.800000       0.360795
      862.900000       0.367035
      863.000000       0.373329
      863.100000       0.379688
      863.200000       0.386077
      863.300000       0.392500
      863.400000       0.398918
      863.500000       0.405368
      863.600000       0.411795
      863.700000       0.418159
      863.800000       0.424567
      863.900000       0.430957
      864.000000       0.437329
      864.100000       0.443729
      864.200000       0.450159
      864.300000       0.456569
      864.400000       0.462927
      864.500000       0.469462
      864.600000       0.475985
      864.700000       0.482657
      864.800000       0.489335
      864.900000       0.496155
      865.000000       0.503154
      865.100000       0.510192
      865.200000       0.517379
      865.300000       0.524698
      865.400000       0.532114
      865.500000       0.539398
      865.600000       0.546779
      865.700000       0.554150
      865.800000       0.561468
      865.900000       0.568657
      866.000000       0.575716
      866.100000       0.582738
      866.200000       0.589622
      866.300000       0.596329
      866.400000       0.602944
      866.500000       0.609426
      866.600000       0.615801
      866.700000       0.622154
      866.800000       0.628423
      866.900000       0.634555
      867.000000       0.640728
      867.100000       0.646963
      867.200000       0.653276
      867.300000       0.659564
      867.400000       0.665816
      867.500000       0.672319
      867.600000       0.678954
      867.700000       0.685608
      867.800000       0.692347
      867.900000       0.699160
      868.000000       0.706098
      868.100000       0.713112
      868.200000       0.719921
      868.300000       0.726703
      868.400000       0.733443
      868.500000       0.739949
      868.600000       0.746441
      868.700000       0.752904
      868.800000       0.759053
      868.900000       0.765023
      869.000000       0.770875
      869.100000       0.776446
      869.200000       0.781971
      869.300000       0.787318
      869.400000       0.792563
      869.500000       0.797469
      869.600000       0.802572
      869.700000       0.807580
      869.800000       0.812580
      869.900000       0.817475
      870.000000       0.822434
      870.100000       0.827459
      870.200000       0.832507
      870.300000       0.837507
      870.400000       0.842545
      870.500000       0.847718
      870.600000       0.852915
      870.700000       0.858191
      870.800000       0.863456
      870.900000       0.868691
      871.000000       0.873870
      871.100000       0.879030
      871.200000       0.883793
      871.300000       0.888320
      871.400000       0.892455
      871.500000       0.896565
      871.600000       0.900185
      871.700000       0.903555
      871.800000       0.906986
      871.900000       0.910001
      872.000000       0.912916
      872.100000       0.915897
      872.200000       0.918641
      872.300000       0.921383
      872.400000       0.924013
      872.500000       0.926652
      872.600000       0.929433
      872.700000       0.932492
      872.800000       0.935533
      872.900000       0.938566
      873.000000       0.942498
      873.100000       0.946519
      873.200000       0.949472
      873.300000       0.952000
      873.400000       0.954226
      873.500000       0.956367
      873.600000       0.958381
      873.700000       0.960152
      873.800000       0.961816
      873.900000       0.963491
      874.000000       0.964928
      874.100000       0.966059
      874.200000       0.967225
      874.300000       0.968286
      874.400000       0.969060
      874.500000       0.969774
      874.600000       0.970574
      874.700000       0.971256
      874.800000       0.972021
      874.900000       0.972808
      875.000000       0.973581
      875.100000       0.974417
      875.200000       0.975438
      875.300000       0.976520
      875.400000       0.977459
      875.500000       0.978807
      875.600000       0.979978
      875.700000       0.981432
      875.800000       0.982584
      875.900000       0.983828
      876.000000       0.984863
      876.100000       0.985865
      876.200000       0.986961
      876.300000       0.987880
      876.400000       0.988813
      876.500000       0.989572
      876.600000       0.990135
      876.700000       0.990436
      876.800000       0.990756
      876.900000       0.991012
      877.000000       0.991056
      877.100000       0.991013
      877.200000       0.990887
      877.300000       0.990772
      877.400000       0.990696
      877.500000       0.990487
      877.600000       0.990251
      877.700000       0.990380
      877.800000       0.990531
      877.900000       0.990814
      878.000000       0.991293
      878.100000       0.991795
      878.200000       0.992417
      878.300000       0.993190
      878.400000       0.994238
      878.500000       0.995106
      878.600000       0.995934
      878.700000       0.996653
      878.800000       0.997303
      878.900000       0.997918
      879.000000       0.998440
      879.100000       0.998842
      879.200000       0.999116
      879.300000       0.999137
      879.400000       0.999064
      879.500000       0.999157
      879.600000       0.998886
      879.700000       0.998786
      879.800000       0.998574
      879.900000       0.998402
      880.000000       0.998159
      880.100000       0.998176
      880.200000       0.998067
      880.300000       0.998220
      880.400000       0.998364
      880.500000       0.998558
      880.600000       0.998933
      880.700000       0.999185
      880.800000       0.999570
      880.900000       0.999836
      881.000000       0.999822
      881.100000       0.999969
      881.200000       0.999951
      881.300000       0.999920
      881.400000       0.999663
      881.500000       0.999421
      881.600000       0.998985
      881.700000       0.998372
      881.800000       0.997887
      881.900000       0.997334
      882.000000       0.996608
      882.100000       0.995990
      882.200000       0.995198
      882.300000       0.994449
      882.400000       0.993849
      882.500000       0.993496
      882.600000       0.993073
      882.700000       0.992820
      882.800000       0.992774
      882.900000       0.992903
      883.000000       0.993009
      883.100000       0.993523
      883.200000       0.993838
      883.300000       0.994384
      883.400000       0.994792
      883.500000       0.995247
      883.600000       0.995747
      883.700000       0.996047
      883.800000       0.996328
      883.900000       0.996675
      884.000000       0.996638
      884.100000       0.996342
      884.200000       0.996106
      884.300000       0.995494
      884.400000       0.994771
      884.500000       0.993952
      884.600000       0.993151
      884.700000       0.992388
      884.800000       0.991417
      884.900000       0.990461
      885.000000       0.989655
      885.100000       0.988932
      885.200000       0.988104
      885.300000       0.987366
      885.400000       0.986809
      885.500000       0.986443
      885.600000       0.986056
      885.700000       0.985871
      885.800000       0.985630
      885.900000       0.985473
      886.000000       0.985550
      886.100000       0.985461
      886.200000       0.985371
      886.300000       0.985250
      886.400000       0.984883
      886.500000       0.984613
      886.600000       0.984196
      886.700000       0.983750
      886.800000       0.983135
      886.900000       0.982386
      887.000000       0.981689
      887.100000       0.980881
      887.200000       0.979991
      887.300000       0.979125
      887.400000       0.978320
      887.500000       0.977668
      887.600000       0.976900
      887.700000       0.976298
      887.800000       0.975768
      887.900000       0.975517
      888.000000       0.975242
      888.100000       0.975032
      888.200000       0.975093
      888.300000       0.975083
      888.400000       0.975235
      888.500000       0.975223
      888.600000       0.975296
      888.700000       0.975361
      888.800000       0.975169
      888.900000       0.974960
      889.000000       0.974781
      889.100000       0.974226
      889.200000       0.973790
      889.300000       0.973083
      889.400000       0.972353
      889.500000       0.971519
      889.600000       0.970520
      889.700000       0.969624
      889.800000       0.968887
      889.900000       0.968075
      890.000000       0.967369
      890.100000       0.966824
      890.200000       0.966424
      890.300000       0.966192
      890.400000       0.966191
      890.500000       0.966323
      890.600000       0.966559
      890.700000       0.966733
      890.800000       0.967241
      890.900000       0.967821
      891.000000       0.968327
      891.100000       0.968794
      891.200000       0.969159
      891.300000       0.969423
      891.400000       0.969560
      891.500000       0.969587
      891.600000       0.969389
      891.700000       0.968984
      891.800000       0.968640
      891.900000       0.968100
      892.000000       0.967454
      892.100000       0.966641
      892.200000       0.965821
      892.300000       0.965270
      892.400000       0.964598
      892.500000       0.964003
      892.600000       0.963542
      892.700000       0.963207
      892.800000       0.962958
      892.900000       0.962765
      893.000000       0.962846
      893.100000       0.963067
      893.200000       0.963354
      893.300000       0.963576
      893.400000       0.963958
      893.500000       0.964193
      893.600000       0.964628
      893.700000       0.964816
      893.800000       0.964974
      893.900000       0.965089
      894.000000       0.964968
      894.100000       0.964929
      894.200000       0.964690
      894.300000       0.964374
      894.400000       0.963955
      894.500000       0.963469
      894.600000       0.962895
      894.700000       0.962260
      894.800000       0.961751
      894.900000       0.961350
      895.000000       0.960880
      895.100000       0.960485
      895.200000       0.960355
