42,   42, MVIRI VIS channel from srf_MET7_2002303_2002304_1801-Release_S10EE_10.dat
Number of data points:
793
Wavenumber (cm-1)   Filter response
     8442.380800       0.000000
     8449.514200       0.000000
     8456.659600       0.000004
     8463.817200       0.000054
     8470.986900       0.000159
     8478.168700       0.000319
     8485.362700       0.000531
     8492.569000       0.000793
     8499.787500       0.001105
     8507.018300       0.001465
     8514.261400       0.001872
     8521.516800       0.002324
     8528.784600       0.002820
     8536.064900       0.003359
     8543.357500       0.003939
     8550.662700       0.004560
     8557.980300       0.005220
     8565.310500       0.005919
     8572.653200       0.006654
     8580.008600       0.007426
     8587.376600       0.008234
     8594.757200       0.009076
     8602.150500       0.009952
     8609.556600       0.010860
     8616.975400       0.011800
     8624.407100       0.012772
     8631.851500       0.013774
     8639.308900       0.014806
     8646.779100       0.015867
     8654.262200       0.016957
     8661.758300       0.018075
     8669.267400       0.019220
     8676.789600       0.020392
     8684.324800       0.021590
     8691.873100       0.022814
     8699.434500       0.024064
     8707.009100       0.025338
     8714.596900       0.026637
     8722.198000       0.027960
     8729.812300       0.029307
     8737.439900       0.030677
     8745.080900       0.032071
     8752.735200       0.033487
     8760.403000       0.034925
     8768.084200       0.036387
     8775.778900       0.037870
     8783.487000       0.039375
     8791.208800       0.040901
     8798.944100       0.042449
     8806.693100       0.044018
     8814.455700       0.045608
     8822.232000       0.047220
     8830.022100       0.048851
     8837.825900       0.050504
     8845.643500       0.052178
     8853.475000       0.053872
     8861.320300       0.055586
     8869.179600       0.057320
     8877.052800       0.059076
     8884.940000       0.060851
     8892.841300       0.062646
     8900.756600       0.064462
     8908.686000       0.066298
     8916.629500       0.068155
     8924.587200       0.070031
     8932.559200       0.071928
     8940.545400       0.073845
     8948.545900       0.075783
     8956.560700       0.077740
     8964.589900       0.079719
     8972.633500       0.081717
     8980.691500       0.083736
     8988.764000       0.085776
     8996.851100       0.087836
     9004.952700       0.089917
     9013.068900       0.092019
     9021.199800       0.094141
     9029.345400       0.096285
     9037.505600       0.098449
     9045.680700       0.100634
     9053.870500       0.102841
     9062.075200       0.105069
     9070.294800       0.107318
     9078.529300       0.109589
     9086.778700       0.111881
     9095.043200       0.114195
     9103.322700       0.116530
     9111.617300       0.118887
     9119.927000       0.121266
     9128.251900       0.123668
     9136.592100       0.126091
     9144.947400       0.128536
     9153.318100       0.131004
     9161.704100       0.133494
     9170.105500       0.136007
     9178.522300       0.138542
     9186.954500       0.141099
     9195.402300       0.143680
     9203.865600       0.146282
     9212.344500       0.148908
     9220.839100       0.151557
     9229.349300       0.154229
     9237.875300       0.156924
     9246.417000       0.159642
     9254.974500       0.162383
     9263.547900       0.165148
     9272.137200       0.167935
     9280.742500       0.170746
     9289.363700       0.173580
     9298.000900       0.176438
     9306.654300       0.179320
     9315.323700       0.182224
     9324.009300       0.185153
     9332.711200       0.188105
     9341.429200       0.191080
     9350.163600       0.194079
     9358.914400       0.197101
     9367.681500       0.200148
     9376.465100       0.203217
     9385.265100       0.206310
     9394.081700       0.209427
     9402.914900       0.212568
     9411.764700       0.215732
     9420.631200       0.218919
     9429.514400       0.222130
     9438.414300       0.225364
     9447.331100       0.228621
     9456.264800       0.231902
     9465.215300       0.235206
     9474.182900       0.238533
     9483.167400       0.241884
     9492.169000       0.245257
     9501.187600       0.248653
     9510.223500       0.252072
     9519.276500       0.255514
     9528.346800       0.258979
     9537.434400       0.262466
     9546.539400       0.265975
     9555.661700       0.269507
     9564.801500       0.273060
     9573.958800       0.276636
     9583.133700       0.280234
     9592.326100       0.283854
     9601.536200       0.287495
     9610.764100       0.291157
     9620.009600       0.294841
     9629.273000       0.298546
     9638.554200       0.302271
     9647.853400       0.306018
     9657.170400       0.309785
     9666.505600       0.313572
     9675.858700       0.317380
     9685.230000       0.321207
     9694.619500       0.325054
     9704.027200       0.328920
     9713.453100       0.332806
     9722.897400       0.336711
     9732.360100       0.340634
     9741.841200       0.344577
     9751.340800       0.348537
     9760.859000       0.352515
     9770.395700       0.356512
     9779.951100       0.360525
     9789.525200       0.364556
     9799.118100       0.368604
     9808.729800       0.372668
     9818.360300       0.376749
     9828.009800       0.380845
     9837.678300       0.384958
     9847.365800       0.389086
     9857.072400       0.393229
     9866.798200       0.397387
     9876.543200       0.401559
     9886.307500       0.405746
     9896.091000       0.409946
     9905.894000       0.414160
     9915.716400       0.418387
     9925.558300       0.422626
     9935.419800       0.426879
     9945.300800       0.431143
     9955.201600       0.435419
     9965.122100       0.439706
     9975.062300       0.444004
     9985.022500       0.448313
     9995.002500       0.452633
    10005.002500       0.456962
    10015.022500       0.461300
    10025.062700       0.465647
    10035.122900       0.470004
    10045.203400       0.474368
    10055.304200       0.478741
    10065.425300       0.483120
    10075.566800       0.487507
    10085.728700       0.491901
    10095.911200       0.496301
    10106.114200       0.500706
    10116.337900       0.505117
    10126.582300       0.509533
    10136.847400       0.513953
    10147.133400       0.518378
    10157.440300       0.522806
    10167.768200       0.527238
    10178.117000       0.531672
    10188.487000       0.536109
    10198.878100       0.540548
    10209.290500       0.544988
    10219.724100       0.549429
    10230.179000       0.553871
    10240.655400       0.558313
    10251.153300       0.562755
    10261.672700       0.567195
    10272.213700       0.571635
    10282.776300       0.576073
    10293.360800       0.580509
    10303.967000       0.584942
    10314.595200       0.589373
    10325.245200       0.593799
    10335.917300       0.598222
    10346.611500       0.602641
    10357.327800       0.607054
    10368.066400       0.611462
    10378.827200       0.615865
    10389.610400       0.620261
    10400.416000       0.624651
    10411.244100       0.629033
    10422.094800       0.633407
    10432.968200       0.637774
    10443.864200       0.642132
    10454.783100       0.646481
    10465.724800       0.650820
    10476.689400       0.655149
    10487.677000       0.659469
    10498.687700       0.663777
    10509.721500       0.668074
    10520.778500       0.672359
    10531.858900       0.676631
    10542.962600       0.680891
    10554.089700       0.685138
    10565.240400       0.689372
    10576.414600       0.693591
    10587.612500       0.697795
    10598.834100       0.701985
    10610.079600       0.706160
    10621.348900       0.710318
    10632.642200       0.714460
    10643.959600       0.718586
    10655.301000       0.722695
    10666.666700       0.726785
    10678.056600       0.730858
    10689.470900       0.734912
    10700.909600       0.738948
    10712.372800       0.742964
    10723.860600       0.746960
    10735.373100       0.750936
    10746.910300       0.754892
    10758.472300       0.758827
    10770.059200       0.762740
    10781.671200       0.766631
    10793.308100       0.770500
    10804.970300       0.774347
    10816.657700       0.778171
    10828.370300       0.781971
    10840.108400       0.785747
    10851.871900       0.789499
    10863.661100       0.793227
    10875.475800       0.796930
    10887.316300       0.800608
    10899.182600       0.804259
    10911.074700       0.807885
    10922.992900       0.811485
    10934.937100       0.815057
    10946.907500       0.818603
    10958.904100       0.822121
    10970.927000       0.825611
    10982.976400       0.829073
    10995.052200       0.832507
    11007.154700       0.835911
    11019.283700       0.839287
    11031.439600       0.842633
    11043.622300       0.845950
    11055.832000       0.849236
    11068.068600       0.852492
    11080.332400       0.855717
    11092.623400       0.858912
    11104.941700       0.862075
    11117.287400       0.865206
    11129.660500       0.868306
    11142.061300       0.871373
    11154.489700       0.874408
    11166.945800       0.877411
    11179.429800       0.880380
    11191.941800       0.883317
    11204.481800       0.886220
    11217.049900       0.889089
    11229.646300       0.891925
    11242.270900       0.894726
    11254.924000       0.897494
    11267.605600       0.900226
    11280.315800       0.902924
    11293.054800       0.905587
    11305.822500       0.908215
    11318.619100       0.910807
    11331.444800       0.913364
    11344.299500       0.915886
    11357.183400       0.918371
    11370.096600       0.920820
    11383.039300       0.923233
    11396.011400       0.925610
    11409.013100       0.927950
    11422.044500       0.930254
    11435.105800       0.932521
    11448.196900       0.934750
    11461.318100       0.936943
    11474.469300       0.939099
    11487.650800       0.941217
    11500.862600       0.943298
    11514.104800       0.945342
    11527.377500       0.947348
    11540.680900       0.949316
    11554.015000       0.951247
    11567.380000       0.953139
    11580.775900       0.954994
    11594.202900       0.956811
    11607.661100       0.958590
    11621.150500       0.960332
    11634.671300       0.962035
    11648.223600       0.963700
    11661.807600       0.965326
    11675.423200       0.966915
    11689.070700       0.968466
    11702.750100       0.969978
    11716.461600       0.971453
    11730.205300       0.972889
    11743.981200       0.974287
    11757.789500       0.975647
    11771.630400       0.976969
    11785.503800       0.978253
    11799.410000       0.979499
    11813.349100       0.980707
    11827.321100       0.981877
    11841.326200       0.983009
    11855.364600       0.984104
    11869.436200       0.985161
    11883.541300       0.986181
    11897.680000       0.987162
    11911.852300       0.988107
    11926.058400       0.989014
    11940.298500       0.989884
    11954.572600       0.990717
    11968.880900       0.991513
    11983.223500       0.992272
    11997.600500       0.992995
    12012.012000       0.993681
    12026.458200       0.994330
    12040.939200       0.994944
    12055.455100       0.995521
    12070.006000       0.996062
    12084.592100       0.996568
    12099.213600       0.997037
    12113.870400       0.997472
    12128.562800       0.997871
    12143.290800       0.998236
    12158.054700       0.998565
    12172.854500       0.998860
    12187.690400       0.999120
    12202.562500       0.999347
    12217.471000       0.999539
    12232.415900       0.999698
    12247.397400       0.999823
    12262.415700       0.999915
    12277.470800       0.999974
    12292.563000       1.000000
    12307.692300       0.999994
    12322.858900       0.999955
    12338.062900       0.999885
    12353.304500       0.999783
    12368.583800       0.999649
    12383.900900       0.999485
    12399.256000       0.999289
    12414.649300       0.999063
    12430.080800       0.998807
    12445.550700       0.998521
    12461.059200       0.998205
    12476.606400       0.997860
    12492.192400       0.997487
    12507.817400       0.997084
    12523.481500       0.996653
    12539.185000       0.996194
    12554.927800       0.995708
    12570.710200       0.995194
    12586.532400       0.994653
    12602.394500       0.994086
    12618.296500       0.993492
    12634.238800       0.992873
    12650.221400       0.992228
    12666.244500       0.991557
    12682.308200       0.990862
    12698.412700       0.990143
    12714.558200       0.989400
    12730.744700       0.988633
    12746.972600       0.987842
    12763.241900       0.987029
    12779.552700       0.986193
    12795.905300       0.985336
    12812.299800       0.984456
    12828.736400       0.983556
    12845.215200       0.982634
    12861.736300       0.981692
    12878.300100       0.980730
    12894.906500       0.979748
    12911.555800       0.978747
    12928.248200       0.977727
    12944.983800       0.976689
    12961.762800       0.975633
    12978.585300       0.974559
    12995.451600       0.973468
    13012.361700       0.972361
    13029.316000       0.971237
    13046.314400       0.970097
    13063.357300       0.968942
    13080.444700       0.967773
    13097.576900       0.966588
    13114.754100       0.965390
    13131.976400       0.964178
    13149.243900       0.962953
    13166.556900       0.961715
    13183.915600       0.960464
    13201.320100       0.959202
    13218.770700       0.957929
    13236.267400       0.956645
    13253.810500       0.955350
    13271.400100       0.954045
    13289.036500       0.952730
    13306.719900       0.951407
    13324.450400       0.950075
    13342.228200       0.948734
    13360.053400       0.947386
    13377.926400       0.946030
    13395.847300       0.944668
    13413.816200       0.943299
    13431.833400       0.941924
    13449.899100       0.940544
    13468.013500       0.939158
    13486.176700       0.937768
    13504.388900       0.936374
    13522.650400       0.934976
    13540.961400       0.933575
    13559.322000       0.932171
    13577.732500       0.930764
    13596.193100       0.929356
    13614.703900       0.927946
    13633.265200       0.926535
    13651.877100       0.925123
    13670.540000       0.923711
    13689.253900       0.922300
    13708.019200       0.920889
    13726.836000       0.919479
    13745.704500       0.918071
    13764.624900       0.916664
    13783.597500       0.915261
    13802.622500       0.913859
    13821.700100       0.912462
    13840.830400       0.911067
    13860.013900       0.909677
    13879.250500       0.908291
    13898.540700       0.906911
    13917.884500       0.905535
    13937.282200       0.904165
    13956.734100       0.902801
    13976.240400       0.901444
    13995.801300       0.900094
    14015.417000       0.898750
    14035.087700       0.897415
    14054.813800       0.896087
    14074.595400       0.894768
    14094.432700       0.893457
    14114.326000       0.892156
    14134.275600       0.890864
    14154.281700       0.889582
    14174.344400       0.888310
    14194.464200       0.887048
    14214.641100       0.885798
    14234.875400       0.884559
    14255.167500       0.883331
    14275.517500       0.882115
    14295.925700       0.880911
    14316.392300       0.879720
    14336.917600       0.878542
    14357.501800       0.877377
    14378.145200       0.876225
    14398.848100       0.875087
    14419.610700       0.873963
    14440.433200       0.872853
    14461.316000       0.871758
    14482.259200       0.870677
    14503.263200       0.869612
    14524.328200       0.868562
    14545.454500       0.867528
    14566.642400       0.866510
    14587.892000       0.865507
    14609.203800       0.864521
    14630.577900       0.863552
    14652.014700       0.862600
    14673.514300       0.861664
    14695.077100       0.860746
    14716.703500       0.859845
    14738.393500       0.858961
    14760.147600       0.858096
    14781.966000       0.857248
    14803.849000       0.856419
    14825.796900       0.855608
    14847.809900       0.854815
    14869.888500       0.854041
    14892.032800       0.853285
    14914.243100       0.852549
    14936.519800       0.851831
    14958.863100       0.851132
    14981.273400       0.850453
    15003.750900       0.849793
    15026.296000       0.849152
    15048.909000       0.848531
    15071.590100       0.847930
    15094.339600       0.847348
    15117.158000       0.846785
    15140.045400       0.846242
    15163.002300       0.845720
    15186.028900       0.845216
    15209.125500       0.844733
    15232.292500       0.844270
    15255.530100       0.843826
    15278.838800       0.843402
    15302.218800       0.842998
    15325.670500       0.842614
    15349.194200       0.842249
    15372.790200       0.841904
    15396.458800       0.841579
    15420.200500       0.841273
    15444.015400       0.840987
    15467.904100       0.840721
    15491.866800       0.840474
    15515.903800       0.840246
    15540.015500       0.840037
    15564.202300       0.839847
    15588.464500       0.839676
    15612.802500       0.839524
    15637.216600       0.839391
    15661.707100       0.839276
    15686.274500       0.839179
    15710.919100       0.839101
    15735.641200       0.839040
    15760.441300       0.838998
    15785.319700       0.838973
    15810.276700       0.838965
    15835.312700       0.838974
    15860.428200       0.839001
    15885.623500       0.839044
    15910.899000       0.839103
    15936.255000       0.839179
    15961.691900       0.839270
    15987.210200       0.839377
    16012.810200       0.839499
    16038.492400       0.839637
    16064.257000       0.839789
    16090.104600       0.839956
    16116.035500       0.840136
    16142.050000       0.840330
    16168.148700       0.840538
    16194.332000       0.840759
    16220.600200       0.840992
    16246.953700       0.841238
    16273.393000       0.841495
    16299.918500       0.841764
    16326.530600       0.842044
    16353.229800       0.842335
    16380.016400       0.842636
    16406.890900       0.842947
    16433.853700       0.843267
    16460.905300       0.843596
    16488.046200       0.843933
    16515.276600       0.844279
    16542.597200       0.844632
    16570.008300       0.844992
    16597.510400       0.845358
    16625.103900       0.845730
    16652.789300       0.846108
    16680.567100       0.846491
    16708.437800       0.846878
    16736.401700       0.847269
    16764.459300       0.847663
    16792.611300       0.848060
    16820.857900       0.848459
    16849.199700       0.848860
    16877.637100       0.849262
    16906.170800       0.849664
    16934.801000       0.850066
    16963.528400       0.850467
    16992.353400       0.850866
    17021.276600       0.851264
    17050.298400       0.851658
    17079.419300       0.852050
    17108.639900       0.852437
    17137.960600       0.852820
    17167.382000       0.853197
    17196.904600       0.853568
    17226.528900       0.853932
    17256.255400       0.854289
    17286.084700       0.854638
    17316.017300       0.854978
    17346.053800       0.855309
    17376.194600       0.855629
    17406.440400       0.855938
    17436.791600       0.856236
    17467.248900       0.856521
    17497.812800       0.856793
    17528.483800       0.857051
    17559.262500       0.857294
    17590.149500       0.857522
    17621.145400       0.857733
    17652.250700       0.857927
    17683.466000       0.858104
