35,   35, MVIRI VIS channel from srf_MET7_2001348_2001349_1801-Release_S10EE_10.dat
Number of data points:
793
Wavenumber (cm-1)   Filter response
     8442.380800       0.000000
     8449.514200       0.000000
     8456.659600       0.000004
     8463.817200       0.000053
     8470.986900       0.000158
     8478.168700       0.000316
     8485.362700       0.000527
     8492.569000       0.000788
     8499.787500       0.001097
     8507.018300       0.001455
     8514.261400       0.001859
     8521.516800       0.002308
     8528.784600       0.002800
     8536.064900       0.003335
     8543.357500       0.003911
     8550.662700       0.004528
     8557.980300       0.005184
     8565.310500       0.005877
     8572.653200       0.006608
     8580.008600       0.007375
     8587.376600       0.008177
     8594.757200       0.009013
     8602.150500       0.009883
     8609.556600       0.010785
     8616.975400       0.011719
     8624.407100       0.012684
     8631.851500       0.013680
     8639.308900       0.014705
     8646.779100       0.015759
     8654.262200       0.016841
     8661.758300       0.017951
     8669.267400       0.019089
     8676.789600       0.020253
     8684.324800       0.021444
     8691.873100       0.022660
     8699.434500       0.023901
     8707.009100       0.025167
     8714.596900       0.026458
     8722.198000       0.027772
     8729.812300       0.029111
     8737.439900       0.030472
     8745.080900       0.031857
     8752.735200       0.033264
     8760.403000       0.034693
     8768.084200       0.036145
     8775.778900       0.037619
     8783.487000       0.039115
     8791.208800       0.040631
     8798.944100       0.042170
     8806.693100       0.043729
     8814.455700       0.045310
     8822.232000       0.046911
     8830.022100       0.048533
     8837.825900       0.050175
     8845.643500       0.051839
     8853.475000       0.053522
     8861.320300       0.055226
     8869.179600       0.056950
     8877.052800       0.058695
     8884.940000       0.060460
     8892.841300       0.062245
     8900.756600       0.064050
     8908.686000       0.065875
     8916.629500       0.067720
     8924.587200       0.069586
     8932.559200       0.071472
     8940.545400       0.073378
     8948.545900       0.075304
     8956.560700       0.077250
     8964.589900       0.079217
     8972.633500       0.081204
     8980.691500       0.083212
     8988.764000       0.085240
     8996.851100       0.087289
     9004.952700       0.089358
     9013.068900       0.091448
     9021.199800       0.093559
     9029.345400       0.095690
     9037.505600       0.097842
     9045.680700       0.100016
     9053.870500       0.102210
     9062.075200       0.104426
     9070.294800       0.106663
     9078.529300       0.108922
     9086.778700       0.111202
     9095.043200       0.113503
     9103.322700       0.115826
     9111.617300       0.118171
     9119.927000       0.120537
     9128.251900       0.122926
     9136.592100       0.125337
     9144.947400       0.127769
     9153.318100       0.130224
     9161.704100       0.132701
     9170.105500       0.135201
     9178.522300       0.137723
     9186.954500       0.140268
     9195.402300       0.142835
     9203.865600       0.145425
     9212.344500       0.148038
     9220.839100       0.150674
     9229.349300       0.153332
     9237.875300       0.156014
     9246.417000       0.158718
     9254.974500       0.161446
     9263.547900       0.164197
     9272.137200       0.166971
     9280.742500       0.169769
     9289.363700       0.172590
     9298.000900       0.175434
     9306.654300       0.178302
     9315.323700       0.181193
     9324.009300       0.184108
     9332.711200       0.187046
     9341.429200       0.190007
     9350.163600       0.192993
     9358.914400       0.196001
     9367.681500       0.199034
     9376.465100       0.202090
     9385.265100       0.205169
     9394.081700       0.208272
     9402.914900       0.211398
     9411.764700       0.214548
     9420.631200       0.217722
     9429.514400       0.220918
     9438.414300       0.224138
     9447.331100       0.227382
     9456.264800       0.230649
     9465.215300       0.233939
     9474.182900       0.237252
     9483.167400       0.240588
     9492.169000       0.243947
     9501.187600       0.247330
     9510.223500       0.250735
     9519.276500       0.254162
     9528.346800       0.257613
     9537.434400       0.261086
     9546.539400       0.264581
     9555.661700       0.268099
     9564.801500       0.271639
     9573.958800       0.275201
     9583.133700       0.278785
     9592.326100       0.282390
     9601.536200       0.286017
     9610.764100       0.289666
     9620.009600       0.293336
     9629.273000       0.297027
     9638.554200       0.300738
     9647.853400       0.304471
     9657.170400       0.308224
     9666.505600       0.311998
     9675.858700       0.315792
     9685.230000       0.319606
     9694.619500       0.323439
     9704.027200       0.327292
     9713.453100       0.331164
     9722.897400       0.335056
     9732.360100       0.338966
     9741.841200       0.342895
     9751.340800       0.346842
     9760.859000       0.350807
     9770.395700       0.354790
     9779.951100       0.358791
     9789.525200       0.362809
     9799.118100       0.366844
     9808.729800       0.370895
     9818.360300       0.374963
     9828.009800       0.379047
     9837.678300       0.383147
     9847.365800       0.387263
     9857.072400       0.391393
     9866.798200       0.395539
     9876.543200       0.399699
     9886.307500       0.403874
     9896.091000       0.408062
     9905.894000       0.412264
     9915.716400       0.416480
     9925.558300       0.420707
     9935.419800       0.424948
     9945.300800       0.429201
     9955.201600       0.433466
     9965.122100       0.437742
     9975.062300       0.442029
     9985.022500       0.446328
     9995.002500       0.450636
    10005.002500       0.454955
    10015.022500       0.459283
    10025.062700       0.463620
    10035.122900       0.467966
    10045.203400       0.472320
    10055.304200       0.476683
    10065.425300       0.481053
    10075.566800       0.485430
    10085.728700       0.489814
    10095.911200       0.494205
    10106.114200       0.498602
    10116.337900       0.503004
    10126.582300       0.507411
    10136.847400       0.511823
    10147.133400       0.516239
    10157.440300       0.520659
    10167.768200       0.525083
    10178.117000       0.529509
    10188.487000       0.533939
    10198.878100       0.538370
    10209.290500       0.542803
    10219.724100       0.547237
    10230.179000       0.551672
    10240.655400       0.556107
    10251.153300       0.560543
    10261.672700       0.564977
    10272.213700       0.569411
    10282.776300       0.573843
    10293.360800       0.578274
    10303.967000       0.582701
    10314.595200       0.587127
    10325.245200       0.591548
    10335.917300       0.595967
    10346.611500       0.600381
    10357.327800       0.604790
    10368.066400       0.609194
    10378.827200       0.613593
    10389.610400       0.617985
    10400.416000       0.622371
    10411.244100       0.626750
    10422.094800       0.631122
    10432.968200       0.635486
    10443.864200       0.639842
    10454.783100       0.644188
    10465.724800       0.648526
    10476.689400       0.652854
    10487.677000       0.657171
    10498.687700       0.661478
    10509.721500       0.665774
    10520.778500       0.670058
    10531.858900       0.674331
    10542.962600       0.678591
    10554.089700       0.682838
    10565.240400       0.687071
    10576.414600       0.691291
    10587.612500       0.695497
    10598.834100       0.699688
    10610.079600       0.703864
    10621.348900       0.708024
    10632.642200       0.712168
    10643.959600       0.716296
    10655.301000       0.720407
    10666.666700       0.724500
    10678.056600       0.728576
    10689.470900       0.732634
    10700.909600       0.736673
    10712.372800       0.740693
    10723.860600       0.744693
    10735.373100       0.748674
    10746.910300       0.752634
    10758.472300       0.756574
    10770.059200       0.760492
    10781.671200       0.764389
    10793.308100       0.768264
    10804.970300       0.772117
    10816.657700       0.775947
    10828.370300       0.779753
    10840.108400       0.783537
    10851.871900       0.787296
    10863.661100       0.791032
    10875.475800       0.794742
    10887.316300       0.798427
    10899.182600       0.802087
    10911.074700       0.805722
    10922.992900       0.809330
    10934.937100       0.812912
    10946.907500       0.816467
    10958.904100       0.819994
    10970.927000       0.823495
    10982.976400       0.826967
    10995.052200       0.830411
    11007.154700       0.833827
    11019.283700       0.837213
    11031.439600       0.840571
    11043.622300       0.843899
    11055.832000       0.847197
    11068.068600       0.850465
    11080.332400       0.853703
    11092.623400       0.856910
    11104.941700       0.860086
    11117.287400       0.863231
    11129.660500       0.866344
    11142.061300       0.869425
    11154.489700       0.872474
    11166.945800       0.875491
    11179.429800       0.878475
    11191.941800       0.881427
    11204.481800       0.884345
    11217.049900       0.887230
    11229.646300       0.890081
    11242.270900       0.892898
    11254.924000       0.895682
    11267.605600       0.898431
    11280.315800       0.901145
    11293.054800       0.903825
    11305.822500       0.906470
    11318.619100       0.909080
    11331.444800       0.911655
    11344.299500       0.914194
    11357.183400       0.916697
    11370.096600       0.919165
    11383.039300       0.921597
    11396.011400       0.923992
    11409.013100       0.926351
    11422.044500       0.928674
    11435.105800       0.930961
    11448.196900       0.933210
    11461.318100       0.935423
    11474.469300       0.937599
    11487.650800       0.939738
    11500.862600       0.941839
    11514.104800       0.943904
    11527.377500       0.945931
    11540.680900       0.947921
    11554.015000       0.949873
    11567.380000       0.951787
    11580.775900       0.953664
    11594.202900       0.955504
    11607.661100       0.957305
    11621.150500       0.959069
    11634.671300       0.960795
    11648.223600       0.962482
    11661.807600       0.964132
    11675.423200       0.965745
    11689.070700       0.967319
    11702.750100       0.968855
    11716.461600       0.970353
    11730.205300       0.971814
    11743.981200       0.973236
    11757.789500       0.974621
    11771.630400       0.975967
    11785.503800       0.977276
    11799.410000       0.978547
    11813.349100       0.979780
    11827.321100       0.980976
    11841.326200       0.982133
    11855.364600       0.983254
    11869.436200       0.984337
    11883.541300       0.985382
    11897.680000       0.986390
    11911.852300       0.987361
    11926.058400       0.988294
    11940.298500       0.989191
    11954.572600       0.990050
    11968.880900       0.990873
    11983.223500       0.991659
    11997.600500       0.992409
    12012.012000       0.993122
    12026.458200       0.993799
    12040.939200       0.994439
    12055.455100       0.995044
    12070.006000       0.995613
    12084.592100       0.996146
    12099.213600       0.996644
    12113.870400       0.997106
    12128.562800       0.997534
    12143.290800       0.997926
    12158.054700       0.998284
    12172.854500       0.998607
    12187.690400       0.998896
    12202.562500       0.999151
    12217.471000       0.999372
    12232.415900       0.999559
    12247.397400       0.999713
    12262.415700       0.999834
    12277.470800       0.999922
    12292.563000       0.999977
    12307.692300       1.000000
    12322.858900       0.999991
    12338.062900       0.999949
    12353.304500       0.999877
    12368.583800       0.999773
    12383.900900       0.999637
    12399.256000       0.999471
    12414.649300       0.999275
    12430.080800       0.999048
    12445.550700       0.998792
    12461.059200       0.998506
    12476.606400       0.998191
    12492.192400       0.997846
    12507.817400       0.997474
    12523.481500       0.997073
    12539.185000       0.996644
    12554.927800       0.996187
    12570.710200       0.995703
    12586.532400       0.995192
    12602.394500       0.994655
    12618.296500       0.994091
    12634.238800       0.993502
    12650.221400       0.992887
    12666.244500       0.992246
    12682.308200       0.991581
    12698.412700       0.990892
    12714.558200       0.990179
    12730.744700       0.989442
    12746.972600       0.988682
    12763.241900       0.987898
    12779.552700       0.987093
    12795.905300       0.986265
    12812.299800       0.985416
    12828.736400       0.984545
    12845.215200       0.983654
    12861.736300       0.982742
    12878.300100       0.981809
    12894.906500       0.980858
    12911.555800       0.979887
    12928.248200       0.978897
    12944.983800       0.977889
    12961.762800       0.976863
    12978.585300       0.975819
    12995.451600       0.974758
    13012.361700       0.973680
    13029.316000       0.972587
    13046.314400       0.971477
    13063.357300       0.970352
    13080.444700       0.969212
    13097.576900       0.968057
    13114.754100       0.966889
    13131.976400       0.965707
    13149.243900       0.964511
    13166.556900       0.963303
    13183.915600       0.962082
    13201.320100       0.960850
    13218.770700       0.959606
    13236.267400       0.958352
    13253.810500       0.957086
    13271.400100       0.955811
    13289.036500       0.954526
    13306.719900       0.953232
    13324.450400       0.951929
    13342.228200       0.950618
    13360.053400       0.949299
    13377.926400       0.947973
    13395.847300       0.946640
    13413.816200       0.945300
    13431.833400       0.943955
    13449.899100       0.942604
    13468.013500       0.941248
    13486.176700       0.939887
    13504.388900       0.938522
    13522.650400       0.937153
    13540.961400       0.935781
    13559.322000       0.934406
    13577.732500       0.933028
    13596.193100       0.931649
    13614.703900       0.930268
    13633.265200       0.928886
    13651.877100       0.927503
    13670.540000       0.926121
    13689.253900       0.924738
    13708.019200       0.923356
    13726.836000       0.921975
    13745.704500       0.920596
    13764.624900       0.919218
    13783.597500       0.917843
    13802.622500       0.916471
    13821.700100       0.915102
    13840.830400       0.913736
    13860.013900       0.912375
    13879.250500       0.911018
    13898.540700       0.909666
    13917.884500       0.908319
    13937.282200       0.906978
    13956.734100       0.905643
    13976.240400       0.904314
    13995.801300       0.902993
    14015.417000       0.901678
    14035.087700       0.900371
    14054.813800       0.899072
    14074.595400       0.897782
    14094.432700       0.896500
    14114.326000       0.895228
    14134.275600       0.893965
    14154.281700       0.892711
    14174.344400       0.891468
    14194.464200       0.890236
    14214.641100       0.889014
    14234.875400       0.887804
    14255.167500       0.886605
    14275.517500       0.885418
    14295.925700       0.884244
    14316.392300       0.883081
    14336.917600       0.881932
    14357.501800       0.880796
    14378.145200       0.879673
    14398.848100       0.878565
    14419.610700       0.877470
    14440.433200       0.876389
    14461.316000       0.875324
    14482.259200       0.874273
    14503.263200       0.873237
    14524.328200       0.872217
    14545.454500       0.871212
    14566.642400       0.870224
    14587.892000       0.869251
    14609.203800       0.868295
    14630.577900       0.867356
    14652.014700       0.866433
    14673.514300       0.865528
    14695.077100       0.864639
    14716.703500       0.863769
    14738.393500       0.862916
    14760.147600       0.862081
    14781.966000       0.861264
    14803.849000       0.860465
    14825.796900       0.859684
    14847.809900       0.858922
    14869.888500       0.858179
    14892.032800       0.857455
    14914.243100       0.856749
    14936.519800       0.856063
    14958.863100       0.855396
    14981.273400       0.854748
    15003.750900       0.854120
    15026.296000       0.853511
    15048.909000       0.852922
    15071.590100       0.852352
    15094.339600       0.851802
    15117.158000       0.851272
    15140.045400       0.850762
    15163.002300       0.850272
    15186.028900       0.849802
    15209.125500       0.849351
    15232.292500       0.848921
    15255.530100       0.848510
    15278.838800       0.848120
    15302.218800       0.847749
    15325.670500       0.847399
    15349.194200       0.847068
    15372.790200       0.846757
    15396.458800       0.846466
    15420.200500       0.846195
    15444.015400       0.845944
    15467.904100       0.845712
    15491.866800       0.845500
    15515.903800       0.845307
    15540.015500       0.845133
    15564.202300       0.844979
    15588.464500       0.844844
    15612.802500       0.844728
    15637.216600       0.844630
    15661.707100       0.844552
    15686.274500       0.844491
    15710.919100       0.844450
    15735.641200       0.844426
    15760.441300       0.844420
    15785.319700       0.844433
    15810.276700       0.844462
    15835.312700       0.844509
    15860.428200       0.844573
    15885.623500       0.844655
    15910.899000       0.844752
    15936.255000       0.844866
    15961.691900       0.844996
    15987.210200       0.845142
    16012.810200       0.845304
    16038.492400       0.845481
    16064.257000       0.845672
    16090.104600       0.845878
    16116.035500       0.846099
    16142.050000       0.846333
    16168.148700       0.846581
    16194.332000       0.846842
    16220.600200       0.847117
    16246.953700       0.847403
    16273.393000       0.847702
    16299.918500       0.848012
    16326.530600       0.848334
    16353.229800       0.848666
    16380.016400       0.849009
    16406.890900       0.849362
    16433.853700       0.849724
    16460.905300       0.850096
    16488.046200       0.850476
    16515.276600       0.850865
    16542.597200       0.851261
    16570.008300       0.851664
    16597.510400       0.852074
    16625.103900       0.852490
    16652.789300       0.852911
    16680.567100       0.853338
    16708.437800       0.853769
    16736.401700       0.854205
    16764.459300       0.854643
    16792.611300       0.855085
    16820.857900       0.855529
    16849.199700       0.855975
    16877.637100       0.856422
    16906.170800       0.856869
    16934.801000       0.857316
    16963.528400       0.857763
    16992.353400       0.858208
    17021.276600       0.858651
    17050.298400       0.859092
    17079.419300       0.859529
    17108.639900       0.859963
    17137.960600       0.860392
    17167.382000       0.860815
    17196.904600       0.861233
    17226.528900       0.861644
    17256.255400       0.862047
    17286.084700       0.862443
    17316.017300       0.862830
    17346.053800       0.863207
    17376.194600       0.863574
    17406.440400       0.863930
    17436.791600       0.864274
    17467.248900       0.864606
    17497.812800       0.864925
    17528.483800       0.865230
    17559.262500       0.865520
    17590.149500       0.865794
    17621.145400       0.866053
    17652.250700       0.866294
    17683.466000       0.866517
