64,   64, MVIRI VIS channel from srf_MET7_2005213_2005214_1801-Release_S10EE_10.dat
Number of data points:
793
Wavenumber (cm-1)   Filter response
     8442.380800       0.000000
     8449.514200       0.000000
     8456.659600       0.000004
     8463.817200       0.000055
     8470.986900       0.000162
     8478.168700       0.000325
     8485.362700       0.000541
     8492.569000       0.000808
     8499.787500       0.001126
     8507.018300       0.001493
     8514.261400       0.001907
     8521.516800       0.002368
     8528.784600       0.002873
     8536.064900       0.003422
     8543.357500       0.004013
     8550.662700       0.004645
     8557.980300       0.005318
     8565.310500       0.006029
     8572.653200       0.006778
     8580.008600       0.007564
     8587.376600       0.008386
     8594.757200       0.009244
     8602.150500       0.010135
     8609.556600       0.011060
     8616.975400       0.012017
     8624.407100       0.013006
     8631.851500       0.014027
     8639.308900       0.015077
     8646.779100       0.016157
     8654.262200       0.017266
     8661.758300       0.018403
     8669.267400       0.019569
     8676.789600       0.020761
     8684.324800       0.021980
     8691.873100       0.023225
     8699.434500       0.024497
     8707.009100       0.025793
     8714.596900       0.027114
     8722.198000       0.028460
     8729.812300       0.029830
     8737.439900       0.031224
     8745.080900       0.032641
     8752.735200       0.034081
     8760.403000       0.035544
     8768.084200       0.037030
     8775.778900       0.038538
     8783.487000       0.040068
     8791.208800       0.041619
     8798.944100       0.043193
     8806.693100       0.044788
     8814.455700       0.046404
     8822.232000       0.048042
     8830.022100       0.049701
     8837.825900       0.051380
     8845.643500       0.053081
     8853.475000       0.054802
     8861.320300       0.056544
     8869.179600       0.058306
     8877.052800       0.060089
     8884.940000       0.061893
     8892.841300       0.063717
     8900.756600       0.065561
     8908.686000       0.067426
     8916.629500       0.069311
     8924.587200       0.071217
     8932.559200       0.073143
     8940.545400       0.075090
     8948.545900       0.077057
     8956.560700       0.079045
     8964.589900       0.081053
     8972.633500       0.083082
     8980.691500       0.085131
     8988.764000       0.087202
     8996.851100       0.089293
     9004.952700       0.091405
     9013.068900       0.093537
     9021.199800       0.095691
     9029.345400       0.097866
     9037.505600       0.100062
     9045.680700       0.102280
     9053.870500       0.104518
     9062.075200       0.106778
     9070.294800       0.109060
     9078.529300       0.111363
     9086.778700       0.113688
     9095.043200       0.116034
     9103.322700       0.118403
     9111.617300       0.120793
     9119.927000       0.123206
     9128.251900       0.125640
     9136.592100       0.128097
     9144.947400       0.130576
     9153.318100       0.133078
     9161.704100       0.135602
     9170.105500       0.138148
     9178.522300       0.140718
     9186.954500       0.143309
     9195.402300       0.145924
     9203.865600       0.148562
     9212.344500       0.151223
     9220.839100       0.153906
     9229.349300       0.156613
     9237.875300       0.159343
     9246.417000       0.162096
     9254.974500       0.164873
     9263.547900       0.167673
     9272.137200       0.170496
     9280.742500       0.173343
     9289.363700       0.176213
     9298.000900       0.179107
     9306.654300       0.182024
     9315.323700       0.184965
     9324.009300       0.187929
     9332.711200       0.190918
     9341.429200       0.193929
     9350.163600       0.196965
     9358.914400       0.200023
     9367.681500       0.203106
     9376.465100       0.206213
     9385.265100       0.209342
     9394.081700       0.212496
     9402.914900       0.215673
     9411.764700       0.218874
     9420.631200       0.222098
     9429.514400       0.225346
     9438.414300       0.228617
     9447.331100       0.231911
     9456.264800       0.235229
     9465.215300       0.238570
     9474.182900       0.241934
     9483.167400       0.245322
     9492.169000       0.248732
     9501.187600       0.252165
     9510.223500       0.255622
     9519.276500       0.259100
     9528.346800       0.262602
     9537.434400       0.266126
     9546.539400       0.269672
     9555.661700       0.273241
     9564.801500       0.276831
     9573.958800       0.280444
     9583.133700       0.284079
     9592.326100       0.287735
     9601.536200       0.291413
     9610.764100       0.295112
     9620.009600       0.298832
     9629.273000       0.302573
     9638.554200       0.306335
     9647.853400       0.310118
     9657.170400       0.313921
     9666.505600       0.317744
     9675.858700       0.321588
     9685.230000       0.325451
     9694.619500       0.329334
     9704.027200       0.333235
     9713.453100       0.337157
     9722.897400       0.341097
     9732.360100       0.345055
     9741.841200       0.349032
     9751.340800       0.353027
     9760.859000       0.357040
     9770.395700       0.361071
     9779.951100       0.365118
     9789.525200       0.369183
     9799.118100       0.373264
     9808.729800       0.377362
     9818.360300       0.381476
     9828.009800       0.385606
     9837.678300       0.389751
     9847.365800       0.393912
     9857.072400       0.398087
     9866.798200       0.402277
     9876.543200       0.406481
     9886.307500       0.410699
     9896.091000       0.414930
     9905.894000       0.419175
     9915.716400       0.423433
     9925.558300       0.427702
     9935.419800       0.431985
     9945.300800       0.436279
     9955.201600       0.440584
     9965.122100       0.444900
     9975.062300       0.449227
     9985.022500       0.453564
     9995.002500       0.457911
    10005.002500       0.462268
    10015.022500       0.466633
    10025.062700       0.471007
    10035.122900       0.475390
    10045.203400       0.479780
    10055.304200       0.484178
    10065.425300       0.488583
    10075.566800       0.492995
    10085.728700       0.497412
    10095.911200       0.501836
    10106.114200       0.506265
    10116.337900       0.510699
    10126.582300       0.515137
    10136.847400       0.519580
    10147.133400       0.524026
    10157.440300       0.528475
    10167.768200       0.532927
    10178.117000       0.537381
    10188.487000       0.541838
    10198.878100       0.546296
    10209.290500       0.550754
    10219.724100       0.555213
    10230.179000       0.559673
    10240.655400       0.564132
    10251.153300       0.568590
    10261.672700       0.573046
    10272.213700       0.577501
    10282.776300       0.581954
    10293.360800       0.586404
    10303.967000       0.590851
    10314.595200       0.595294
    10325.245200       0.599733
    10335.917300       0.604168
    10346.611500       0.608598
    10357.327800       0.613022
    10368.066400       0.617440
    10378.827200       0.621852
    10389.610400       0.626257
    10400.416000       0.630654
    10411.244100       0.635044
    10422.094800       0.639426
    10432.968200       0.643798
    10443.864200       0.648162
    10454.783100       0.652516
    10465.724800       0.656859
    10476.689400       0.661192
    10487.677000       0.665515
    10498.687700       0.669825
    10509.721500       0.674123
    10520.778500       0.678409
    10531.858900       0.682682
    10542.962600       0.686942
    10554.089700       0.691188
    10565.240400       0.695419
    10576.414600       0.699636
    10587.612500       0.703838
    10598.834100       0.708024
    10610.079600       0.712193
    10621.348900       0.716347
    10632.642200       0.720483
    10643.959600       0.724602
    10655.301000       0.728703
    10666.666700       0.732785
    10678.056600       0.736849
    10689.470900       0.740894
    10700.909600       0.744919
    10712.372800       0.748924
    10723.860600       0.752908
    10735.373100       0.756872
    10746.910300       0.760815
    10758.472300       0.764735
    10770.059200       0.768634
    10781.671200       0.772510
    10793.308100       0.776363
    10804.970300       0.780193
    10816.657700       0.783999
    10828.370300       0.787780
    10840.108400       0.791538
    10851.871900       0.795270
    10863.661100       0.798977
    10875.475800       0.802659
    10887.316300       0.806314
    10899.182600       0.809943
    10911.074700       0.813545
    10922.992900       0.817121
    10934.937100       0.820668
    10946.907500       0.824188
    10958.904100       0.827679
    10970.927000       0.831142
    10982.976400       0.834576
    10995.052200       0.837981
    11007.154700       0.841357
    11019.283700       0.844702
    11031.439600       0.848018
    11043.622300       0.851302
    11055.832000       0.854556
    11068.068600       0.857779
    11080.332400       0.860971
    11092.623400       0.864131
    11104.941700       0.867259
    11117.287400       0.870354
    11129.660500       0.873417
    11142.061300       0.876447
    11154.489700       0.879444
    11166.945800       0.882408
    11179.429800       0.885338
    11191.941800       0.888235
    11204.481800       0.891097
    11217.049900       0.893925
    11229.646300       0.896718
    11242.270900       0.899477
    11254.924000       0.902201
    11267.605600       0.904889
    11280.315800       0.907542
    11293.054800       0.910159
    11305.822500       0.912741
    11318.619100       0.915287
    11331.444800       0.917796
    11344.299500       0.920269
    11357.183400       0.922706
    11370.096600       0.925106
    11383.039300       0.927469
    11396.011400       0.929795
    11409.013100       0.932083
    11422.044500       0.934335
    11435.105800       0.936549
    11448.196900       0.938726
    11461.318100       0.940865
    11474.469300       0.942966
    11487.650800       0.945030
    11500.862600       0.947055
    11514.104800       0.949043
    11527.377500       0.950992
    11540.680900       0.952903
    11554.015000       0.954776
    11567.380000       0.956611
    11580.775900       0.958407
    11594.202900       0.960164
    11607.661100       0.961884
    11621.150500       0.963564
    11634.671300       0.965206
    11648.223600       0.966810
    11661.807600       0.968375
    11675.423200       0.969901
    11689.070700       0.971389
    11702.750100       0.972838
    11716.461600       0.974248
    11730.205300       0.975620
    11743.981200       0.976953
    11757.789500       0.978248
    11771.630400       0.979504
    11785.503800       0.980722
    11799.410000       0.981901
    11813.349100       0.983042
    11827.321100       0.984145
    11841.326200       0.985209
    11855.364600       0.986236
    11869.436200       0.987224
    11883.541300       0.988174
    11897.680000       0.989087
    11911.852300       0.989962
    11926.058400       0.990798
    11940.298500       0.991598
    11954.572600       0.992360
    11968.880900       0.993085
    11983.223500       0.993772
    11997.600500       0.994423
    12012.012000       0.995037
    12026.458200       0.995613
    12040.939200       0.996154
    12055.455100       0.996658
    12070.006000       0.997126
    12084.592100       0.997557
    12099.213600       0.997953
    12113.870400       0.998313
    12128.562800       0.998638
    12143.290800       0.998928
    12158.054700       0.999182
    12172.854500       0.999402
    12187.690400       0.999587
    12202.562500       0.999737
    12217.471000       0.999853
    12232.415900       0.999936
    12247.397400       0.999985
    12262.415700       1.000000
    12277.470800       0.999982
    12292.563000       0.999931
    12307.692300       0.999848
    12322.858900       0.999732
    12338.062900       0.999584
    12353.304500       0.999405
    12368.583800       0.999193
    12383.900900       0.998951
    12399.256000       0.998677
    12414.649300       0.998373
    12430.080800       0.998039
    12445.550700       0.997674
    12461.059200       0.997280
    12476.606400       0.996857
    12492.192400       0.996404
    12507.817400       0.995923
    12523.481500       0.995413
    12539.185000       0.994875
    12554.927800       0.994310
    12570.710200       0.993717
    12586.532400       0.993097
    12602.394500       0.992450
    12618.296500       0.991777
    12634.238800       0.991079
    12650.221400       0.990354
    12666.244500       0.989605
    12682.308200       0.988830
    12698.412700       0.988032
    12714.558200       0.987209
    12730.744700       0.986362
    12746.972600       0.985493
    12763.241900       0.984600
    12779.552700       0.983685
    12795.905300       0.982748
    12812.299800       0.981789
    12828.736400       0.980809
    12845.215200       0.979808
    12861.736300       0.978787
    12878.300100       0.977745
    12894.906500       0.976684
    12911.555800       0.975604
    12928.248200       0.974505
    12944.983800       0.973388
    12961.762800       0.972253
    12978.585300       0.971100
    12995.451600       0.969930
    13012.361700       0.968744
    13029.316000       0.967541
    13046.314400       0.966323
    13063.357300       0.965090
    13080.444700       0.963841
    13097.576900       0.962578
    13114.754100       0.961301
    13131.976400       0.960011
    13149.243900       0.958708
    13166.556900       0.957391
    13183.915600       0.956063
    13201.320100       0.954723
    13218.770700       0.953372
    13236.267400       0.952009
    13253.810500       0.950637
    13271.400100       0.949254
    13289.036500       0.947862
    13306.719900       0.946461
    13324.450400       0.945051
    13342.228200       0.943634
    13360.053400       0.942208
    13377.926400       0.940775
    13395.847300       0.939336
    13413.816200       0.937890
    13431.833400       0.936438
    13449.899100       0.934981
    13468.013500       0.933519
    13486.176700       0.932052
    13504.388900       0.930581
    13522.650400       0.929107
    13540.961400       0.927629
    13559.322000       0.926149
    13577.732500       0.924666
    13596.193100       0.923182
    13614.703900       0.921696
    13633.265200       0.920209
    13651.877100       0.918721
    13670.540000       0.917234
    13689.253900       0.915746
    13708.019200       0.914260
    13726.836000       0.912774
    13745.704500       0.911290
    13764.624900       0.909809
    13783.597500       0.908329
    13802.622500       0.906853
    13821.700100       0.905379
    13840.830400       0.903910
    13860.013900       0.902444
    13879.250500       0.900983
    13898.540700       0.899527
    13917.884500       0.898077
    13937.282200       0.896631
    13956.734100       0.895192
    13976.240400       0.893760
    13995.801300       0.892334
    14015.417000       0.890916
    14035.087700       0.889505
    14054.813800       0.888102
    14074.595400       0.886708
    14094.432700       0.885322
    14114.326000       0.883946
    14134.275600       0.882578
    14154.281700       0.881221
    14174.344400       0.879874
    14194.464200       0.878537
    14214.641100       0.877211
    14234.875400       0.875896
    14255.167500       0.874593
    14275.517500       0.873301
    14295.925700       0.872022
    14316.392300       0.870755
    14336.917600       0.869501
    14357.501800       0.868259
    14378.145200       0.867032
    14398.848100       0.865817
    14419.610700       0.864617
    14440.433200       0.863431
    14461.316000       0.862259
    14482.259200       0.861102
    14503.263200       0.859960
    14524.328200       0.858833
    14545.454500       0.857722
    14566.642400       0.856626
    14587.892000       0.855546
    14609.203800       0.854482
    14630.577900       0.853435
    14652.014700       0.852405
    14673.514300       0.851391
    14695.077100       0.850394
    14716.703500       0.849414
    14738.393500       0.848452
    14760.147600       0.847507
    14781.966000       0.846580
    14803.849000       0.845671
    14825.796900       0.844780
    14847.809900       0.843907
    14869.888500       0.843052
    14892.032800       0.842216
    14914.243100       0.841398
    14936.519800       0.840599
    14958.863100       0.839819
    14981.273400       0.839058
    15003.750900       0.838315
    15026.296000       0.837592
    15048.909000       0.836888
    15071.590100       0.836203
    15094.339600       0.835537
    15117.158000       0.834891
    15140.045400       0.834264
    15163.002300       0.833656
    15186.028900       0.833068
    15209.125500       0.832499
    15232.292500       0.831950
    15255.530100       0.831420
    15278.838800       0.830909
    15302.218800       0.830418
    15325.670500       0.829946
    15349.194200       0.829494
    15372.790200       0.829061
    15396.458800       0.828647
    15420.200500       0.828252
    15444.015400       0.827876
    15467.904100       0.827519
    15491.866800       0.827182
    15515.903800       0.826863
    15540.015500       0.826562
    15564.202300       0.826280
    15588.464500       0.826017
    15612.802500       0.825772
    15637.216600       0.825545
    15661.707100       0.825336
    15686.274500       0.825145
    15710.919100       0.824972
    15735.641200       0.824816
    15760.441300       0.824678
    15785.319700       0.824556
    15810.276700       0.824451
    15835.312700       0.824363
    15860.428200       0.824292
    15885.623500       0.824236
    15910.899000       0.824197
    15936.255000       0.824173
    15961.691900       0.824164
    15987.210200       0.824170
    16012.810200       0.824192
    16038.492400       0.824227
    16064.257000       0.824277
    16090.104600       0.824341
    16116.035500       0.824419
    16142.050000       0.824509
    16168.148700       0.824613
    16194.332000       0.824729
    16220.600200       0.824857
    16246.953700       0.824996
    16273.393000       0.825148
    16299.918500       0.825310
    16326.530600       0.825482
    16353.229800       0.825665
    16380.016400       0.825858
    16406.890900       0.826060
    16433.853700       0.826271
    16460.905300       0.826490
    16488.046200       0.826717
    16515.276600       0.826951
    16542.597200       0.827193
    16570.008300       0.827441
    16597.510400       0.827695
    16625.103900       0.827955
    16652.789300       0.828220
    16680.567100       0.828489
    16708.437800       0.828762
    16736.401700       0.829039
    16764.459300       0.829318
    16792.611300       0.829600
    16820.857900       0.829884
    16849.199700       0.830169
    16877.637100       0.830454
    16906.170800       0.830740
    16934.801000       0.831024
    16963.528400       0.831308
    16992.353400       0.831590
    17021.276600       0.831870
    17050.298400       0.832146
    17079.419300       0.832419
    17108.639900       0.832688
    17137.960600       0.832951
    17167.382000       0.833210
    17196.904600       0.833461
    17226.528900       0.833706
    17256.255400       0.833944
    17286.084700       0.834173
    17316.017300       0.834393
    17346.053800       0.834603
    17376.194600       0.834803
    17406.440400       0.834992
    17436.791600       0.835170
    17467.248900       0.835335
    17497.812800       0.835486
    17528.483800       0.835624
    17559.262500       0.835747
    17590.149500       0.835854
    17621.145400       0.835946
    17652.250700       0.836020
    17683.466000       0.836077
