14,   14, MVIRI VIS channel from srf_MET2_1983303_1983304_1801-Release_S10EL_10.dat
Number of data points:
730
Wavenumber (cm-1)   Filter response
     8916.629500       0.000000
     8924.587200       0.000000
     8932.559200       0.000002
     8940.545400       0.000011
     8948.545900       0.000032
     8956.560700       0.000068
     8964.589900       0.000125
     8972.633500       0.000206
     8980.691500       0.000315
     8988.764000       0.000456
     8996.851100       0.000633
     9004.952700       0.000849
     9013.068900       0.001107
     9021.199800       0.001411
     9029.345400       0.001764
     9037.505600       0.002168
     9045.680700       0.002627
     9053.870500       0.003142
     9062.075200       0.003716
     9070.294800       0.004353
     9078.529300       0.005053
     9086.778700       0.005819
     9095.043200       0.006652
     9103.322700       0.007556
     9111.617300       0.008531
     9119.927000       0.009579
     9128.251900       0.010702
     9136.592100       0.011900
     9144.947400       0.013176
     9153.318100       0.014531
     9161.704100       0.015965
     9170.105500       0.017479
     9178.522300       0.019075
     9186.954500       0.020754
     9195.402300       0.022515
     9203.865600       0.024360
     9212.344500       0.026289
     9220.839100       0.028303
     9229.349300       0.030402
     9237.875300       0.032586
     9246.417000       0.034856
     9254.974500       0.037212
     9263.547900       0.039654
     9272.137200       0.042181
     9280.742500       0.044795
     9289.363700       0.047494
     9298.000900       0.050279
     9306.654300       0.053149
     9315.323700       0.056104
     9324.009300       0.059144
     9332.711200       0.062269
     9341.429200       0.065477
     9350.163600       0.068769
     9358.914400       0.072143
     9367.681500       0.075600
     9376.465100       0.079139
     9385.265100       0.082758
     9394.081700       0.086458
     9402.914900       0.090237
     9411.764700       0.094095
     9420.631200       0.098031
     9429.514400       0.102043
     9438.414300       0.106131
     9447.331100       0.110295
     9456.264800       0.114532
     9465.215300       0.118843
     9474.182900       0.123225
     9483.167400       0.127679
     9492.169000       0.132202
     9501.187600       0.136794
     9510.223500       0.141453
     9519.276500       0.146179
     9528.346800       0.150970
     9537.434400       0.155825
     9546.539400       0.160742
     9555.661700       0.165722
     9564.801500       0.170761
     9573.958800       0.175859
     9583.133700       0.181015
     9592.326100       0.186227
     9601.536200       0.191494
     9610.764100       0.196814
     9620.009600       0.202188
     9629.273000       0.207612
     9638.554200       0.213085
     9647.853400       0.218607
     9657.170400       0.224175
     9666.505600       0.229789
     9675.858700       0.235447
     9685.230000       0.241147
     9694.619500       0.246889
     9704.027200       0.252670
     9713.453100       0.258490
     9722.897400       0.264347
     9732.360100       0.270239
     9741.841200       0.276166
     9751.340800       0.282125
     9760.859000       0.288116
     9770.395700       0.294137
     9779.951100       0.300185
     9789.525200       0.306262
     9799.118100       0.312364
     9808.729800       0.318489
     9818.360300       0.324639
     9828.009800       0.330809
     9837.678300       0.337000
     9847.365800       0.343210
     9857.072400       0.349437
     9866.798200       0.355680
     9876.543200       0.361937
     9886.307500       0.368209
     9896.091000       0.374492
     9905.894000       0.380786
     9915.716400       0.387089
     9925.558300       0.393400
     9935.419800       0.399719
     9945.300800       0.406043
     9955.201600       0.412370
     9965.122100       0.418701
     9975.062300       0.425034
     9985.022500       0.431367
     9995.002500       0.437699
    10005.002500       0.444030
    10015.022500       0.450357
    10025.062700       0.456679
    10035.122900       0.462997
    10045.203400       0.469307
    10055.304200       0.475610
    10065.425300       0.481904
    10075.566800       0.488187
    10085.728700       0.494460
    10095.911200       0.500720
    10106.114200       0.506967
    10116.337900       0.513199
    10126.582300       0.519416
    10136.847400       0.525616
    10147.133400       0.531799
    10157.440300       0.537963
    10167.768200       0.544108
    10178.117000       0.550232
    10188.487000       0.556335
    10198.878100       0.562416
    10209.290500       0.568473
    10219.724100       0.574506
    10230.179000       0.580514
    10240.655400       0.586496
    10251.153300       0.592451
    10261.672700       0.598379
    10272.213700       0.604278
    10282.776300       0.610147
    10293.360800       0.615987
    10303.967000       0.621796
    10314.595200       0.627573
    10325.245200       0.633318
    10335.917300       0.639030
    10346.611500       0.644708
    10357.327800       0.650351
    10368.066400       0.655960
    10378.827200       0.661532
    10389.610400       0.667069
    10400.416000       0.672568
    10411.244100       0.678029
    10422.094800       0.683452
    10432.968200       0.688836
    10443.864200       0.694181
    10454.783100       0.699486
    10465.724800       0.704750
    10476.689400       0.709973
    10487.677000       0.715155
    10498.687700       0.720294
    10509.721500       0.725391
    10520.778500       0.730446
    10531.858900       0.735456
    10542.962600       0.740424
    10554.089700       0.745347
    10565.240400       0.750225
    10576.414600       0.755058
    10587.612500       0.759846
    10598.834100       0.764589
    10610.079600       0.769285
    10621.348900       0.773935
    10632.642200       0.778538
    10643.959600       0.783094
    10655.301000       0.787604
    10666.666700       0.792065
    10678.056600       0.796479
    10689.470900       0.800845
    10700.909600       0.805163
    10712.372800       0.809432
    10723.860600       0.813653
    10735.373100       0.817825
    10746.910300       0.821949
    10758.472300       0.826023
    10770.059200       0.830047
    10781.671200       0.834023
    10793.308100       0.837949
    10804.970300       0.841825
    10816.657700       0.845652
    10828.370300       0.849429
    10840.108400       0.853156
    10851.871900       0.856833
    10863.661100       0.860460
    10875.475800       0.864038
    10887.316300       0.867565
    10899.182600       0.871042
    10911.074700       0.874469
    10922.992900       0.877846
    10934.937100       0.881173
    10946.907500       0.884450
    10958.904100       0.887677
    10970.927000       0.890854
    10982.976400       0.893982
    10995.052200       0.897059
    11007.154700       0.900087
    11019.283700       0.903065
    11031.439600       0.905993
    11043.622300       0.908872
    11055.832000       0.911702
    11068.068600       0.914482
    11080.332400       0.917213
    11092.623400       0.919896
    11104.941700       0.922529
    11117.287400       0.925114
    11129.660500       0.927650
    11142.061300       0.930138
    11154.489700       0.932577
    11166.945800       0.934968
    11179.429800       0.937312
    11191.941800       0.939608
    11204.481800       0.941856
    11217.049900       0.944057
    11229.646300       0.946211
    11242.270900       0.948318
    11254.924000       0.950379
    11267.605600       0.952393
    11280.315800       0.954361
    11293.054800       0.956283
    11305.822500       0.958159
    11318.619100       0.959990
    11331.444800       0.961775
    11344.299500       0.963516
    11357.183400       0.965211
    11370.096600       0.966863
    11383.039300       0.968470
    11396.011400       0.970033
    11409.013100       0.971553
    11422.044500       0.973029
    11435.105800       0.974462
    11448.196900       0.975852
    11461.318100       0.977200
    11474.469300       0.978506
    11487.650800       0.979769
    11500.862600       0.980991
    11514.104800       0.982172
    11527.377500       0.983312
    11540.680900       0.984410
    11554.015000       0.985469
    11567.380000       0.986487
    11580.775900       0.987466
    11594.202900       0.988405
    11607.661100       0.989305
    11621.150500       0.990166
    11634.671300       0.990988
    11648.223600       0.991772
    11661.807600       0.992519
    11675.423200       0.993227
    11689.070700       0.993899
    11702.750100       0.994533
    11716.461600       0.995131
    11730.205300       0.995692
    11743.981200       0.996218
    11757.789500       0.996708
    11771.630400       0.997162
    11785.503800       0.997582
    11799.410000       0.997966
    11813.349100       0.998317
    11827.321100       0.998633
    11841.326200       0.998916
    11855.364600       0.999165
    11869.436200       0.999381
    11883.541300       0.999564
    11897.680000       0.999715
    11911.852300       0.999834
    11926.058400       0.999920
    11940.298500       0.999976
    11954.572600       1.000000
    11968.880900       0.999993
    11983.223500       0.999956
    11997.600500       0.999889
    12012.012000       0.999791
    12026.458200       0.999664
    12040.939200       0.999508
    12055.455100       0.999323
    12070.006000       0.999109
    12084.592100       0.998866
    12099.213600       0.998596
    12113.870400       0.998297
    12128.562800       0.997971
    12143.290800       0.997618
    12158.054700       0.997238
    12172.854500       0.996832
    12187.690400       0.996399
    12202.562500       0.995940
    12217.471000       0.995455
    12232.415900       0.994945
    12247.397400       0.994409
    12262.415700       0.993849
    12277.470800       0.993264
    12292.563000       0.992655
    12307.692300       0.992021
    12322.858900       0.991364
    12338.062900       0.990683
    12353.304500       0.989979
    12368.583800       0.989252
    12383.900900       0.988501
    12399.256000       0.987729
    12414.649300       0.986934
    12430.080800       0.986117
    12445.550700       0.985278
    12461.059200       0.984418
    12476.606400       0.983536
    12492.192400       0.982633
    12507.817400       0.981710
    12523.481500       0.980766
    12539.185000       0.979801
    12554.927800       0.978816
    12570.710200       0.977812
    12586.532400       0.976787
    12602.394500       0.975743
    12618.296500       0.974680
    12634.238800       0.973598
    12650.221400       0.972496
    12666.244500       0.971376
    12682.308200       0.970238
    12698.412700       0.969082
    12714.558200       0.967907
    12730.744700       0.966714
    12746.972600       0.965504
    12763.241900       0.964276
    12779.552700       0.963031
    12795.905300       0.961769
    12812.299800       0.960489
    12828.736400       0.959193
    12845.215200       0.957881
    12861.736300       0.956552
    12878.300100       0.955206
    12894.906500       0.953845
    12911.555800       0.952467
    12928.248200       0.951074
    12944.983800       0.949665
    12961.762800       0.948241
    12978.585300       0.946801
    12995.451600       0.945346
    13012.361700       0.943876
    13029.316000       0.942391
    13046.314400       0.940891
    13063.357300       0.939377
    13080.444700       0.937848
    13097.576900       0.936304
    13114.754100       0.934747
    13131.976400       0.933175
    13149.243900       0.931590
    13166.556900       0.929990
    13183.915600       0.928377
    13201.320100       0.926750
    13218.770700       0.925110
    13236.267400       0.923456
    13253.810500       0.921788
    13271.400100       0.920108
    13289.036500       0.918415
    13306.719900       0.916708
    13324.450400       0.914989
    13342.228200       0.913257
    13360.053400       0.911512
    13377.926400       0.909755
    13395.847300       0.907985
    13413.816200       0.906202
    13431.833400       0.904408
    13449.899100       0.902601
    13468.013500       0.900782
    13486.176700       0.898951
    13504.388900       0.897108
    13522.650400       0.895253
    13540.961400       0.893386
    13559.322000       0.891507
    13577.732500       0.889617
    13596.193100       0.887715
    13614.703900       0.885802
    13633.265200       0.883877
    13651.877100       0.881941
    13670.540000       0.879994
    13689.253900       0.878035
    13708.019200       0.876065
    13726.836000       0.874085
    13745.704500       0.872093
    13764.624900       0.870090
    13783.597500       0.868076
    13802.622500       0.866052
    13821.700100       0.864016
    13840.830400       0.861970
    13860.013900       0.859913
    13879.250500       0.857846
    13898.540700       0.855768
    13917.884500       0.853680
    13937.282200       0.851581
    13956.734100       0.849472
    13976.240400       0.847353
    13995.801300       0.845223
    14015.417000       0.843084
    14035.087700       0.840934
    14054.813800       0.838774
    14074.595400       0.836604
    14094.432700       0.834424
    14114.326000       0.832234
    14134.275600       0.830034
    14154.281700       0.827825
    14174.344400       0.825606
    14194.464200       0.823377
    14214.641100       0.821139
    14234.875400       0.818891
    14255.167500       0.816633
    14275.517500       0.814366
    14295.925700       0.812090
    14316.392300       0.809804
    14336.917600       0.807509
    14357.501800       0.805205
    14378.145200       0.802892
    14398.848100       0.800570
    14419.610700       0.798238
    14440.433200       0.795898
    14461.316000       0.793549
    14482.259200       0.791191
    14503.263200       0.788824
    14524.328200       0.786448
    14545.454500       0.784064
    14566.642400       0.781671
    14587.892000       0.779270
    14609.203800       0.776860
    14630.577900       0.774442
    14652.014700       0.772016
    14673.514300       0.769581
    14695.077100       0.767138
    14716.703500       0.764687
    14738.393500       0.762228
    14760.147600       0.759761
    14781.966000       0.757286
    14803.849000       0.754803
    14825.796900       0.752312
    14847.809900       0.749814
    14869.888500       0.747309
    14892.032800       0.744795
    14914.243100       0.742275
    14936.519800       0.739747
    14958.863100       0.737212
    14981.273400       0.734669
    15003.750900       0.732120
    15026.296000       0.729563
    15048.909000       0.727000
    15071.590100       0.724430
    15094.339600       0.721853
    15117.158000       0.719269
    15140.045400       0.716679
    15163.002300       0.714083
    15186.028900       0.711480
    15209.125500       0.708871
    15232.292500       0.706256
    15255.530100       0.703635
    15278.838800       0.701008
    15302.218800       0.698375
    15325.670500       0.695736
    15349.194200       0.693092
    15372.790200       0.690442
    15396.458800       0.687787
    15420.200500       0.685126
    15444.015400       0.682460
    15467.904100       0.679790
    15491.866800       0.677114
    15515.903800       0.674433
    15540.015500       0.671748
    15564.202300       0.669058
    15588.464500       0.666364
    15612.802500       0.663665
    15637.216600       0.660962
    15661.707100       0.658255
    15686.274500       0.655544
    15710.919100       0.652829
    15735.641200       0.650111
    15760.441300       0.647389
    15785.319700       0.644663
    15810.276700       0.641934
    15835.312700       0.639202
    15860.428200       0.636466
    15885.623500       0.633728
    15910.899000       0.630987
    15936.255000       0.628243
    15961.691900       0.625497
    15987.210200       0.622749
    16012.810200       0.619997
    16038.492400       0.617245
    16064.257000       0.614490
    16090.104600       0.611733
    16116.035500       0.608974
    16142.050000       0.606214
    16168.148700       0.603453
    16194.332000       0.600690
    16220.600200       0.597926
    16246.953700       0.595161
    16273.393000       0.592396
    16299.918500       0.589629
    16326.530600       0.586863
    16353.229800       0.584095
    16380.016400       0.581328
    16406.890900       0.578560
    16433.853700       0.575793
    16460.905300       0.573026
    16488.046200       0.570259
    16515.276600       0.567492
    16542.597200       0.564726
    16570.008300       0.561962
    16597.510400       0.559198
    16625.103900       0.556435
    16652.789300       0.553673
    16680.567100       0.550913
    16708.437800       0.548154
    16736.401700       0.545397
    16764.459300       0.542642
    16792.611300       0.539888
    16820.857900       0.537137
    16849.199700       0.534389
    16877.637100       0.531642
    16906.170800       0.528898
    16934.801000       0.526157
    16963.528400       0.523419
    16992.353400       0.520683
    17021.276600       0.517951
    17050.298400       0.515222
    17079.419300       0.512497
    17108.639900       0.509775
    17137.960600       0.507056
    17167.382000       0.504342
    17196.904600       0.501631
    17226.528900       0.498925
    17256.255400       0.496222
    17286.084700       0.493524
    17316.017300       0.490831
    17346.053800       0.488142
    17376.194600       0.485458
    17406.440400       0.482778
    17436.791600       0.480104
    17467.248900       0.477434
    17497.812800       0.474770
    17528.483800       0.472111
    17559.262500       0.469458
    17590.149500       0.466810
    17621.145400       0.464167
    17652.250700       0.461531
    17683.466000       0.458900
    17714.791900       0.456275
    17746.228900       0.453656
    17777.777800       0.451043
    17809.439000       0.448437
    17841.213200       0.445836
    17873.101000       0.443242
    17905.103000       0.440655
    17937.219700       0.438074
    17969.451900       0.435500
    18001.800200       0.432932
    18034.265100       0.430371
    18066.847300       0.427817
    18099.547500       0.425270
    18132.366300       0.422729
    18165.304300       0.420196
    18198.362100       0.417670
    18231.540600       0.415151
    18264.840200       0.412639
    18298.261700       0.410134
    18331.805700       0.407637
    18365.472900       0.405146
    18399.264000       0.402664
    18433.179700       0.400188
    18467.220700       0.397719
    18501.387600       0.395259
    18535.681200       0.392805
    18570.102100       0.390359
    18604.651200       0.387920
    18639.329000       0.385489
    18674.136300       0.383065
    18709.073900       0.380648
    18744.142500       0.378239
    18779.342700       0.375837
    18814.675400       0.373442
    18850.141400       0.371055
    18885.741300       0.368675
    18921.475900       0.366303
    18957.346000       0.363937
    18993.352300       0.361579
    19029.495700       0.359228
    19065.776900       0.356884
    19102.196800       0.354547
    19138.756000       0.352217
    19175.455400       0.349893
    19212.295900       0.347577
    19249.278200       0.345268
    19286.403100       0.342965
    19323.671500       0.340668
    19361.084200       0.338378
    19398.642100       0.336095
    19436.346000       0.333818
    19474.196700       0.331547
    19512.195100       0.329282
    19550.342100       0.327023
    19588.638600       0.324770
    19627.085400       0.322523
    19665.683400       0.320281
    19704.433500       0.318045
    19743.336600       0.315814
    19782.393700       0.313589
    19821.605600       0.311368
    19860.973200       0.309153
    19900.497500       0.306942
