92,   92, MVIRI VIS channel from srf_MET5_2002258_2002259_1801-Release_S10EL_10.dat
Number of data points:
806
Wavenumber (cm-1)   Filter response
     8350.730700       0.000000
     8357.710000       0.000000
     8364.701000       0.000000
     8371.703600       0.000002
     8378.718100       0.000004
     8385.744200       0.000009
     8392.782200       0.000017
     8399.832000       0.000027
     8406.893700       0.000042
     8413.967200       0.000061
     8421.052600       0.000084
     8428.150000       0.000113
     8435.259400       0.000148
     8442.380800       0.000188
     8449.514200       0.000236
     8456.659600       0.000290
     8463.817200       0.000352
     8470.986900       0.000421
     8478.168700       0.000499
     8485.362700       0.000585
     8492.569000       0.000680
     8499.787500       0.000784
     8507.018300       0.000897
     8514.261400       0.001021
     8521.516800       0.001155
     8528.784600       0.001299
     8536.064900       0.001454
     8543.357500       0.001620
     8550.662700       0.001797
     8557.980300       0.001985
     8565.310500       0.002186
     8572.653200       0.002398
     8580.008600       0.002623
     8587.376600       0.002860
     8594.757200       0.003110
     8602.150500       0.003373
     8609.556600       0.003649
     8616.975400       0.003938
     8624.407100       0.004240
     8631.851500       0.004557
     8639.308900       0.004887
     8646.779100       0.005231
     8654.262200       0.005590
     8661.758300       0.005963
     8669.267400       0.006350
     8676.789600       0.006753
     8684.324800       0.007170
     8691.873100       0.007602
     8699.434500       0.008049
     8707.009100       0.008512
     8714.596900       0.008990
     8722.198000       0.009484
     8729.812300       0.009994
     8737.439900       0.010519
     8745.080900       0.011061
     8752.735200       0.011618
     8760.403000       0.012192
     8768.084200       0.012783
     8775.778900       0.013390
     8783.487000       0.014013
     8791.208800       0.014653
     8798.944100       0.015311
     8806.693100       0.015985
     8814.455700       0.016676
     8822.232000       0.017385
     8830.022100       0.018111
     8837.825900       0.018854
     8845.643500       0.019615
     8853.475000       0.020394
     8861.320300       0.021191
     8869.179600       0.022005
     8877.052800       0.022838
     8884.940000       0.023688
     8892.841300       0.024557
     8900.756600       0.025444
     8908.686000       0.026350
     8916.629500       0.027274
     8924.587200       0.028217
     8932.559200       0.029179
     8940.545400       0.030159
     8948.545900       0.031159
     8956.560700       0.032178
     8964.589900       0.033215
     8972.633500       0.034272
     8980.691500       0.035349
     8988.764000       0.036445
     8996.851100       0.037560
     9004.952700       0.038696
     9013.068900       0.039850
     9021.199800       0.041025
     9029.345400       0.042220
     9037.505600       0.043435
     9045.680700       0.044670
     9053.870500       0.045926
     9062.075200       0.047201
     9070.294800       0.048498
     9078.529300       0.049814
     9086.778700       0.051152
     9095.043200       0.052510
     9103.322700       0.053889
     9111.617300       0.055289
     9119.927000       0.056710
     9128.251900       0.058153
     9136.592100       0.059616
     9144.947400       0.061101
     9153.318100       0.062607
     9161.704100       0.064134
     9170.105500       0.065684
     9178.522300       0.067255
     9186.954500       0.068847
     9195.402300       0.070462
     9203.865600       0.072098
     9212.344500       0.073757
     9220.839100       0.075437
     9229.349300       0.077140
     9237.875300       0.078865
     9246.417000       0.080612
     9254.974500       0.082382
     9263.547900       0.084174
     9272.137200       0.085988
     9280.742500       0.087826
     9289.363700       0.089686
     9298.000900       0.091569
     9306.654300       0.093474
     9315.323700       0.095403
     9324.009300       0.097354
     9332.711200       0.099329
     9341.429200       0.101326
     9350.163600       0.103347
     9358.914400       0.105391
     9367.681500       0.107458
     9376.465100       0.109549
     9385.265100       0.111663
     9394.081700       0.113800
     9402.914900       0.115961
     9411.764700       0.118145
     9420.631200       0.120353
     9429.514400       0.122584
     9438.414300       0.124839
     9447.331100       0.127118
     9456.264800       0.129420
     9465.215300       0.131746
     9474.182900       0.134095
     9483.167400       0.136469
     9492.169000       0.138866
     9501.187600       0.141287
     9510.223500       0.143732
     9519.276500       0.146200
     9528.346800       0.148692
     9537.434400       0.151209
     9546.539400       0.153748
     9555.661700       0.156312
     9564.801500       0.158899
     9573.958800       0.161511
     9583.133700       0.164146
     9592.326100       0.166805
     9601.536200       0.169487
     9610.764100       0.172193
     9620.009600       0.174924
     9629.273000       0.177677
     9638.554200       0.180454
     9647.853400       0.183255
     9657.170400       0.186080
     9666.505600       0.188928
     9675.858700       0.191799
     9685.230000       0.194694
     9694.619500       0.197612
     9704.027200       0.200553
     9713.453100       0.203518
     9722.897400       0.206506
     9732.360100       0.209517
     9741.841200       0.212551
     9751.340800       0.215607
     9760.859000       0.218687
     9770.395700       0.221790
     9779.951100       0.224915
     9789.525200       0.228063
     9799.118100       0.231233
     9808.729800       0.234425
     9818.360300       0.237640
     9828.009800       0.240877
     9837.678300       0.244136
     9847.365800       0.247417
     9857.072400       0.250720
     9866.798200       0.254044
     9876.543200       0.257390
     9886.307500       0.260757
     9896.091000       0.264146
     9905.894000       0.267556
     9915.716400       0.270986
     9925.558300       0.274438
     9935.419800       0.277910
     9945.300800       0.281403
     9955.201600       0.284915
     9965.122100       0.288448
     9975.062300       0.292001
     9985.022500       0.295574
     9995.002500       0.299166
    10005.002500       0.302778
    10015.022500       0.306409
    10025.062700       0.310059
    10035.122900       0.313728
    10045.203400       0.317415
    10055.304200       0.321121
    10065.425300       0.324845
    10075.566800       0.328587
    10085.728700       0.332347
    10095.911200       0.336124
    10106.114200       0.339919
    10116.337900       0.343730
    10126.582300       0.347559
    10136.847400       0.351404
    10147.133400       0.355265
    10157.440300       0.359143
    10167.768200       0.363036
    10178.117000       0.366945
    10188.487000       0.370869
    10198.878100       0.374808
    10209.290500       0.378762
    10219.724100       0.382731
    10230.179000       0.386713
    10240.655400       0.390710
    10251.153300       0.394720
    10261.672700       0.398744
    10272.213700       0.402781
    10282.776300       0.406830
    10293.360800       0.410892
    10303.967000       0.414966
    10314.595200       0.419052
    10325.245200       0.423149
    10335.917300       0.427258
    10346.611500       0.431378
    10357.327800       0.435508
    10368.066400       0.439649
    10378.827200       0.443799
    10389.610400       0.447959
    10400.416000       0.452129
    10411.244100       0.456307
    10422.094800       0.460494
    10432.968200       0.464689
    10443.864200       0.468892
    10454.783100       0.473103
    10465.724800       0.477320
    10476.689400       0.481545
    10487.677000       0.485776
    10498.687700       0.490014
    10509.721500       0.494257
    10520.778500       0.498505
    10531.858900       0.502759
    10542.962600       0.507017
    10554.089700       0.511280
    10565.240400       0.515546
    10576.414600       0.519816
    10587.612500       0.524090
    10598.834100       0.528366
    10610.079600       0.532645
    10621.348900       0.536925
    10632.642200       0.541207
    10643.959600       0.545491
    10655.301000       0.549775
    10666.666700       0.554060
    10678.056600       0.558345
    10689.470900       0.562630
    10700.909600       0.566914
    10712.372800       0.571197
    10723.860600       0.575478
    10735.373100       0.579757
    10746.910300       0.584035
    10758.472300       0.588309
    10770.059200       0.592581
    10781.671200       0.596848
    10793.308100       0.601112
    10804.970300       0.605372
    10816.657700       0.609627
    10828.370300       0.613877
    10840.108400       0.618121
    10851.871900       0.622360
    10863.661100       0.626592
    10875.475800       0.630818
    10887.316300       0.635036
    10899.182600       0.639246
    10911.074700       0.643449
    10922.992900       0.647644
    10934.937100       0.651829
    10946.907500       0.656005
    10958.904100       0.660172
    10970.927000       0.664329
    10982.976400       0.668475
    10995.052200       0.672611
    11007.154700       0.676735
    11019.283700       0.680848
    11031.439600       0.684949
    11043.622300       0.689037
    11055.832000       0.693112
    11068.068600       0.697175
    11080.332400       0.701223
    11092.623400       0.705258
    11104.941700       0.709278
    11117.287400       0.713283
    11129.660500       0.717273
    11142.061300       0.721248
    11154.489700       0.725206
    11166.945800       0.729148
    11179.429800       0.733074
    11191.941800       0.736982
    11204.481800       0.740872
    11217.049900       0.744745
    11229.646300       0.748599
    11242.270900       0.752435
    11254.924000       0.756252
    11267.605600       0.760049
    11280.315800       0.763826
    11293.054800       0.767583
    11305.822500       0.771320
    11318.619100       0.775036
    11331.444800       0.778730
    11344.299500       0.782403
    11357.183400       0.786053
    11370.096600       0.789682
    11383.039300       0.793288
    11396.011400       0.796871
    11409.013100       0.800430
    11422.044500       0.803966
    11435.105800       0.807477
    11448.196900       0.810965
    11461.318100       0.814427
    11474.469300       0.817864
    11487.650800       0.821277
    11500.862600       0.824663
    11514.104800       0.828024
    11527.377500       0.831358
    11540.680900       0.834665
    11554.015000       0.837946
    11567.380000       0.841199
    11580.775900       0.844425
    11594.202900       0.847623
    11607.661100       0.850793
    11621.150500       0.853935
    11634.671300       0.857048
    11648.223600       0.860132
    11661.807600       0.863186
    11675.423200       0.866212
    11689.070700       0.869207
    11702.750100       0.872173
    11716.461600       0.875108
    11730.205300       0.878013
    11743.981200       0.880887
    11757.789500       0.883730
    11771.630400       0.886542
    11785.503800       0.889323
    11799.410000       0.892072
    11813.349100       0.894789
    11827.321100       0.897474
    11841.326200       0.900126
    11855.364600       0.902747
    11869.436200       0.905334
    11883.541300       0.907889
    11897.680000       0.910410
    11911.852300       0.912899
    11926.058400       0.915353
    11940.298500       0.917775
    11954.572600       0.920162
    11968.880900       0.922516
    11983.223500       0.924835
    11997.600500       0.927121
    12012.012000       0.929372
    12026.458200       0.931588
    12040.939200       0.933770
    12055.455100       0.935917
    12070.006000       0.938029
    12084.592100       0.940107
    12099.213600       0.942149
    12113.870400       0.944155
    12128.562800       0.946127
    12143.290800       0.948063
    12158.054700       0.949964
    12172.854500       0.951829
    12187.690400       0.953659
    12202.562500       0.955453
    12217.471000       0.957211
    12232.415900       0.958934
    12247.397400       0.960620
    12262.415700       0.962271
    12277.470800       0.963885
    12292.563000       0.965464
    12307.692300       0.967007
    12322.858900       0.968514
    12338.062900       0.969984
    12353.304500       0.971419
    12368.583800       0.972818
    12383.900900       0.974181
    12399.256000       0.975507
    12414.649300       0.976798
    12430.080800       0.978053
    12445.550700       0.979272
    12461.059200       0.980455
    12476.606400       0.981602
    12492.192400       0.982714
    12507.817400       0.983789
    12523.481500       0.984829
    12539.185000       0.985834
    12554.927800       0.986803
    12570.710200       0.987736
    12586.532400       0.988634
    12602.394500       0.989497
    12618.296500       0.990325
    12634.238800       0.991117
    12650.221400       0.991875
    12666.244500       0.992598
    12682.308200       0.993286
    12698.412700       0.993939
    12714.558200       0.994558
    12730.744700       0.995143
    12746.972600       0.995694
    12763.241900       0.996210
    12779.552700       0.996693
    12795.905300       0.997142
    12812.299800       0.997558
    12828.736400       0.997940
    12845.215200       0.998289
    12861.736300       0.998605
    12878.300100       0.998888
    12894.906500       0.999139
    12911.555800       0.999357
    12928.248200       0.999544
    12944.983800       0.999698
    12961.762800       0.999820
    12978.585300       0.999912
    12995.451600       0.999971
    13012.361700       1.000000
    13029.316000       0.999998
    13046.314400       0.999965
    13063.357300       0.999902
    13080.444700       0.999809
    13097.576900       0.999687
    13114.754100       0.999534
    13131.976400       0.999353
    13149.243900       0.999143
    13166.556900       0.998903
    13183.915600       0.998636
    13201.320100       0.998340
    13218.770700       0.998017
    13236.267400       0.997666
    13253.810500       0.997288
    13271.400100       0.996883
    13289.036500       0.996451
    13306.719900       0.995993
    13324.450400       0.995509
    13342.228200       0.995000
    13360.053400       0.994465
    13377.926400       0.993906
    13395.847300       0.993321
    13413.816200       0.992713
    13431.833400       0.992080
    13449.899100       0.991424
    13468.013500       0.990745
    13486.176700       0.990043
    13504.388900       0.989318
    13522.650400       0.988571
    13540.961400       0.987803
    13559.322000       0.987013
    13577.732500       0.986202
    13596.193100       0.985370
    13614.703900       0.984518
    13633.265200       0.983646
    13651.877100       0.982755
    13670.540000       0.981844
    13689.253900       0.980915
    13708.019200       0.979967
    13726.836000       0.979002
    13745.704500       0.978018
    13764.624900       0.977018
    13783.597500       0.976001
    13802.622500       0.974967
    13821.700100       0.973918
    13840.830400       0.972853
    13860.013900       0.971773
    13879.250500       0.970678
    13898.540700       0.969569
    13917.884500       0.968446
    13937.282200       0.967309
    13956.734100       0.966159
    13976.240400       0.964997
    13995.801300       0.963822
    14015.417000       0.962636
    14035.087700       0.961438
    14054.813800       0.960229
    14074.595400       0.959010
    14094.432700       0.957780
    14114.326000       0.956541
    14134.275600       0.955292
    14154.281700       0.954034
    14174.344400       0.952768
    14194.464200       0.951494
    14214.641100       0.950212
    14234.875400       0.948923
    14255.167500       0.947627
    14275.517500       0.946325
    14295.925700       0.945017
    14316.392300       0.943703
    14336.917600       0.942384
    14357.501800       0.941061
    14378.145200       0.939733
    14398.848100       0.938401
    14419.610700       0.937065
    14440.433200       0.935727
    14461.316000       0.934386
    14482.259200       0.933042
    14503.263200       0.931697
    14524.328200       0.930350
    14545.454500       0.929003
    14566.642400       0.927654
    14587.892000       0.926305
    14609.203800       0.924957
    14630.577900       0.923609
    14652.014700       0.922261
    14673.514300       0.920915
    14695.077100       0.919571
    14716.703500       0.918229
    14738.393500       0.916889
    14760.147600       0.915552
    14781.966000       0.914218
    14803.849000       0.912887
    14825.796900       0.911561
    14847.809900       0.910239
    14869.888500       0.908921
    14892.032800       0.907608
    14914.243100       0.906301
    14936.519800       0.904999
    14958.863100       0.903703
    14981.273400       0.902413
    15003.750900       0.901130
    15026.296000       0.899854
    15048.909000       0.898585
    15071.590100       0.897324
    15094.339600       0.896071
    15117.158000       0.894825
    15140.045400       0.893589
    15163.002300       0.892361
    15186.028900       0.891142
    15209.125500       0.889932
    15232.292500       0.888732
    15255.530100       0.887542
    15278.838800       0.886362
    15302.218800       0.885193
    15325.670500       0.884034
    15349.194200       0.882886
    15372.790200       0.881749
    15396.458800       0.880624
    15420.200500       0.879510
    15444.015400       0.878408
    15467.904100       0.877318
    15491.866800       0.876240
    15515.903800       0.875175
    15540.015500       0.874122
    15564.202300       0.873082
    15588.464500       0.872055
    15612.802500       0.871041
    15637.216600       0.870041
    15661.707100       0.869054
    15686.274500       0.868080
    15710.919100       0.867121
    15735.641200       0.866175
    15760.441300       0.865243
    15785.319700       0.864325
    15810.276700       0.863422
    15835.312700       0.862533
    15860.428200       0.861658
    15885.623500       0.860798
    15910.899000       0.859952
    15936.255000       0.859121
    15961.691900       0.858305
    15987.210200       0.857504
    16012.810200       0.856717
    16038.492400       0.855945
    16064.257000       0.855188
    16090.104600       0.854445
    16116.035500       0.853718
    16142.050000       0.853005
    16168.148700       0.852308
    16194.332000       0.851625
    16220.600200       0.850957
    16246.953700       0.850303
    16273.393000       0.849664
    16299.918500       0.849040
    16326.530600       0.848431
    16353.229800       0.847835
    16380.016400       0.847255
    16406.890900       0.846688
    16433.853700       0.846136
    16460.905300       0.845597
    16488.046200       0.845073
    16515.276600       0.844562
    16542.597200       0.844065
    16570.008300       0.843582
    16597.510400       0.843111
    16625.103900       0.842654
    16652.789300       0.842210
    16680.567100       0.841779
    16708.437800       0.841360
    16736.401700       0.840953
    16764.459300       0.840558
    16792.611300       0.840176
    16820.857900       0.839804
    16849.199700       0.839445
    16877.637100       0.839096
    16906.170800       0.838758
    16934.801000       0.838430
    16963.528400       0.838113
    16992.353400       0.837805
    17021.276600       0.837507
    17050.298400       0.837218
    17079.419300       0.836938
    17108.639900       0.836667
    17137.960600       0.836404
    17167.382000       0.836148
    17196.904600       0.835900
    17226.528900       0.835659
    17256.255400       0.835425
    17286.084700       0.835196
