22,    channel 22 SRF extracted from SRF_FY-3F_MERSI-III.zip(FY3F_MERSI_SRF_CH22_Pub.txt) (received Nov 2023)
Number of data points:
605
Wavenumber (cm-1)   Filter response
     1275.835700       0.000011
     1276.161300       0.000051
     1276.487100       0.000089
     1276.813100       0.000122
     1277.139200       0.000145
     1277.465500       0.000158
     1277.792000       0.000164
     1278.118600       0.000165
     1278.445400       0.000159
     1278.772400       0.000150
     1279.099500       0.000142
     1279.426800       0.000134
     1279.754300       0.000127
     1280.081900       0.000126
     1280.409700       0.000129
     1280.737700       0.000139
     1281.065800       0.000158
     1281.394200       0.000187
     1281.722600       0.000224
     1282.051300       0.000266
     1282.380100       0.000315
     1282.709100       0.000368
     1283.038200       0.000421
     1283.367600       0.000475
     1283.697000       0.000529
     1284.026700       0.000577
     1284.356500       0.000620
     1284.686500       0.000656
     1285.016700       0.000684
     1285.347000       0.000701
     1285.677600       0.000709
     1286.008200       0.000715
     1286.339100       0.000717
     1286.670100       0.000717
     1287.001300       0.000720
     1287.332600       0.000728
     1287.664200       0.000741
     1287.995900       0.000762
     1288.327800       0.000793
     1288.659800       0.000833
     1288.992000       0.000884
     1289.324400       0.000948
     1289.657000       0.001022
     1289.989700       0.001105
     1290.322600       0.001198
     1290.655700       0.001299
     1290.988900       0.001404
     1291.322300       0.001513
     1291.655900       0.001626
     1291.989700       0.001735
     1292.323600       0.001837
     1292.657700       0.001935
     1292.992000       0.002026
     1293.326400       0.002109
     1293.661100       0.002185
     1293.995900       0.002262
     1294.330800       0.002342
     1294.666000       0.002423
     1295.001300       0.002512
     1295.336800       0.002609
     1295.672500       0.002713
     1296.008300       0.002826
     1296.344300       0.002946
     1296.680500       0.003075
     1297.016900       0.003214
     1297.353400       0.003363
     1297.690100       0.003522
     1298.027000       0.003694
     1298.364100       0.003881
     1298.701300       0.004079
     1299.038700       0.004283
     1299.376300       0.004494
     1299.714100       0.004709
     1300.052000       0.004918
     1300.390100       0.005116
     1300.728400       0.005310
     1301.066900       0.005503
     1301.405500       0.005691
     1301.744300       0.005882
     1302.083300       0.006088
     1302.422500       0.006310
     1302.761900       0.006546
     1303.101400       0.006797
     1303.441100       0.007063
     1303.781000       0.007342
     1304.121000       0.007632
     1304.461300       0.007928
     1304.801700       0.008239
     1305.142300       0.008570
     1305.483000       0.008918
     1305.824000       0.009289
     1306.165100       0.009693
     1306.506400       0.010132
     1306.847900       0.010594
     1307.189500       0.011068
     1307.531400       0.011561
     1307.873400       0.012063
     1308.215600       0.012564
     1308.558000       0.013065
     1308.900500       0.013580
     1309.243300       0.014115
     1309.586200       0.014664
     1309.929300       0.015245
     1310.272500       0.015871
     1310.616000       0.016536
     1310.959600       0.017233
     1311.303400       0.017962
     1311.647400       0.018724
     1311.991600       0.019521
     1312.336000       0.020347
     1312.680500       0.021209
     1313.025200       0.022118
     1313.370100       0.023072
     1313.715200       0.024075
     1314.060400       0.025141
     1314.405900       0.026273
     1314.751500       0.027466
     1315.097300       0.028712
     1315.443300       0.030011
     1315.789500       0.031367
     1316.135800       0.032786
     1316.482400       0.034260
     1316.829100       0.035804
     1317.176000       0.037433
     1317.523100       0.039139
     1317.870300       0.040937
     1318.217800       0.042842
     1318.565400       0.044849
     1318.913200       0.046963
     1319.261200       0.049188
     1319.609400       0.051520
     1319.957800       0.053976
     1320.306300       0.056558
     1320.655000       0.059266
     1321.004000       0.062117
     1321.353100       0.065112
     1321.702400       0.068253
     1322.051800       0.071562
     1322.401500       0.075033
     1322.751300       0.078675
     1323.101300       0.082510
     1323.451600       0.086528
     1323.802000       0.090746
     1324.152500       0.095187
     1324.503300       0.099838
     1324.854300       0.104728
     1325.205400       0.109886
     1325.556700       0.115299
     1325.908200       0.120991
     1326.259900       0.126980
     1326.611800       0.133254
     1326.963900       0.139853
     1327.316200       0.146791
     1327.668600       0.154061
     1328.021200       0.161679
     1328.374100       0.169642
     1328.727100       0.177959
     1329.080300       0.186656
     1329.433700       0.195732
     1329.787200       0.205188
     1330.141000       0.215032
     1330.494900       0.225254
     1330.849100       0.235876
     1331.203400       0.246919
     1331.557900       0.258376
     1331.912600       0.270250
     1332.267500       0.282539
     1332.622600       0.295246
     1332.977900       0.308381
     1333.333300       0.321957
     1333.689000       0.335965
     1334.044800       0.350393
     1334.400900       0.365247
     1334.757100       0.380517
     1335.113500       0.396182
     1335.470100       0.412266
     1335.826900       0.428721
     1336.183900       0.445496
     1336.541000       0.462629
     1336.898400       0.480033
     1337.256000       0.497662
     1337.613700       0.515549
     1337.971600       0.533557
     1338.329800       0.551664
     1338.688100       0.569872
     1339.046600       0.588010
     1339.405300       0.606105
     1339.764200       0.624102
     1340.123300       0.641841
     1340.482600       0.659382
     1340.842000       0.676621
     1341.201700       0.693431
     1341.561600       0.709870
     1341.921600       0.725837
     1342.281900       0.741269
     1342.642300       0.756199
     1343.003000       0.770540
     1343.363800       0.784264
     1343.724800       0.797389
     1344.086000       0.809896
     1344.447400       0.821782
     1344.809000       0.833052
     1345.170800       0.843709
     1345.532800       0.853741
     1345.895000       0.863184
     1346.257400       0.872062
     1346.620000       0.880361
     1346.982800       0.888120
     1347.345700       0.895345
     1347.708900       0.902037
     1348.072300       0.908246
     1348.435800       0.913963
     1348.799600       0.919206
     1349.163500       0.924015
     1349.527700       0.928369
     1349.892000       0.932311
     1350.256500       0.935870
     1350.621300       0.939028
     1350.986200       0.941848
     1351.351400       0.944337
     1351.716700       0.946500
     1352.082200       0.948406
     1352.447900       0.950037
     1352.813900       0.951430
     1353.180000       0.952651
     1353.546300       0.953670
     1353.912800       0.954542
     1354.279500       0.955308
     1354.646400       0.955946
     1355.013600       0.956506
     1355.380900       0.956996
     1355.748400       0.957412
     1356.116100       0.957775
     1356.484000       0.958075
     1356.852100       0.958330
     1357.220400       0.958560
     1357.588900       0.958755
     1357.957600       0.958933
     1358.326500       0.959099
     1358.695700       0.959252
     1359.065000       0.959408
     1359.434500       0.959567
     1359.804200       0.959732
     1360.174100       0.959911
     1360.544200       0.960095
     1360.914500       0.960311
     1361.285100       0.960576
     1361.655800       0.960882
     1362.026700       0.961256
     1362.397800       0.961708
     1362.769100       0.962227
     1363.140700       0.962800
     1363.512400       0.963434
     1363.884300       0.964113
     1364.256500       0.964822
     1364.628800       0.965566
     1365.001400       0.966344
     1365.374100       0.967155
     1365.747100       0.967999
     1366.120200       0.968874
     1366.493600       0.969785
     1366.867100       0.970718
     1367.240900       0.971659
     1367.614900       0.972612
     1367.989100       0.973569
     1368.363400       0.974520
     1368.738000       0.975474
     1369.112800       0.976449
     1369.487800       0.977442
     1369.863000       0.978457
     1370.238400       0.979502
     1370.614000       0.980577
     1370.989900       0.981655
     1371.365900       0.982729
     1371.742100       0.983800
     1372.118600       0.984844
     1372.495200       0.985862
     1372.872000       0.986853
     1373.249100       0.987816
     1373.626400       0.988752
     1374.003800       0.989648
     1374.381500       0.990505
     1374.759400       0.991318
     1375.137500       0.992062
     1375.515800       0.992743
     1375.894300       0.993355
     1376.273100       0.993890
     1376.652000       0.994352
     1377.031100       0.994751
     1377.410500       0.995088
     1377.790000       0.995362
     1378.169800       0.995581
     1378.549800       0.995741
     1378.930000       0.995846
     1379.310300       0.995892
     1379.690900       0.995881
     1380.071800       0.995830
     1380.452800       0.995733
     1380.834000       0.995602
     1381.215500       0.995458
     1381.597100       0.995292
     1381.979000       0.995124
     1382.361100       0.994961
     1382.743400       0.994802
     1383.125900       0.994665
     1383.508600       0.994545
     1383.891500       0.994455
     1384.274600       0.994411
     1384.658000       0.994407
     1385.041600       0.994457
     1385.425300       0.994566
     1385.809300       0.994730
     1386.193500       0.994949
     1386.577900       0.995225
     1386.962600       0.995544
     1387.347400       0.995900
     1387.732400       0.996293
     1388.117700       0.996704
     1388.503200       0.997139
     1388.888900       0.997581
     1389.274800       0.998016
     1389.660900       0.998450
     1390.047300       0.998845
     1390.433800       0.999200
     1390.820600       0.999507
     1391.207600       0.999737
     1391.594800       0.999895
     1391.982200       0.999985
     1392.369800       1.000000
     1392.757700       0.999946
     1393.145700       0.999834
     1393.534000       0.999660
     1393.922500       0.999435
     1394.311200       0.999168
     1394.700100       0.998857
     1395.089300       0.998519
     1395.478600       0.998150
     1395.868200       0.997765
     1396.258000       0.997384
     1396.648000       0.997002
     1397.038300       0.996623
     1397.428700       0.996258
     1397.819400       0.995889
     1398.210300       0.995490
     1398.601400       0.995070
     1398.992700       0.994605
     1399.384300       0.994083
     1399.776000       0.993512
     1400.168000       0.992891
     1400.560200       0.992219
     1400.952600       0.991501
     1401.345300       0.990738
     1401.738200       0.989931
     1402.131200       0.989089
     1402.524500       0.988207
     1402.918100       0.987300
     1403.311800       0.986377
     1403.705800       0.985436
     1404.100000       0.984505
     1404.494400       0.983592
     1404.889000       0.982680
     1405.283900       0.981769
     1405.678900       0.980857
     1406.074200       0.979894
     1406.469800       0.978877
     1406.865500       0.977794
     1407.261500       0.976621
     1407.657700       0.975365
     1408.054100       0.974010
     1408.450700       0.972551
     1408.847600       0.970991
     1409.244600       0.969329
     1409.642000       0.967566
     1410.039500       0.965700
     1410.437200       0.963725
     1410.835200       0.961650
     1411.233400       0.959490
     1411.631800       0.957241
     1412.030500       0.954898
     1412.429400       0.952474
     1412.828500       0.949942
     1413.227800       0.947268
     1413.627400       0.944466
     1414.027100       0.941459
     1414.427200       0.938230
     1414.827400       0.934772
     1415.227900       0.931045
     1415.628500       0.927060
     1416.029500       0.922776
     1416.430600       0.918174
     1416.832000       0.913270
     1417.233600       0.908070
     1417.635400       0.902572
     1418.037400       0.896790
     1418.439700       0.890711
     1418.842200       0.884368
     1419.245000       0.877810
     1419.647900       0.871023
     1420.051100       0.864036
     1420.454500       0.856856
     1420.858200       0.849481
     1421.262100       0.841924
     1421.666200       0.834182
     1422.070500       0.826220
     1422.475100       0.818039
     1422.879900       0.809625
     1423.284900       0.800964
     1423.690200       0.792058
     1424.095700       0.782863
     1424.501400       0.773374
     1424.907400       0.763591
     1425.313600       0.753508
     1425.720000       0.743126
     1426.126600       0.732448
     1426.533500       0.721461
     1426.940600       0.710205
     1427.348000       0.698702
     1427.755600       0.686950
     1428.163400       0.674994
     1428.571400       0.662823
     1428.979700       0.650476
     1429.388200       0.637977
     1429.797000       0.625321
     1430.205900       0.612533
     1430.615200       0.599607
     1431.024600       0.586549
     1431.434300       0.573366
     1431.844200       0.560049
     1432.254400       0.546589
     1432.664800       0.532989
     1433.075400       0.519245
     1433.486200       0.505347
     1433.897300       0.491319
     1434.308700       0.477174
     1434.720200       0.462915
     1435.132000       0.448623
     1435.544100       0.434271
     1435.956300       0.419963
     1436.368900       0.405749
     1436.781600       0.391644
     1437.194600       0.377805
     1437.607800       0.364196
     1438.021300       0.350938
     1438.435000       0.338061
     1438.848900       0.325585
     1439.263100       0.313599
     1439.677500       0.302082
     1440.092200       0.291027
     1440.507100       0.280450
     1440.922200       0.270306
     1441.337600       0.260576
     1441.753200       0.251250
     1442.169000       0.242212
     1442.585100       0.233485
     1443.001400       0.224986
     1443.418000       0.216683
     1443.834800       0.208568
     1444.251900       0.200577
     1444.669200       0.192724
     1445.086700       0.185011
     1445.504500       0.177433
     1445.922500       0.170006
     1446.340800       0.162728
     1446.759300       0.155611
     1447.178000       0.148719
     1447.597000       0.142044
     1448.016200       0.135609
     1448.435700       0.129422
     1448.855400       0.123491
     1449.275400       0.117850
     1449.695600       0.112492
     1450.116000       0.107380
     1450.536700       0.102521
     1450.957600       0.097888
     1451.378800       0.093470
     1451.800200       0.089260
     1452.221900       0.085223
     1452.643800       0.081368
     1453.066000       0.077662
     1453.488400       0.074110
     1453.911000       0.070685
     1454.333900       0.067357
     1454.757100       0.064133
     1455.180400       0.060998
     1455.604100       0.057951
     1456.028000       0.055001
     1456.452100       0.052145
     1456.876500       0.049391
     1457.301100       0.046750
     1457.725900       0.044218
     1458.151100       0.041795
     1458.576400       0.039477
     1459.002000       0.037279
     1459.427900       0.035202
     1459.854000       0.033257
     1460.280400       0.031465
     1460.707000       0.029823
     1461.133800       0.028319
     1461.560900       0.026962
     1461.988300       0.025718
     1462.415900       0.024576
     1462.843800       0.023529
     1463.271900       0.022547
     1463.700200       0.021637
     1464.128800       0.020776
     1464.557700       0.019971
     1464.986800       0.019194
     1465.416200       0.018429
     1465.845800       0.017675
     1466.275700       0.016904
     1466.705800       0.016122
     1467.136200       0.015344
     1467.566800       0.014565
     1467.997700       0.013814
     1468.428800       0.013109
     1468.860200       0.012444
     1469.291800       0.011823
     1469.723700       0.011246
     1470.155800       0.010708
     1470.588200       0.010212
     1471.020900       0.009749
     1471.453800       0.009321
     1471.887000       0.008922
     1472.320400       0.008549
     1472.754100       0.008199
     1473.188000       0.007847
     1473.622200       0.007496
     1474.056600       0.007133
     1474.491300       0.006746
     1474.926300       0.006356
     1475.361500       0.005974
     1475.796900       0.005602
     1476.232700       0.005267
     1476.668600       0.004965
     1477.104900       0.004704
     1477.541400       0.004488
     1477.978100       0.004313
     1478.415100       0.004185
     1478.852400       0.004096
     1479.289900       0.004035
     1479.727700       0.004002
     1480.165800       0.003975
     1480.604100       0.003958
     1481.042700       0.003923
     1481.481500       0.003861
     1481.920600       0.003771
     1482.359900       0.003640
     1482.799500       0.003476
     1483.239400       0.003298
     1483.679500       0.003102
     1484.119900       0.002911
     1484.560600       0.002725
     1485.001500       0.002557
     1485.442700       0.002414
     1485.884100       0.002296
     1486.325800       0.002208
     1486.767800       0.002147
     1487.210000       0.002100
     1487.652500       0.002071
     1488.095200       0.002041
     1488.538300       0.002009
     1488.981500       0.001961
     1489.425100       0.001882
     1489.868900       0.001781
     1490.313000       0.001656
     1490.757300       0.001508
     1491.201900       0.001358
     1491.646800       0.001203
     1492.091900       0.001061
     1492.537300       0.000934
     1492.983000       0.000832
     1493.428900       0.000766
     1493.875100       0.000729
     1494.321600       0.000721
     1494.768300       0.000738
     1495.215300       0.000766
     1495.662600       0.000807
     1496.110100       0.000842
     1496.557900       0.000868
     1497.006000       0.000875
     1497.454300       0.000850
     1497.902900       0.000802
     1498.351800       0.000734
     1498.801000       0.000648
     1499.250400       0.000558
     1499.700100       0.000463
     1500.150000       0.000379
     1500.600200       0.000307
     1501.050700       0.000257
     1501.501500       0.000235
     1501.952500       0.000235
     1502.403800       0.000254
     1502.855400       0.000288
     1503.307300       0.000327
     1503.759400       0.000370
     1504.211800       0.000400
     1504.664500       0.000420
     1505.117400       0.000417
     1505.570600       0.000390
     1506.024100       0.000345
     1506.477900       0.000283
     1506.931900       0.000212
     1507.386200       0.000138
     1507.840800       0.000064
     1508.295600       0.000005
