42,   42, MVIRI VIS channel from srf_MET5_1996168_1996169_1801-Release_S10EL_10.dat
Number of data points:
806
Wavenumber (cm-1)   Filter response
     8350.730700       0.000000
     8357.710000       0.000000
     8364.701000       0.000000
     8371.703600       0.000002
     8378.718100       0.000004
     8385.744200       0.000009
     8392.782200       0.000016
     8399.832000       0.000027
     8406.893700       0.000041
     8413.967200       0.000059
     8421.052600       0.000082
     8428.150000       0.000110
     8435.259400       0.000143
     8442.380800       0.000183
     8449.514200       0.000228
     8456.659600       0.000281
     8463.817200       0.000341
     8470.986900       0.000408
     8478.168700       0.000483
     8485.362700       0.000567
     8492.569000       0.000659
     8499.787500       0.000760
     8507.018300       0.000870
     8514.261400       0.000990
     8521.516800       0.001119
     8528.784600       0.001259
     8536.064900       0.001409
     8543.357500       0.001570
     8550.662700       0.001742
     8557.980300       0.001925
     8565.310500       0.002119
     8572.653200       0.002326
     8580.008600       0.002544
     8587.376600       0.002774
     8594.757200       0.003016
     8602.150500       0.003271
     8609.556600       0.003539
     8616.975400       0.003820
     8624.407100       0.004113
     8631.851500       0.004421
     8639.308900       0.004741
     8646.779100       0.005076
     8654.262200       0.005424
     8661.758300       0.005786
     8669.267400       0.006162
     8676.789600       0.006553
     8684.324800       0.006958
     8691.873100       0.007378
     8699.434500       0.007813
     8707.009100       0.008262
     8714.596900       0.008727
     8722.198000       0.009207
     8729.812300       0.009702
     8737.439900       0.010212
     8745.080900       0.010739
     8752.735200       0.011281
     8760.403000       0.011839
     8768.084200       0.012412
     8775.778900       0.013002
     8783.487000       0.013609
     8791.208800       0.014231
     8798.944100       0.014870
     8806.693100       0.015526
     8814.455700       0.016199
     8822.232000       0.016888
     8830.022100       0.017594
     8837.825900       0.018317
     8845.643500       0.019058
     8853.475000       0.019815
     8861.320300       0.020590
     8869.179600       0.021383
     8877.052800       0.022193
     8884.940000       0.023021
     8892.841300       0.023867
     8900.756600       0.024730
     8908.686000       0.025612
     8916.629500       0.026512
     8924.587200       0.027430
     8932.559200       0.028366
     8940.545400       0.029321
     8948.545900       0.030295
     8956.560700       0.031287
     8964.589900       0.032298
     8972.633500       0.033327
     8980.691500       0.034376
     8988.764000       0.035444
     8996.851100       0.036531
     9004.952700       0.037637
     9013.068900       0.038763
     9021.199800       0.039908
     9029.345400       0.041072
     9037.505600       0.042257
     9045.680700       0.043461
     9053.870500       0.044685
     9062.075200       0.045929
     9070.294800       0.047193
     9078.529300       0.048477
     9086.778700       0.049781
     9095.043200       0.051106
     9103.322700       0.052451
     9111.617300       0.053817
     9119.927000       0.055203
     9128.251900       0.056611
     9136.592100       0.058039
     9144.947400       0.059487
     9153.318100       0.060957
     9161.704100       0.062448
     9170.105500       0.063961
     9178.522300       0.065494
     9186.954500       0.067049
     9195.402300       0.068626
     9203.865600       0.070223
     9212.344500       0.071843
     9220.839100       0.073484
     9229.349300       0.075148
     9237.875300       0.076832
     9246.417000       0.078539
     9254.974500       0.080268
     9263.547900       0.082020
     9272.137200       0.083793
     9280.742500       0.085588
     9289.363700       0.087406
     9298.000900       0.089247
     9306.654300       0.091110
     9315.323700       0.092995
     9324.009300       0.094903
     9332.711200       0.096834
     9341.429200       0.098787
     9350.163600       0.100764
     9358.914400       0.102763
     9367.681500       0.104785
     9376.465100       0.106830
     9385.265100       0.108898
     9394.081700       0.110989
     9402.914900       0.113104
     9411.764700       0.115241
     9420.631200       0.117402
     9429.514400       0.119586
     9438.414300       0.121794
     9447.331100       0.124024
     9456.264800       0.126278
     9465.215300       0.128556
     9474.182900       0.130857
     9483.167400       0.133181
     9492.169000       0.135529
     9501.187600       0.137901
     9510.223500       0.140296
     9519.276500       0.142714
     9528.346800       0.145156
     9537.434400       0.147622
     9546.539400       0.150111
     9555.661700       0.152624
     9564.801500       0.155161
     9573.958800       0.157721
     9583.133700       0.160304
     9592.326100       0.162911
     9601.536200       0.165542
     9610.764100       0.168196
     9620.009600       0.170874
     9629.273000       0.173575
     9638.554200       0.176300
     9647.853400       0.179048
     9657.170400       0.181819
     9666.505600       0.184614
     9675.858700       0.187432
     9685.230000       0.190274
     9694.619500       0.193138
     9704.027200       0.196026
     9713.453100       0.198937
     9722.897400       0.201871
     9732.360100       0.204828
     9741.841200       0.207808
     9751.340800       0.210810
     9760.859000       0.213836
     9770.395700       0.216884
     9779.951100       0.219955
     9789.525200       0.223048
     9799.118100       0.226164
     9808.729800       0.229302
     9818.360300       0.232462
     9828.009800       0.235644
     9837.678300       0.238849
     9847.365800       0.242076
     9857.072400       0.245323
     9866.798200       0.248593
     9876.543200       0.251885
     9886.307500       0.255197
     9896.091000       0.258532
     9905.894000       0.261887
     9915.716400       0.265263
     9925.558300       0.268660
     9935.419800       0.272078
     9945.300800       0.275516
     9955.201600       0.278975
     9965.122100       0.282454
     9975.062300       0.285953
     9985.022500       0.289472
     9995.002500       0.293011
    10005.002500       0.296569
    10015.022500       0.300147
    10025.062700       0.303743
    10035.122900       0.307359
    10045.203400       0.310994
    10055.304200       0.314647
    10065.425300       0.318319
    10075.566800       0.322008
    10085.728700       0.325716
    10095.911200       0.329442
    10106.114200       0.333184
    10116.337900       0.336945
    10126.582300       0.340722
    10136.847400       0.344516
    10147.133400       0.348327
    10157.440300       0.352154
    10167.768200       0.355998
    10178.117000       0.359857
    10188.487000       0.363731
    10198.878100       0.367622
    10209.290500       0.371527
    10219.724100       0.375447
    10230.179000       0.379382
    10240.655400       0.383331
    10251.153300       0.387294
    10261.672700       0.391270
    10272.213700       0.395261
    10282.776300       0.399264
    10293.360800       0.403280
    10303.967000       0.407309
    10314.595200       0.411350
    10325.245200       0.415403
    10335.917300       0.419468
    10346.611500       0.423544
    10357.327800       0.427632
    10368.066400       0.431730
    10378.827200       0.435838
    10389.610400       0.439957
    10400.416000       0.444085
    10411.244100       0.448223
    10422.094800       0.452370
    10432.968200       0.456526
    10443.864200       0.460690
    10454.783100       0.464863
    10465.724800       0.469043
    10476.689400       0.473230
    10487.677000       0.477425
    10498.687700       0.481627
    10509.721500       0.485835
    10520.778500       0.490049
    10531.858900       0.494268
    10542.962600       0.498494
    10554.089700       0.502724
    10565.240400       0.506958
    10576.414600       0.511197
    10587.612500       0.515439
    10598.834100       0.519686
    10610.079600       0.523935
    10621.348900       0.528187
    10632.642200       0.532441
    10643.959600       0.536698
    10655.301000       0.540956
    10666.666700       0.545215
    10678.056600       0.549475
    10689.470900       0.553736
    10700.909600       0.557997
    10712.372800       0.562257
    10723.860600       0.566517
    10735.373100       0.570775
    10746.910300       0.575032
    10758.472300       0.579287
    10770.059200       0.583540
    10781.671200       0.587791
    10793.308100       0.592038
    10804.970300       0.596282
    10816.657700       0.600521
    10828.370300       0.604757
    10840.108400       0.608988
    10851.871900       0.613214
    10863.661100       0.617434
    10875.475800       0.621649
    10887.316300       0.625857
    10899.182600       0.630059
    10911.074700       0.634253
    10922.992900       0.638441
    10934.937100       0.642620
    10946.907500       0.646791
    10958.904100       0.650953
    10970.927000       0.655106
    10982.976400       0.659250
    10995.052200       0.663384
    11007.154700       0.667508
    11019.283700       0.671621
    11031.439600       0.675723
    11043.622300       0.679813
    11055.832000       0.683892
    11068.068600       0.687958
    11080.332400       0.692012
    11092.623400       0.696052
    11104.941700       0.700079
    11117.287400       0.704093
    11129.660500       0.708092
    11142.061300       0.712076
    11154.489700       0.716046
    11166.945800       0.720000
    11179.429800       0.723938
    11191.941800       0.727860
    11204.481800       0.731766
    11217.049900       0.735655
    11229.646300       0.739526
    11242.270900       0.743380
    11254.924000       0.747216
    11267.605600       0.751033
    11280.315800       0.754831
    11293.054800       0.758610
    11305.822500       0.762370
    11318.619100       0.766110
    11331.444800       0.769830
    11344.299500       0.773529
    11357.183400       0.777207
    11370.096600       0.780864
    11383.039300       0.784499
    11396.011400       0.788112
    11409.013100       0.791703
    11422.044500       0.795271
    11435.105800       0.798816
    11448.196900       0.802338
    11461.318100       0.805836
    11474.469300       0.809310
    11487.650800       0.812759
    11500.862600       0.816185
    11514.104800       0.819585
    11527.377500       0.822959
    11540.680900       0.826308
    11554.015000       0.829632
    11567.380000       0.832929
    11580.775900       0.836199
    11594.202900       0.839443
    11607.661100       0.842660
    11621.150500       0.845849
    11634.671300       0.849010
    11648.223600       0.852144
    11661.807600       0.855250
    11675.423200       0.858326
    11689.070700       0.861375
    11702.750100       0.864394
    11716.461600       0.867384
    11730.205300       0.870344
    11743.981200       0.873275
    11757.789500       0.876176
    11771.630400       0.879046
    11785.503800       0.881886
    11799.410000       0.884695
    11813.349100       0.887474
    11827.321100       0.890221
    11841.326200       0.892937
    11855.364600       0.895621
    11869.436200       0.898274
    11883.541300       0.900894
    11897.680000       0.903483
    11911.852300       0.906039
    11926.058400       0.908562
    11940.298500       0.911053
    11954.572600       0.913511
    11968.880900       0.915936
    11983.223500       0.918328
    11997.600500       0.920686
    12012.012000       0.923011
    12026.458200       0.925302
    12040.939200       0.927560
    12055.455100       0.929783
    12070.006000       0.931973
    12084.592100       0.934128
    12099.213600       0.936249
    12113.870400       0.938336
    12128.562800       0.940388
    12143.290800       0.942405
    12158.054700       0.944388
    12172.854500       0.946336
    12187.690400       0.948249
    12202.562500       0.950128
    12217.471000       0.951971
    12232.415900       0.953779
    12247.397400       0.955552
    12262.415700       0.957290
    12277.470800       0.958993
    12292.563000       0.960660
    12307.692300       0.962292
    12322.858900       0.963889
    12338.062900       0.965451
    12353.304500       0.966977
    12368.583800       0.968468
    12383.900900       0.969923
    12399.256000       0.971343
    12414.649300       0.972728
    12430.080800       0.974077
    12445.550700       0.975391
    12461.059200       0.976670
    12476.606400       0.977913
    12492.192400       0.979122
    12507.817400       0.980295
    12523.481500       0.981433
    12539.185000       0.982536
    12554.927800       0.983604
    12570.710200       0.984637
    12586.532400       0.985635
    12602.394500       0.986598
    12618.296500       0.987527
    12634.238800       0.988421
    12650.221400       0.989281
    12666.244500       0.990106
    12682.308200       0.990897
    12698.412700       0.991654
    12714.558200       0.992377
    12730.744700       0.993066
    12746.972600       0.993721
    12763.241900       0.994343
    12779.552700       0.994931
    12795.905300       0.995486
    12812.299800       0.996008
    12828.736400       0.996497
    12845.215200       0.996953
    12861.736300       0.997376
    12878.300100       0.997767
    12894.906500       0.998125
    12911.555800       0.998452
    12928.248200       0.998747
    12944.983800       0.999010
    12961.762800       0.999241
    12978.585300       0.999441
    12995.451600       0.999611
    13012.361700       0.999749
    13029.316000       0.999857
    13046.314400       0.999935
    13063.357300       0.999982
    13080.444700       1.000000
    13097.576900       0.999988
    13114.754100       0.999947
    13131.976400       0.999877
    13149.243900       0.999778
    13166.556900       0.999650
    13183.915600       0.999494
    13201.320100       0.999311
    13218.770700       0.999099
    13236.267400       0.998860
    13253.810500       0.998594
    13271.400100       0.998302
    13289.036500       0.997983
    13306.719900       0.997637
    13324.450400       0.997266
    13342.228200       0.996869
    13360.053400       0.996447
    13377.926400       0.996000
    13395.847300       0.995529
    13413.816200       0.995033
    13431.833400       0.994514
    13449.899100       0.993971
    13468.013500       0.993404
    13486.176700       0.992815
    13504.388900       0.992204
    13522.650400       0.991570
    13540.961400       0.990914
    13559.322000       0.990237
    13577.732500       0.989539
    13596.193100       0.988820
    13614.703900       0.988081
    13633.265200       0.987322
    13651.877100       0.986544
    13670.540000       0.985746
    13689.253900       0.984929
    13708.019200       0.984095
    13726.836000       0.983242
    13745.704500       0.982371
    13764.624900       0.981483
    13783.597500       0.980578
    13802.622500       0.979657
    13821.700100       0.978720
    13840.830400       0.977767
    13860.013900       0.976799
    13879.250500       0.975816
    13898.540700       0.974819
    13917.884500       0.973807
    13937.282200       0.972782
    13956.734100       0.971744
    13976.240400       0.970693
    13995.801300       0.969630
    14015.417000       0.968555
    14035.087700       0.967468
    14054.813800       0.966370
    14074.595400       0.965261
    14094.432700       0.964142
    14114.326000       0.963014
    14134.275600       0.961875
    14154.281700       0.960728
    14174.344400       0.959572
    14194.464200       0.958408
    14214.641100       0.957236
    14234.875400       0.956057
    14255.167500       0.954871
    14275.517500       0.953678
    14295.925700       0.952479
    14316.392300       0.951275
    14336.917600       0.950065
    14357.501800       0.948850
    14378.145200       0.947631
    14398.848100       0.946408
    14419.610700       0.945181
    14440.433200       0.943952
    14461.316000       0.942719
    14482.259200       0.941484
    14503.263200       0.940247
    14524.328200       0.939008
    14545.454500       0.937768
    14566.642400       0.936528
    14587.892000       0.935287
    14609.203800       0.934046
    14630.577900       0.932805
    14652.014700       0.931565
    14673.514300       0.930327
    14695.077100       0.929090
    14716.703500       0.927854
    14738.393500       0.926622
    14760.147600       0.925392
    14781.966000       0.924165
    14803.849000       0.922941
    14825.796900       0.921722
    14847.809900       0.920506
    14869.888500       0.919295
    14892.032800       0.918089
    14914.243100       0.916888
    14936.519800       0.915693
    14958.863100       0.914504
    14981.273400       0.913321
    15003.750900       0.912144
    15026.296000       0.910975
    15048.909000       0.909812
    15071.590100       0.908658
    15094.339600       0.907511
    15117.158000       0.906372
    15140.045400       0.905242
    15163.002300       0.904121
    15186.028900       0.903009
    15209.125500       0.901906
    15232.292500       0.900813
    15255.530100       0.899729
    15278.838800       0.898656
    15302.218800       0.897594
    15325.670500       0.896542
    15349.194200       0.895501
    15372.790200       0.894472
    15396.458800       0.893453
    15420.200500       0.892447
    15444.015400       0.891453
    15467.904100       0.890470
    15491.866800       0.889500
    15515.903800       0.888543
    15540.015500       0.887598
    15564.202300       0.886667
    15588.464500       0.885748
    15612.802500       0.884843
    15637.216600       0.883951
    15661.707100       0.883073
    15686.274500       0.882209
    15710.919100       0.881359
    15735.641200       0.880523
    15760.441300       0.879701
    15785.319700       0.878893
    15810.276700       0.878100
    15835.312700       0.877321
    15860.428200       0.876558
    15885.623500       0.875808
    15910.899000       0.875074
    15936.255000       0.874355
    15961.691900       0.873650
    15987.210200       0.872961
    16012.810200       0.872287
    16038.492400       0.871628
    16064.257000       0.870983
    16090.104600       0.870355
    16116.035500       0.869741
    16142.050000       0.869142
    16168.148700       0.868559
    16194.332000       0.867991
    16220.600200       0.867438
    16246.953700       0.866900
    16273.393000       0.866377
    16299.918500       0.865869
    16326.530600       0.865376
    16353.229800       0.864897
    16380.016400       0.864434
    16406.890900       0.863985
    16433.853700       0.863551
    16460.905300       0.863131
    16488.046200       0.862725
    16515.276600       0.862334
    16542.597200       0.861956
    16570.008300       0.861593
    16597.510400       0.861243
    16625.103900       0.860907
    16652.789300       0.860584
    16680.567100       0.860274
    16708.437800       0.859977
    16736.401700       0.859693
    16764.459300       0.859421
    16792.611300       0.859162
    16820.857900       0.858915
    16849.199700       0.858679
    16877.637100       0.858455
    16906.170800       0.858242
    16934.801000       0.858040
    16963.528400       0.857848
    16992.353400       0.857667
    17021.276600       0.857495
    17050.298400       0.857334
    17079.419300       0.857181
    17108.639900       0.857038
    17137.960600       0.856903
    17167.382000       0.856776
    17196.904600       0.856657
    17226.528900       0.856546
    17256.255400       0.856441
    17286.084700       0.856343
