           9  , Jan 12th 2012 http://fy3.satellite.cma.gov.cn/ArssEn/Download/FY3A_calibration_info_params.rar
Number of data points:
1181
Wavenumber (cm-1)   Filter response
      810.767000       0.000117
      810.898500       0.000550
      811.030000       0.001128
      811.161600       0.001872
      811.293200       0.002543
      811.424900       0.003121
      811.556600       0.003427
      811.688400       0.003519
      811.820100       0.003468
      811.951900       0.003313
      812.083800       0.003186
      812.215700       0.003085
      812.347700       0.003058
      812.479700       0.003036
      812.611800       0.003009
      812.743800       0.002887
      812.876000       0.002697
      813.008100       0.002457
      813.140300       0.002166
      813.272600       0.001954
      813.404900       0.001790
      813.537300       0.001776
      813.669700       0.001843
      813.802100       0.001985
      813.934600       0.002231
      814.067100       0.002503
      814.199600       0.002802
      814.332300       0.003106
      814.464900       0.003378
      814.597600       0.003601
      814.730300       0.003690
      814.863100       0.003723
      814.995900       0.003699
      815.128800       0.003625
      815.261700       0.003543
      815.394700       0.003453
      815.527600       0.003327
      815.660600       0.003172
      815.793800       0.002992
      815.926900       0.002776
      816.060100       0.002589
      816.193300       0.002437
      816.326500       0.002362
      816.459800       0.002297
      816.593100       0.002239
      816.726500       0.002151
      816.860000       0.002058
      816.993500       0.001963
      817.127000       0.001975
      817.260600       0.002066
      817.394100       0.002251
      817.527800       0.002547
      817.661500       0.002843
      817.795200       0.003132
      817.929000       0.003304
      818.062800       0.003387
      818.196700       0.003373
      818.330600       0.003244
      818.464500       0.003111
      818.598600       0.002962
      818.732600       0.002941
      818.866700       0.003018
      819.000800       0.003196
      819.135000       0.003519
      819.269200       0.003813
      819.403400       0.004075
      819.537800       0.004094
      819.672100       0.003943
      819.806500       0.003636
      819.941000       0.003109
      820.075400       0.002579
      820.210000       0.002059
      820.344500       0.001689
      820.479200       0.001456
      820.613800       0.001336
      820.748500       0.001361
      820.883200       0.001393
      821.018100       0.001416
      821.152900       0.001348
      821.287800       0.001174
      821.422700       0.000933
      821.557700       0.000630
      821.692700       0.000394
      821.827800       0.000240
      821.962800       0.000282
      822.098000       0.000601
      822.233200       0.001104
      822.368400       0.001849
      822.503700       0.002668
      822.639000       0.003433
      822.774400       0.004018
      822.909800       0.004280
      823.045300       0.004373
      823.180800       0.004280
      823.316300       0.004212
      823.451900       0.004249
      823.587500       0.004447
      823.723200       0.004768
      823.859000       0.005052
      823.994800       0.005254
      824.130600       0.005136
      824.266400       0.004891
      824.402300       0.004527
      824.538300       0.004222
      824.674300       0.004070
      824.810300       0.004070
      824.946400       0.004370
      825.082500       0.004782
      825.218700       0.005276
      825.354900       0.005710
      825.491100       0.005966
      825.627400       0.006058
      825.763900       0.005924
      825.900300       0.005725
      826.036700       0.005549
      826.173200       0.005499
      826.309700       0.005699
      826.446200       0.006030
      826.582900       0.006369
      826.719600       0.006794
      826.856300       0.007068
      826.993000       0.007138
      827.129800       0.006756
      827.266700       0.006181
      827.403600       0.005425
      827.540600       0.004591
      827.677600       0.003861
      827.814600       0.003233
      827.951700       0.002811
      828.088700       0.002451
      828.225900       0.002146
      828.363200       0.001872
      828.500400       0.001665
      828.637800       0.001540
      828.775100       0.001567
      828.912500       0.001796
      829.049900       0.002119
      829.187400       0.002527
      829.325000       0.002933
      829.462500       0.003245
      829.600200       0.003469
      829.737800       0.003574
      829.875500       0.003694
      830.013200       0.003842
      830.151100       0.004147
      830.288900       0.004564
      830.426900       0.005046
      830.564800       0.005554
      830.702800       0.005981
      830.840800       0.006250
      830.978900       0.006323
      831.117100       0.006177
      831.255200       0.005925
      831.393400       0.005573
      831.531700       0.005187
      831.670000       0.004846
      831.808300       0.004558
      831.946700       0.004431
      832.085200       0.004444
      832.223700       0.004523
      832.362200       0.004677
      832.500900       0.004811
      832.639500       0.004911
      832.778100       0.004946
      832.916900       0.004917
      833.055700       0.004876
      833.194500       0.004832
      833.333300       0.004877
      833.472200       0.005005
      833.611200       0.005175
      833.750200       0.005459
      833.889300       0.005796
      834.028400       0.006169
      834.167500       0.006566
      834.306700       0.006922
      834.445900       0.007217
      834.585200       0.007416
      834.724500       0.007434
      834.864000       0.007381
      835.003400       0.007223
      835.142800       0.007024
      835.282300       0.006870
      835.421900       0.006764
      835.561500       0.006741
      835.701200       0.006731
      835.840900       0.006707
      835.980600       0.006638
      836.120400       0.006504
      836.260300       0.006398
      836.400100       0.006304
      836.540000       0.006416
      836.680100       0.006657
      836.820100       0.007009
      836.960100       0.007445
      837.100300       0.007790
      837.240400       0.008012
      837.380700       0.008029
      837.521000       0.007756
      837.661300       0.007356
      837.801600       0.006797
      837.942000       0.006228
      838.082500       0.005791
      838.223000       0.005511
      838.363500       0.005556
      838.504200       0.005860
      838.644800       0.006311
      838.785500       0.006881
      838.926100       0.007434
      839.067000       0.007947
      839.207800       0.008352
      839.348700       0.008594
      839.489600       0.008738
      839.630600       0.008802
      839.771600       0.008777
      839.912700       0.008687
      840.053800       0.008582
      840.194900       0.008476
      840.336200       0.008382
      840.477400       0.008374
      840.618700       0.008246
      840.760100       0.008068
      840.901400       0.007863
      841.042800       0.007667
      841.184400       0.007522
      841.325900       0.007572
      841.467500       0.007771
      841.609100       0.008117
      841.750900       0.008583
      841.892600       0.008991
      842.034300       0.009311
      842.176200       0.009425
      842.318100       0.009295
      842.460000       0.009066
      842.601900       0.008771
      842.744000       0.008542
      842.886000       0.008439
      843.028100       0.008457
      843.170300       0.008635
      843.312600       0.008905
      843.454800       0.009245
      843.597100       0.009641
      843.739400       0.010097
      843.881800       0.010577
      844.024400       0.011067
      844.166800       0.011518
      844.309400       0.011859
      844.452000       0.012095
      844.594600       0.012205
      844.737200       0.012166
      844.880000       0.012140
      845.022800       0.012143
      845.165600       0.012275
      845.308500       0.012549
      845.451500       0.012898
      845.594400       0.013301
      845.737500       0.013597
      845.880600       0.013754
      846.023700       0.013778
      846.166900       0.013643
      846.310100       0.013533
      846.453400       0.013516
      846.596700       0.013649
      846.740000       0.014027
      846.883500       0.014471
      847.027000       0.014933
      847.170500       0.015292
      847.314000       0.015502
      847.457600       0.015623
      847.601300       0.015660
      847.745100       0.015720
      847.888800       0.015824
      848.032600       0.015962
      848.176500       0.016124
      848.320300       0.016257
      848.464200       0.016342
      848.608300       0.016368
      848.752400       0.016294
      848.896500       0.016168
      849.040600       0.016026
      849.184800       0.015936
      849.329000       0.015996
      849.473300       0.016189
      849.617600       0.016514
      849.762100       0.016990
      849.906600       0.017478
      850.051000       0.017930
      850.195600       0.018308
      850.340100       0.018528
      850.484700       0.018645
      850.629500       0.018719
      850.774200       0.018762
      850.919000       0.018817
      851.063800       0.018892
      851.208700       0.018993
      851.353600       0.019122
      851.498600       0.019283
      851.643700       0.019485
      851.788800       0.019748
      851.933900       0.020063
      852.079000       0.020442
      852.224300       0.020828
      852.369600       0.021153
      852.515000       0.021372
      852.660300       0.021497
      852.805700       0.021530
      852.951200       0.021468
      853.096700       0.021381
      853.242300       0.021292
      853.387900       0.021192
      853.533600       0.021236
      853.679400       0.021390
      853.825100       0.021661
      853.970900       0.022107
      854.116800       0.022666
      854.262800       0.023249
      854.408700       0.023820
      854.554800       0.024269
      854.700900       0.024612
      854.847000       0.024898
      854.993200       0.025108
      855.139300       0.025360
      855.285600       0.025678
      855.432000       0.026054
      855.578400       0.026472
      855.724800       0.026866
      855.871300       0.027223
      856.017800       0.027543
      856.164400       0.027854
      856.311000       0.028218
      856.457700       0.028580
      856.604400       0.028962
      856.751200       0.029284
      856.898000       0.029516
      857.044900       0.029681
      857.191800       0.029799
      857.338900       0.029995
      857.485900       0.030349
      857.632900       0.030880
      857.780100       0.031682
      857.927200       0.032618
      858.074500       0.033575
      858.221700       0.034498
      858.369100       0.035253
      858.516500       0.035788
      858.663900       0.036156
      858.811400       0.036372
      858.958900       0.036452
      859.106500       0.036505
      859.254200       0.036609
      859.401900       0.036792
      859.549600       0.037236
      859.697400       0.037887
      859.845200       0.038708
      859.993100       0.039673
      860.141100       0.040667
      860.289100       0.041587
      860.437100       0.042398
      860.585200       0.043019
      860.733300       0.043361
      860.881500       0.043568
      861.029800       0.043628
      861.178000       0.043565
      861.326500       0.043539
      861.474900       0.043635
      861.623300       0.043899
      861.771800       0.044451
      861.920300       0.045301
      862.068900       0.046346
      862.217700       0.047483
      862.366300       0.048784
      862.515100       0.050025
      862.663900       0.051150
      862.812700       0.052124
      862.961700       0.052866
      863.110600       0.053535
      863.259700       0.054229
      863.408800       0.055012
      863.557900       0.056039
      863.707000       0.057160
      863.856300       0.058362
      864.005500       0.059536
      864.154900       0.060481
      864.304300       0.061212
      864.453700       0.061831
      864.603100       0.062387
      864.752700       0.063065
      864.902200       0.063898
      865.051900       0.064853
      865.201600       0.065936
      865.351400       0.066967
      865.501200       0.067889
      865.650900       0.068708
      865.800800       0.069433
      865.950800       0.070121
      866.100800       0.070836
      866.250900       0.071592
      866.401000       0.072401
      866.551100       0.073315
      866.701400       0.074431
      866.851600       0.075445
      867.001900       0.076488
      867.152300       0.077471
      867.302700       0.078373
      867.453200       0.079210
      867.603700       0.079998
      867.754200       0.080859
      867.904800       0.081823
      868.055500       0.082866
      868.206300       0.084195
      868.357100       0.085390
      868.507900       0.086639
      868.658800       0.087961
      868.809700       0.089377
      868.960700       0.090955
      869.111800       0.092639
      869.262900       0.094372
      869.414000       0.096124
      869.565200       0.097844
      869.716500       0.092414
      869.867700       0.094909
      870.019100       0.097456
      870.170600       0.100075
      870.322000       0.102730
      870.473600       0.105377
      870.625100       0.107989
      870.776700       0.110527
      870.928400       0.113086
      871.080200       0.115758
      871.231900       0.118703
      871.383800       0.120634
      871.535600       0.122802
      871.687600       0.125021
      871.839500       0.127209
      871.991600       0.129279
      872.143700       0.131055
      872.295900       0.132660
      872.448100       0.134154
      872.600300       0.135599
      872.752600       0.138513
      872.905000       0.140282
      873.057400       0.142237
      873.210000       0.144386
      873.362500       0.146823
      873.515000       0.149404
      873.667700       0.152047
      873.820300       0.154691
      873.973000       0.157202
      874.125900       0.159464
      874.278700       0.162998
      874.431600       0.164933
      874.584600       0.166823
      874.737500       0.168989
      874.890600       0.171503
      875.043700       0.174392
      875.197000       0.177672
      875.350200       0.181235
      875.503400       0.184784
      875.656700       0.188246
      875.810100       0.193296
      875.963600       0.196463
      876.117100       0.199538
      876.270600       0.202552
      876.424200       0.205523
      876.577800       0.208465
      876.731500       0.211492
      876.885300       0.214678
      877.039100       0.218059
      877.193000       0.221672
      877.346900       0.227568
      877.500900       0.231421
      877.654900       0.235231
      877.809000       0.238969
      877.963100       0.242672
      878.117400       0.246504
      878.271600       0.250504
      878.425900       0.254685
      878.580200       0.259040
      878.734600       0.263389
      878.889000       0.270125
      879.043600       0.274239
      879.198200       0.278200
      879.352800       0.282156
      879.507500       0.286245
      879.662200       0.290536
      879.817000       0.295041
      879.971800       0.299812
      880.126700       0.304801
      880.281700       0.309931
      880.436700       0.318149
      880.591700       0.323508
      880.746900       0.328860
      880.902000       0.334142
      881.057300       0.339369
      881.212600       0.344568
      881.367900       0.349826
      881.523300       0.355269
      881.678700       0.360906
      881.834200       0.366742
      881.989700       0.376320
      882.145300       0.382505
      882.301100       0.388654
      882.456800       0.394739
      882.612500       0.400745
      882.768400       0.406641
      882.924300       0.412459
      883.080100       0.418213
      883.236200       0.423914
      883.392300       0.429571
      883.548300       0.439852
      883.704500       0.446044
      883.860700       0.452406
      884.017000       0.458974
      884.173300       0.465828
      884.329700       0.472852
      884.486100       0.479916
      884.642600       0.486940
      884.799100       0.493836
      884.955700       0.500499
      885.112400       0.502292
      885.269200       0.509989
      885.425900       0.517777
      885.582700       0.525795
      885.739600       0.534075
      885.896500       0.542494
      886.053500       0.550974
      886.210500       0.559430
      886.367700       0.567796
      886.524800       0.576103
      886.682100       0.584393
      886.839300       0.591853
      886.996600       0.599353
      887.154000       0.606898
      887.311400       0.614601
      887.469000       0.622565
      887.626500       0.630534
      887.784100       0.638497
      887.941800       0.646412
      888.099400       0.654284
      888.257200       0.662912
      888.415100       0.670713
      888.573000       0.678490
      888.730900       0.686289
      888.888900       0.694101
      889.046900       0.701898
      889.205000       0.709633
      889.363200       0.717121
      889.521500       0.724338
      889.679700       0.731340
      889.838100       0.738644
      889.996500       0.745547
      890.154800       0.752607
      890.313400       0.759761
      890.472000       0.766936
      890.630600       0.774054
      890.789200       0.781009
      890.948000       0.787610
      891.106800       0.793835
      891.265600       0.799476
      891.424400       0.804625
      891.583500       0.809495
      891.742500       0.814189
      891.901600       0.818951
      892.060700       0.823881
      892.219800       0.829038
      892.379000       0.834431
      892.538300       0.839944
      892.697800       0.845437
      892.857200       0.850840
      893.016600       0.855625
      893.176100       0.860619
      893.335700       0.865259
      893.495300       0.869604
      893.655100       0.873693
      893.814800       0.877593
      893.974600       0.881436
      894.134500       0.885352
      894.294400       0.889334
      894.454300       0.893345
      894.614400       0.896741
      894.774500       0.900480
      894.934700       0.903903
      895.094900       0.906955
      895.255100       0.909725
      895.415500       0.912306
      895.575800       0.914796
      895.736300       0.917302
      895.896800       0.919824
      896.057400       0.922333
      896.218000       0.924482
      896.378600       0.926772
      896.539300       0.928897
      896.700100       0.930897
      896.861000       0.932789
      897.021900       0.934592
      897.182900       0.936334
      897.343900       0.938052
      897.504900       0.939746
      897.666000       0.941404
      897.827300       0.943143
      897.988500       0.944594
      898.149800       0.945861
      898.311200       0.946951
      898.472600       0.947899
      898.634000       0.948754
      898.795600       0.949574
      898.957200       0.950425
      899.118900       0.951207
      899.280600       0.951842
      899.442300       0.952767
      899.604200       0.952933
      899.766100       0.952931
      899.928000       0.952962
      900.090000       0.953144
      900.252100       0.953532
      900.414200       0.954133
      900.576400       0.954865
      900.738600       0.955540
      900.900900       0.956047
      901.063300       1.000000
