4,   SBG channel 4 from srf_082024.csv
Number of data points:
911
Wavenumber (cm-1)   Filter response
     1098.177000       0.000491
     1098.297700       0.000498
     1098.418200       0.000505
     1098.538900       0.000512
     1098.659500       0.000519
     1098.780400       0.000526
     1098.901000       0.000533
     1099.021900       0.000540
     1099.142700       0.000548
     1099.263400       0.000555
     1099.384400       0.000563
     1099.505200       0.000571
     1099.626100       0.000579
     1099.746900       0.000587
     1099.868000       0.000595
     1099.989000       0.000604
     1100.110000       0.000612
     1100.231100       0.000621
     1100.352100       0.000630
     1100.473300       0.000639
     1100.594200       0.000648
     1100.715500       0.000657
     1100.836700       0.000667
     1100.957800       0.000676
     1101.079100       0.000686
     1101.200300       0.000696
     1101.321700       0.000706
     1101.442900       0.000717
     1101.564200       0.000727
     1101.685700       0.000738
     1101.806900       0.000749
     1101.928300       0.000760
     1102.049800       0.000772
     1102.171300       0.000783
     1102.292800       0.000795
     1102.414300       0.000807
     1102.535900       0.000819
     1102.657300       0.000832
     1102.779100       0.000844
     1102.900600       0.000857
     1103.022300       0.000870
     1103.144000       0.000884
     1103.265600       0.000897
     1103.387500       0.000911
     1103.509200       0.000925
     1103.631000       0.000940
     1103.752700       0.000954
     1103.874600       0.000969
     1103.996500       0.000984
     1104.118300       0.001000
     1104.240400       0.001016
     1104.362200       0.001032
     1104.484300       0.001048
     1104.606200       0.001065
     1104.728300       0.001082
     1104.850300       0.001099
     1104.972400       0.001117
     1105.094500       0.001135
     1105.216600       0.001154
     1105.338700       0.001172
     1105.461100       0.001191
     1105.583100       0.001211
     1105.705400       0.001231
     1105.827600       0.001251
     1105.950100       0.001272
     1106.072300       0.001293
     1106.194700       0.001314
     1106.317100       0.001336
     1106.439500       0.001358
     1106.561900       0.001381
     1106.684300       0.001404
     1106.806900       0.001428
     1106.929300       0.001452
     1107.051900       0.001477
     1107.174600       0.001502
     1107.297100       0.001528
     1107.419800       0.001554
     1107.542400       0.001580
     1107.665000       0.001607
     1107.787700       0.001635
     1107.910500       0.001664
     1108.033300       0.001692
     1108.156000       0.001722
     1108.278900       0.001752
     1108.401600       0.001783
     1108.524500       0.001814
     1108.647300       0.001846
     1108.770400       0.001879
     1108.893300       0.001912
     1109.016200       0.001946
     1109.139300       0.001981
     1109.262300       0.002016
     1109.385400       0.002052
     1109.508500       0.002089
     1109.631600       0.002127
     1109.754800       0.002165
     1109.877900       0.002205
     1110.001100       0.002245
     1110.124300       0.002286
     1110.247600       0.002327
     1110.371000       0.002370
     1110.494100       0.002414
     1110.617600       0.002458
     1110.740800       0.002504
     1110.864300       0.002550
     1110.987700       0.002598
     1111.111100       0.002646
     1111.234600       0.002696
     1111.358000       0.002746
     1111.481700       0.002798
     1111.605100       0.002851
     1111.728800       0.002905
     1111.852300       0.002960
     1111.976000       0.003016
     1112.099700       0.003074
     1112.223300       0.003133
     1112.347000       0.003193
     1112.470700       0.003254
     1112.594600       0.003317
     1112.718300       0.003382
     1112.842200       0.003447
     1112.966100       0.003514
     1113.090000       0.003583
     1113.213900       0.003653
     1113.337800       0.003725
     1113.461800       0.003798
     1113.585800       0.003873
     1113.709700       0.003950
     1113.833900       0.004028
     1113.957900       0.004108
     1114.082000       0.004191
     1114.206100       0.004274
     1114.330300       0.004360
     1114.454500       0.004448
     1114.578600       0.004538
     1114.703000       0.004630
     1114.827100       0.004724
     1114.951500       0.004820
     1115.075800       0.004918
     1115.200200       0.005019
     1115.324600       0.005122
     1115.449000       0.005228
     1115.573500       0.005336
     1115.697900       0.005446
     1115.822400       0.005559
     1115.946800       0.005675
     1116.071400       0.005793
     1116.196000       0.005915
     1116.320600       0.006039
     1116.445300       0.006166
     1116.569800       0.006296
     1116.694600       0.006429
     1116.819200       0.006566
     1116.944100       0.006706
     1117.068800       0.006849
     1117.193600       0.006996
     1117.318500       0.007146
     1117.443200       0.007300
     1117.568200       0.007457
     1117.693100       0.007619
     1117.818000       0.007784
     1117.943000       0.007954
     1118.068000       0.008127
     1118.193000       0.008305
     1118.318000       0.008488
     1118.443100       0.008675
     1118.568200       0.008866
     1118.693400       0.009063
     1118.818600       0.009264
     1118.943700       0.009470
     1119.069000       0.009682
     1119.194100       0.009899
     1119.319500       0.010121
     1119.444800       0.010349
     1119.570100       0.010583
     1119.695400       0.010823
     1119.820800       0.011069
     1119.946300       0.011321
     1120.071700       0.011580
     1120.197100       0.011845
     1120.322800       0.012118
     1120.448100       0.012397
     1120.573700       0.012684
     1120.699200       0.012978
     1120.825000       0.013280
     1120.950700       0.013590
     1121.076200       0.013908
     1121.202000       0.014234
     1121.327600       0.014569
     1121.453400       0.014913
     1121.579100       0.015266
     1121.705000       0.015628
     1121.830900       0.016001
     1121.956700       0.016383
     1122.082600       0.016775
     1122.208500       0.017178
     1122.334500       0.017592
     1122.460300       0.018017
     1122.586400       0.018454
     1122.712500       0.018903
     1122.838500       0.019364
     1122.964600       0.019838
     1123.090700       0.020325
     1123.216900       0.020825
     1123.343000       0.021339
     1123.469200       0.021867
     1123.595600       0.022410
     1123.721800       0.022969
     1123.848100       0.023543
     1123.974400       0.024133
     1124.100700       0.024739
     1124.227100       0.025363
     1124.353500       0.026005
     1124.480000       0.026665
     1124.606300       0.027343
     1124.732900       0.028041
     1124.859400       0.028759
     1124.986000       0.029498
     1125.112500       0.030258
     1125.239100       0.031040
     1125.365800       0.031845
     1125.492400       0.032673
     1125.619100       0.033525
     1125.745700       0.034402
     1125.872600       0.035305
     1125.999400       0.036234
     1126.126100       0.037190
     1126.253100       0.038175
     1126.379800       0.039189
     1126.506700       0.040233
     1126.633500       0.041309
     1126.760600       0.042416
     1126.887600       0.043556
     1127.014500       0.044731
     1127.141600       0.045940
     1127.268600       0.047187
     1127.395800       0.048470
     1127.522800       0.049793
     1127.650000       0.051156
     1127.777200       0.052560
     1127.904300       0.054007
     1128.031600       0.055497
     1128.158800       0.057034
     1128.286100       0.058617
     1128.413500       0.060249
     1128.540800       0.061931
     1128.668200       0.063665
     1128.795500       0.065452
     1128.923000       0.067294
     1129.050400       0.069193
     1129.178000       0.071151
     1129.305500       0.073170
     1129.433000       0.075251
     1129.560700       0.077397
     1129.688200       0.079609
     1129.815900       0.081890
     1129.943500       0.084242
     1130.071200       0.086667
     1130.199000       0.089167
     1130.326700       0.091746
     1130.454500       0.094404
     1130.582300       0.097145
     1130.710100       0.099971
     1130.837900       0.102884
     1130.965800       0.105889
     1131.093900       0.108986
     1131.221700       0.112179
     1131.349700       0.115471
     1131.477700       0.118864
     1131.605700       0.122362
     1131.733800       0.125967
     1131.861900       0.129683
     1131.990100       0.133512
     1132.118200       0.137458
     1132.246500       0.141524
     1132.374500       0.145713
     1132.502800       0.150029
     1132.631000       0.154473
     1132.759400       0.159051
     1132.887800       0.163764
     1133.016100       0.168617
     1133.144500       0.173613
     1133.272800       0.178754
     1133.401400       0.184044
     1133.529900       0.189487
     1133.658300       0.195085
     1133.786900       0.200841
     1133.915400       0.206758
     1134.044100       0.212840
     1134.172600       0.219089
     1134.301300       0.225508
     1134.430100       0.232099
     1134.558600       0.238865
     1134.687400       0.245807
     1134.816200       0.252929
     1134.944900       0.260231
     1135.073700       0.267716
     1135.202600       0.275385
     1135.331500       0.283238
     1135.460400       0.291277
     1135.589400       0.299502
     1135.718300       0.307913
     1135.847400       0.316509
     1135.976300       0.325291
     1136.105500       0.334257
     1136.234600       0.343405
     1136.363600       0.352734
     1136.492800       0.362241
     1136.621900       0.371923
     1136.751200       0.381777
     1136.880500       0.391799
     1137.009600       0.401984
     1137.139000       0.412327
     1137.268300       0.422823
     1137.397700       0.433465
     1137.527000       0.444247
     1137.656400       0.455161
     1137.785900       0.466200
     1137.915300       0.477354
     1138.044900       0.488616
     1138.174300       0.499975
     1138.304000       0.511421
     1138.433500       0.522944
     1138.563100       0.534533
     1138.692900       0.546177
     1138.822400       0.557863
     1138.952100       0.569579
     1139.081900       0.581313
     1139.211700       0.593052
     1139.341400       0.604783
     1139.471300       0.616492
     1139.601200       0.628167
     1139.731000       0.639793
     1139.861000       0.651358
     1139.990800       0.662848
     1140.120800       0.674250
     1140.250900       0.685550
     1140.380900       0.696736
     1140.511000       0.707795
     1140.641000       0.718714
     1140.771200       0.729483
     1140.901200       0.740089
     1141.031500       0.750521
     1141.161700       0.760769
     1141.292000       0.770824
     1141.422200       0.780675
     1141.552500       0.790314
     1141.682900       0.799734
     1141.813100       0.808927
     1141.943600       0.817886
     1142.074100       0.826607
     1142.204500       0.835083
     1142.335000       0.843311
     1142.465500       0.851287
     1142.595900       0.859009
     1142.726400       0.866473
     1142.857200       0.873680
     1142.987800       0.880629
     1143.118400       0.887319
     1143.249100       0.893751
     1143.379800       0.899928
     1143.510600       0.905850
     1143.641400       0.911520
     1143.772200       0.916943
     1143.903100       0.922120
     1144.033800       0.927057
     1144.164800       0.931758
     1144.295700       0.936227
     1144.426600       0.940471
     1144.557600       0.944495
     1144.688600       0.948304
     1144.819700       0.951904
     1144.950700       0.955303
     1145.081900       0.958507
     1145.213000       0.961521
     1145.344200       0.964354
     1145.475500       0.967011
     1145.606600       0.969501
     1145.737900       0.971828
     1145.869100       0.974001
     1146.000500       0.976026
     1146.131700       0.977910
     1146.263200       0.979660
     1146.394700       0.981282
     1146.526000       0.982783
     1146.657500       0.984170
     1146.788900       0.985447
     1146.920500       0.986622
     1147.052000       0.987701
     1147.183700       0.988689
     1147.315300       0.989591
     1147.446900       0.990414
     1147.578600       0.991162
     1147.710300       0.991841
     1147.842000       0.992455
     1147.973800       0.993009
     1148.105600       0.993508
     1148.237500       0.993955
     1148.369300       0.994355
     1148.501200       0.994711
     1148.633100       0.995028
     1148.765100       0.995309
     1148.897000       0.995557
     1149.029100       0.995775
     1149.161100       0.995966
     1149.293200       0.996134
     1149.425300       0.996279
     1149.557400       0.996407
     1149.689600       0.996517
     1149.821800       0.996613
     1149.954000       0.996697
     1150.086300       0.996770
     1150.218500       0.996834
     1150.350800       0.996890
     1150.483200       0.996941
     1150.615600       0.996987
     1150.748000       0.997030
     1150.880400       0.997070
     1151.012900       0.997109
     1151.145400       0.997148
     1151.278000       0.997187
     1151.410400       0.997227
     1151.543100       0.997268
     1151.675800       0.997312
     1151.808300       0.997358
     1151.941000       0.997407
     1152.073700       0.997459
     1152.206500       0.997514
     1152.339200       0.997573
     1152.472000       0.997635
     1152.605000       0.997701
     1152.737700       0.997770
     1152.870700       0.997843
     1153.003500       0.997919
     1153.136600       0.997998
     1153.269500       0.998080
     1153.402600       0.998164
     1153.535600       0.998251
     1153.668600       0.998340
     1153.801800       0.998431
     1153.934800       0.998523
     1154.068100       0.998615
     1154.201300       0.998709
     1154.334500       0.998802
     1154.467800       0.998895
     1154.601100       0.998988
     1154.734400       0.999079
     1154.867700       0.999168
     1155.001100       0.999256
     1155.134600       0.999340
     1155.267900       0.999422
     1155.401500       0.999500
     1155.535000       0.999574
     1155.668600       0.999644
     1155.802100       0.999708
     1155.935700       0.999767
     1156.069500       0.999821
     1156.203000       0.999868
     1156.336800       0.999909
     1156.470500       0.999943
     1156.604200       0.999969
     1156.737900       0.999987
     1156.871800       0.999998
     1157.005700       1.000000
     1157.139500       0.999993
     1157.273400       0.999978
     1157.407300       0.999953
     1157.541400       0.999919
     1157.675400       0.999876
     1157.809400       0.999822
     1157.943500       0.999759
     1158.077500       0.999686
     1158.211800       0.999602
     1158.345800       0.999508
     1158.480100       0.999404
     1158.614400       0.999290
     1158.748500       0.999165
     1158.882900       0.999031
     1159.017100       0.998886
     1159.151500       0.998731
     1159.285800       0.998566
     1159.420300       0.998392
     1159.554800       0.998208
     1159.689200       0.998014
     1159.823700       0.997812
     1159.958300       0.997601
     1160.092800       0.997381
     1160.227300       0.997153
     1160.362100       0.996917
     1160.496700       0.996673
     1160.631300       0.996422
     1160.766100       0.996165
     1160.900800       0.995901
     1161.035600       0.995632
     1161.170400       0.995357
     1161.305300       0.995077
     1161.440200       0.994793
     1161.575100       0.994505
     1161.710100       0.994213
     1161.845000       0.993919
     1161.980000       0.993622
     1162.115100       0.993324
     1162.250100       0.993025
     1162.385300       0.992725
     1162.520300       0.992426
     1162.655500       0.992127
     1162.790600       0.991829
     1162.925900       0.991533
     1163.061300       0.991240
     1163.196400       0.990950
     1163.331800       0.990663
     1163.467000       0.990380
     1163.602500       0.990103
     1163.737900       0.989830
     1163.873400       0.989563
     1164.008900       0.989303
     1164.144300       0.989049
     1164.279900       0.988803
     1164.415400       0.988564
     1164.551000       0.988334
     1164.686600       0.988112
     1164.822400       0.987899
     1164.958100       0.987695
     1165.093800       0.987500
     1165.229600       0.987315
     1165.365400       0.987140
     1165.501200       0.986974
     1165.637000       0.986819
     1165.772900       0.986674
     1165.908800       0.986538
     1166.044800       0.986413
     1166.180800       0.986296
     1166.316800       0.986190
     1166.452900       0.986092
     1166.589000       0.986002
     1166.725000       0.985921
     1166.861200       0.985847
     1166.997300       0.985779
     1167.133500       0.985717
     1167.269700       0.985661
     1167.406000       0.985608
     1167.542400       0.985557
     1167.678600       0.985508
     1167.815100       0.985459
     1167.951400       0.985408
     1168.087900       0.985354
     1168.224200       0.985295
     1168.360800       0.985229
     1168.497300       0.985153
     1168.633800       0.985066
     1168.770500       0.984964
     1168.907000       0.984845
     1169.043700       0.984707
     1169.180300       0.984546
     1169.317100       0.984359
     1169.453900       0.984143
     1169.590600       0.983893
     1169.727500       0.983607
     1169.864300       0.983279
     1170.001200       0.982906
     1170.138200       0.982483
     1170.275000       0.982006
     1170.412000       0.981470
     1170.549000       0.980869
     1170.686000       0.980198
     1170.823000       0.979451
     1170.960200       0.978623
     1171.097400       0.977707
     1171.234500       0.976698
     1171.371700       0.975588
     1171.508900       0.974372
     1171.646200       0.973042
     1171.783400       0.971591
     1171.920800       0.970013
     1172.058200       0.968299
     1172.195600       0.966442
     1172.333000       0.964436
     1172.470300       0.962271
     1172.607900       0.959941
     1172.745400       0.957437
     1172.882900       0.954751
     1173.020600       0.951877
     1173.158100       0.948806
     1173.295800       0.945530
     1173.433500       0.942042
     1173.571200       0.938335
     1173.708900       0.934401
     1173.846700       0.930233
     1173.984500       0.925825
     1174.122300       0.921171
     1174.260300       0.916264
     1174.398100       0.911099
     1174.536000       0.905670
     1174.674100       0.899974
     1174.812000       0.894006
     1174.950100       0.887763
     1175.088100       0.881242
     1175.226200       0.874441
     1175.364300       0.867358
     1175.502600       0.859994
     1175.640700       0.852348
     1175.778900       0.844422
     1175.917200       0.836217
     1176.055400       0.827736
     1176.193800       0.818983
     1176.332200       0.809963
     1176.470600       0.800680
     1176.609000       0.791142
     1176.747400       0.781355
     1176.886000       0.771327
     1177.024400       0.761068
     1177.163100       0.750586
     1177.301500       0.739894
     1177.440200       0.729001
     1177.579000       0.717920
     1177.717500       0.706664
     1177.856300       0.695244
     1177.995000       0.683676
     1178.133800       0.671973
     1178.272600       0.660150
     1178.411500       0.648222
