30,   30, MVIRI VIS channel from srf_MET7_2001123_2001124_1801-Release_S10EE_10.dat
Number of data points:
793
Wavenumber (cm-1)   Filter response
     8442.380800       0.000000
     8449.514200       0.000000
     8456.659600       0.000004
     8463.817200       0.000053
     8470.986900       0.000157
     8478.168700       0.000315
     8485.362700       0.000524
     8492.569000       0.000783
     8499.787500       0.001092
     8507.018300       0.001447
     8514.261400       0.001849
     8521.516800       0.002295
     8528.784600       0.002785
     8536.064900       0.003317
     8543.357500       0.003891
     8550.662700       0.004504
     8557.980300       0.005156
     8565.310500       0.005846
     8572.653200       0.006573
     8580.008600       0.007336
     8587.376600       0.008134
     8594.757200       0.008966
     8602.150500       0.009831
     8609.556600       0.010729
     8616.975400       0.011658
     8624.407100       0.012618
     8631.851500       0.013608
     8639.308900       0.014628
     8646.779100       0.015677
     8654.262200       0.016754
     8661.758300       0.017859
     8669.267400       0.018991
     8676.789600       0.020149
     8684.324800       0.021333
     8691.873100       0.022544
     8699.434500       0.023779
     8707.009100       0.025039
     8714.596900       0.026323
     8722.198000       0.027631
     8729.812300       0.028963
     8737.439900       0.030318
     8745.080900       0.031695
     8752.735200       0.033096
     8760.403000       0.034519
     8768.084200       0.035964
     8775.778900       0.037430
     8783.487000       0.038919
     8791.208800       0.040428
     8798.944100       0.041959
     8806.693100       0.043512
     8814.455700       0.045084
     8822.232000       0.046678
     8830.022100       0.048293
     8837.825900       0.049928
     8845.643500       0.051583
     8853.475000       0.053259
     8861.320300       0.054955
     8869.179600       0.056672
     8877.052800       0.058408
     8884.940000       0.060165
     8892.841300       0.061942
     8900.756600       0.063739
     8908.686000       0.065556
     8916.629500       0.067393
     8924.587200       0.069251
     8932.559200       0.071128
     8940.545400       0.073026
     8948.545900       0.074943
     8956.560700       0.076881
     8964.589900       0.078840
     8972.633500       0.080818
     8980.691500       0.082817
     8988.764000       0.084837
     8996.851100       0.086876
     9004.952700       0.088937
     9013.068900       0.091018
     9021.199800       0.093120
     9029.345400       0.095242
     9037.505600       0.097386
     9045.680700       0.099550
     9053.870500       0.101735
     9062.075200       0.103942
     9070.294800       0.106170
     9078.529300       0.108419
     9086.778700       0.110690
     9095.043200       0.112982
     9103.322700       0.115296
     9111.617300       0.117631
     9119.927000       0.119988
     9128.251900       0.122367
     9136.592100       0.124768
     9144.947400       0.127191
     9153.318100       0.129637
     9161.704100       0.132104
     9170.105500       0.134594
     9178.522300       0.137106
     9186.954500       0.139641
     9195.402300       0.142199
     9203.865600       0.144779
     9212.344500       0.147382
     9220.839100       0.150007
     9229.349300       0.152656
     9237.875300       0.155328
     9246.417000       0.158022
     9254.974500       0.160740
     9263.547900       0.163481
     9272.137200       0.166245
     9280.742500       0.169032
     9289.363700       0.171843
     9298.000900       0.174677
     9306.654300       0.177534
     9315.323700       0.180415
     9324.009300       0.183319
     9332.711200       0.186247
     9341.429200       0.189198
     9350.163600       0.192173
     9358.914400       0.195171
     9367.681500       0.198193
     9376.465100       0.201239
     9385.265100       0.204308
     9394.081700       0.207400
     9402.914900       0.210516
     9411.764700       0.213655
     9420.631200       0.216818
     9429.514400       0.220004
     9438.414300       0.223214
     9447.331100       0.226447
     9456.264800       0.229703
     9465.215300       0.232983
     9474.182900       0.236285
     9483.167400       0.239611
     9492.169000       0.242959
     9501.187600       0.246331
     9510.223500       0.249726
     9519.276500       0.253143
     9528.346800       0.256582
     9537.434400       0.260045
     9546.539400       0.263530
     9555.661700       0.267037
     9564.801500       0.270566
     9573.958800       0.274117
     9583.133700       0.277691
     9592.326100       0.281285
     9601.536200       0.284902
     9610.764100       0.288540
     9620.009600       0.292200
     9629.273000       0.295880
     9638.554200       0.299581
     9647.853400       0.303304
     9657.170400       0.307047
     9666.505600       0.310810
     9675.858700       0.314594
     9685.230000       0.318397
     9694.619500       0.322220
     9704.027200       0.326063
     9713.453100       0.329925
     9722.897400       0.333806
     9732.360100       0.337706
     9741.841200       0.341625
     9751.340800       0.345562
     9760.859000       0.349517
     9770.395700       0.353491
     9779.951100       0.357481
     9789.525200       0.361489
     9799.118100       0.365515
     9808.729800       0.369556
     9818.360300       0.373615
     9828.009800       0.377689
     9837.678300       0.381780
     9847.365800       0.385886
     9857.072400       0.390007
     9866.798200       0.394144
     9876.543200       0.398294
     9886.307500       0.402460
     9896.091000       0.406639
     9905.894000       0.410832
     9915.716400       0.415039
     9925.558300       0.419258
     9935.419800       0.423490
     9945.300800       0.427734
     9955.201600       0.431990
     9965.122100       0.436258
     9975.062300       0.440537
     9985.022500       0.444827
     9995.002500       0.449127
    10005.002500       0.453438
    10015.022500       0.457758
    10025.062700       0.462087
    10035.122900       0.466426
    10045.203400       0.470772
    10055.304200       0.475128
    10065.425300       0.479490
    10075.566800       0.483860
    10085.728700       0.488237
    10095.911200       0.492621
    10106.114200       0.497011
    10116.337900       0.501406
    10126.582300       0.505807
    10136.847400       0.510212
    10147.133400       0.514622
    10157.440300       0.519036
    10167.768200       0.523453
    10178.117000       0.527874
    10188.487000       0.532297
    10198.878100       0.536723
    10209.290500       0.541150
    10219.724100       0.545579
    10230.179000       0.550009
    10240.655400       0.554439
    10251.153300       0.558869
    10261.672700       0.563299
    10272.213700       0.567728
    10282.776300       0.572156
    10293.360800       0.576582
    10303.967000       0.581006
    10314.595200       0.585427
    10325.245200       0.589845
    10335.917300       0.594260
    10346.611500       0.598670
    10357.327800       0.603076
    10368.066400       0.607477
    10378.827200       0.611872
    10389.610400       0.616262
    10400.416000       0.620646
    10411.244100       0.625023
    10422.094800       0.629392
    10432.968200       0.633754
    10443.864200       0.638107
    10454.783100       0.642452
    10465.724800       0.646788
    10476.689400       0.651115
    10487.677000       0.655431
    10498.687700       0.659737
    10509.721500       0.664032
    10520.778500       0.668316
    10531.858900       0.672588
    10542.962600       0.676848
    10554.089700       0.681095
    10565.240400       0.685329
    10576.414600       0.689549
    10587.612500       0.693755
    10598.834100       0.697947
    10610.079600       0.702124
    10621.348900       0.706285
    10632.642200       0.710431
    10643.959600       0.714560
    10655.301000       0.718673
    10666.666700       0.722768
    10678.056600       0.726846
    10689.470900       0.730906
    10700.909600       0.734948
    10712.372800       0.738970
    10723.860600       0.742974
    10735.373100       0.746958
    10746.910300       0.750921
    10758.472300       0.754865
    10770.059200       0.758787
    10781.671200       0.762688
    10793.308100       0.766567
    10804.970300       0.770424
    10816.657700       0.774259
    10828.370300       0.778071
    10840.108400       0.781859
    10851.871900       0.785624
    10863.661100       0.789365
    10875.475800       0.793081
    10887.316300       0.796772
    10899.182600       0.800438
    10911.074700       0.804079
    10922.992900       0.807694
    10934.937100       0.811282
    10946.907500       0.814844
    10958.904100       0.818379
    10970.927000       0.821887
    10982.976400       0.825367
    10995.052200       0.828819
    11007.154700       0.832242
    11019.283700       0.835637
    11031.439600       0.839003
    11043.622300       0.842340
    11055.832000       0.845647
    11068.068600       0.848924
    11080.332400       0.852171
    11092.623400       0.855388
    11104.941700       0.858573
    11117.287400       0.861728
    11129.660500       0.864851
    11142.061300       0.867943
    11154.489700       0.871003
    11166.945800       0.874030
    11179.429800       0.877025
    11191.941800       0.879988
    11204.481800       0.882917
    11217.049900       0.885813
    11229.646300       0.888676
    11242.270900       0.891506
    11254.924000       0.894301
    11267.605600       0.897062
    11280.315800       0.899789
    11293.054800       0.902482
    11305.822500       0.905140
    11318.619100       0.907763
    11331.444800       0.910350
    11344.299500       0.912903
    11357.183400       0.915420
    11370.096600       0.917901
    11383.039300       0.920347
    11396.011400       0.922757
    11409.013100       0.925130
    11422.044500       0.927468
    11435.105800       0.929769
    11448.196900       0.932033
    11461.318100       0.934261
    11474.469300       0.936452
    11487.650800       0.938606
    11500.862600       0.940724
    11514.104800       0.942804
    11527.377500       0.944847
    11540.680900       0.946852
    11554.015000       0.948821
    11567.380000       0.950752
    11580.775900       0.952645
    11594.202900       0.954501
    11607.661100       0.956319
    11621.150500       0.958100
    11634.671300       0.959843
    11648.223600       0.961548
    11661.807600       0.963216
    11675.423200       0.964845
    11689.070700       0.966437
    11702.750100       0.967991
    11716.461600       0.969508
    11730.205300       0.970986
    11743.981200       0.972427
    11757.789500       0.973830
    11771.630400       0.975195
    11785.503800       0.976522
    11799.410000       0.977812
    11813.349100       0.979064
    11827.321100       0.980279
    11841.326200       0.981456
    11855.364600       0.982595
    11869.436200       0.983697
    11883.541300       0.984762
    11897.680000       0.985790
    11911.852300       0.986780
    11926.058400       0.987734
    11940.298500       0.988650
    11954.572600       0.989530
    11968.880900       0.990373
    11983.223500       0.991179
    11997.600500       0.991949
    12012.012000       0.992683
    12026.458200       0.993380
    12040.939200       0.994041
    12055.455100       0.994667
    12070.006000       0.995257
    12084.592100       0.995811
    12099.213600       0.996330
    12113.870400       0.996813
    12128.562800       0.997262
    12143.290800       0.997675
    12158.054700       0.998054
    12172.854500       0.998399
    12187.690400       0.998709
    12202.562500       0.998986
    12217.471000       0.999228
    12232.415900       0.999437
    12247.397400       0.999613
    12262.415700       0.999756
    12277.470800       0.999865
    12292.563000       0.999943
    12307.692300       0.999987
    12322.858900       1.000000
    12338.062900       0.999981
    12353.304500       0.999930
    12368.583800       0.999848
    12383.900900       0.999735
    12399.256000       0.999591
    12414.649300       0.999417
    12430.080800       0.999213
    12445.550700       0.998979
    12461.059200       0.998715
    12476.606400       0.998423
    12492.192400       0.998101
    12507.817400       0.997750
    12523.481500       0.997372
    12539.185000       0.996965
    12554.927800       0.996531
    12570.710200       0.996070
    12586.532400       0.995582
    12602.394500       0.995067
    12618.296500       0.994526
    12634.238800       0.993959
    12650.221400       0.993367
    12666.244500       0.992749
    12682.308200       0.992107
    12698.412700       0.991441
    12714.558200       0.990750
    12730.744700       0.990036
    12746.972600       0.989298
    12763.241900       0.988538
    12779.552700       0.987755
    12795.905300       0.986950
    12812.299800       0.986123
    12828.736400       0.985276
    12845.215200       0.984407
    12861.736300       0.983517
    12878.300100       0.982608
    12894.906500       0.981679
    12911.555800       0.980731
    12928.248200       0.979764
    12944.983800       0.978778
    12961.762800       0.977775
    12978.585300       0.976754
    12995.451600       0.975716
    13012.361700       0.974661
    13029.316000       0.973590
    13046.314400       0.972503
    13063.357300       0.971400
    13080.444700       0.970283
    13097.576900       0.969151
    13114.754100       0.968005
    13131.976400       0.966845
    13149.243900       0.965672
    13166.556900       0.964487
    13183.915600       0.963289
    13201.320100       0.962079
    13218.770700       0.960857
    13236.267400       0.959625
    13253.810500       0.958382
    13271.400100       0.957129
    13289.036500       0.955867
    13306.719900       0.954595
    13324.450400       0.953315
    13342.228200       0.952026
    13360.053400       0.950729
    13377.926400       0.949426
    13395.847300       0.948115
    13413.816200       0.946797
    13431.833400       0.945474
    13449.899100       0.944145
    13468.013500       0.942811
    13486.176700       0.941472
    13504.388900       0.940129
    13522.650400       0.938783
    13540.961400       0.937433
    13559.322000       0.936080
    13577.732500       0.934725
    13596.193100       0.933367
    13614.703900       0.932008
    13633.265200       0.930648
    13651.877100       0.929288
    13670.540000       0.927927
    13689.253900       0.926566
    13708.019200       0.925206
    13726.836000       0.923847
    13745.704500       0.922490
    13764.624900       0.921134
    13783.597500       0.919781
    13802.622500       0.918431
    13821.700100       0.917083
    13840.830400       0.915740
    13860.013900       0.914400
    13879.250500       0.913065
    13898.540700       0.911735
    13917.884500       0.910410
    13937.282200       0.909091
    13956.734100       0.907778
    13976.240400       0.906471
    13995.801300       0.905171
    14015.417000       0.903879
    14035.087700       0.902594
    14054.813800       0.901317
    14074.595400       0.900048
    14094.432700       0.898788
    14114.326000       0.897538
    14134.275600       0.896296
    14154.281700       0.895065
    14174.344400       0.893844
    14194.464200       0.892633
    14214.641100       0.891434
    14234.875400       0.890245
    14255.167500       0.889069
    14275.517500       0.887904
    14295.925700       0.886751
    14316.392300       0.885611
    14336.917600       0.884484
    14357.501800       0.883370
    14378.145200       0.882270
    14398.848100       0.881183
    14419.610700       0.880111
    14440.433200       0.879053
    14461.316000       0.878009
    14482.259200       0.876981
    14503.263200       0.875968
    14524.328200       0.874970
    14545.454500       0.873988
    14566.642400       0.873022
    14587.892000       0.872072
    14609.203800       0.871139
    14630.577900       0.870222
    14652.014700       0.869322
    14673.514300       0.868440
    14695.077100       0.867575
    14716.703500       0.866727
    14738.393500       0.865897
    14760.147600       0.865085
    14781.966000       0.864291
    14803.849000       0.863516
    14825.796900       0.862759
    14847.809900       0.862021
    14869.888500       0.861301
    14892.032800       0.860600
    14914.243100       0.859919
    14936.519800       0.859256
    14958.863100       0.858613
    14981.273400       0.857989
    15003.750900       0.857385
    15026.296000       0.856800
    15048.909000       0.856236
    15071.590100       0.855690
    15094.339600       0.855165
    15117.158000       0.854660
    15140.045400       0.854174
    15163.002300       0.853709
    15186.028900       0.853264
    15209.125500       0.852838
    15232.292500       0.852433
    15255.530100       0.852048
    15278.838800       0.851683
    15302.218800       0.851338
    15325.670500       0.851013
    15349.194200       0.850708
    15372.790200       0.850424
    15396.458800       0.850159
    15420.200500       0.849914
    15444.015400       0.849689
    15467.904100       0.849484
    15491.866800       0.849298
    15515.903800       0.849132
    15540.015500       0.848985
    15564.202300       0.848858
    15588.464500       0.848750
    15612.802500       0.848661
    15637.216600       0.848592
    15661.707100       0.848541
    15686.274500       0.848508
    15710.919100       0.848494
    15735.641200       0.848499
    15760.441300       0.848521
    15785.319700       0.848562
    15810.276700       0.848620
    15835.312700       0.848696
    15860.428200       0.848789
    15885.623500       0.848899
    15910.899000       0.849026
    15936.255000       0.849170
    15961.691900       0.849329
    15987.210200       0.849505
    16012.810200       0.849696
    16038.492400       0.849903
    16064.257000       0.850125
    16090.104600       0.850361
    16116.035500       0.850612
    16142.050000       0.850877
    16168.148700       0.851156
    16194.332000       0.851448
    16220.600200       0.851753
    16246.953700       0.852071
    16273.393000       0.852401
    16299.918500       0.852743
    16326.530600       0.853097
    16353.229800       0.853461
    16380.016400       0.853836
    16406.890900       0.854221
    16433.853700       0.854616
    16460.905300       0.855020
    16488.046200       0.855433
    16515.276600       0.855854
    16542.597200       0.856283
    16570.008300       0.856719
    16597.510400       0.857162
    16625.103900       0.857612
    16652.789300       0.858067
    16680.567100       0.858527
    16708.437800       0.858993
    16736.401700       0.859462
    16764.459300       0.859935
    16792.611300       0.860411
    16820.857900       0.860889
    16849.199700       0.861369
    16877.637100       0.861850
    16906.170800       0.862332
    16934.801000       0.862814
    16963.528400       0.863296
    16992.353400       0.863776
    17021.276600       0.864254
    17050.298400       0.864730
    17079.419300       0.865203
    17108.639900       0.865671
    17137.960600       0.866136
    17167.382000       0.866595
    17196.904600       0.867048
    17226.528900       0.867494
    17256.255400       0.867934
    17286.084700       0.868365
    17316.017300       0.868788
    17346.053800       0.869201
    17376.194600       0.869603
    17406.440400       0.869995
    17436.791600       0.870376
    17467.248900       0.870744
    17497.812800       0.871098
    17528.483800       0.871439
    17559.262500       0.871765
    17590.149500       0.872075
    17621.145400       0.872370
    17652.250700       0.872647
    17683.466000       0.872906
