27,   27, MVIRI VIS channel from srf_MET5_1994213_1994214_1801-Release_S10EL_10.dat
Number of data points:
806
Wavenumber (cm-1)   Filter response
     8350.730700       0.000000
     8357.710000       0.000000
     8364.701000       0.000000
     8371.703600       0.000001
     8378.718100       0.000004
     8385.744200       0.000009
     8392.782200       0.000016
     8399.832000       0.000026
     8406.893700       0.000040
     8413.967200       0.000058
     8421.052600       0.000081
     8428.150000       0.000109
     8435.259400       0.000142
     8442.380800       0.000181
     8449.514200       0.000226
     8456.659600       0.000278
     8463.817200       0.000337
     8470.986900       0.000404
     8478.168700       0.000479
     8485.362700       0.000561
     8492.569000       0.000652
     8499.787500       0.000753
     8507.018300       0.000862
     8514.261400       0.000980
     8521.516800       0.001109
     8528.784600       0.001247
     8536.064900       0.001396
     8543.357500       0.001556
     8550.662700       0.001726
     8557.980300       0.001907
     8565.310500       0.002100
     8572.653200       0.002304
     8580.008600       0.002520
     8587.376600       0.002748
     8594.757200       0.002988
     8602.150500       0.003241
     8609.556600       0.003506
     8616.975400       0.003785
     8624.407100       0.004076
     8631.851500       0.004380
     8639.308900       0.004698
     8646.779100       0.005029
     8654.262200       0.005374
     8661.758300       0.005733
     8669.267400       0.006106
     8676.789600       0.006494
     8684.324800       0.006895
     8691.873100       0.007311
     8699.434500       0.007742
     8707.009100       0.008188
     8714.596900       0.008648
     8722.198000       0.009124
     8729.812300       0.009615
     8737.439900       0.010121
     8745.080900       0.010643
     8752.735200       0.011180
     8760.403000       0.011733
     8768.084200       0.012302
     8775.778900       0.012887
     8783.487000       0.013489
     8791.208800       0.014106
     8798.944100       0.014740
     8806.693100       0.015390
     8814.455700       0.016057
     8822.232000       0.016740
     8830.022100       0.017440
     8837.825900       0.018158
     8845.643500       0.018892
     8853.475000       0.019643
     8861.320300       0.020412
     8869.179600       0.021198
     8877.052800       0.022002
     8884.940000       0.022823
     8892.841300       0.023661
     8900.756600       0.024518
     8908.686000       0.025393
     8916.629500       0.026285
     8924.587200       0.027196
     8932.559200       0.028125
     8940.545400       0.029072
     8948.545900       0.030038
     8956.560700       0.031022
     8964.589900       0.032025
     8972.633500       0.033046
     8980.691500       0.034087
     8988.764000       0.035146
     8996.851100       0.036224
     9004.952700       0.037322
     9013.068900       0.038439
     9021.199800       0.039575
     9029.345400       0.040731
     9037.505600       0.041906
     9045.680700       0.043101
     9053.870500       0.044315
     9062.075200       0.045550
     9070.294800       0.046804
     9078.529300       0.048078
     9086.778700       0.049373
     9095.043200       0.050688
     9103.322700       0.052023
     9111.617300       0.053379
     9119.927000       0.054755
     9128.251900       0.056151
     9136.592100       0.057569
     9144.947400       0.059007
     9153.318100       0.060466
     9161.704100       0.061946
     9170.105500       0.063448
     9178.522300       0.064970
     9186.954500       0.066514
     9195.402300       0.068079
     9203.865600       0.069665
     9212.344500       0.071273
     9220.839100       0.072903
     9229.349300       0.074554
     9237.875300       0.076227
     9246.417000       0.077922
     9254.974500       0.079639
     9263.547900       0.081377
     9272.137200       0.083138
     9280.742500       0.084921
     9289.363700       0.086727
     9298.000900       0.088554
     9306.654300       0.090404
     9315.323700       0.092277
     9324.009300       0.094172
     9332.711200       0.096090
     9341.429200       0.098030
     9350.163600       0.099993
     9358.914400       0.101979
     9367.681500       0.103987
     9376.465100       0.106019
     9385.265100       0.108073
     9394.081700       0.110151
     9402.914900       0.112251
     9411.764700       0.114375
     9420.631200       0.116521
     9429.514400       0.118691
     9438.414300       0.120884
     9447.331100       0.123101
     9456.264800       0.125340
     9465.215300       0.127604
     9474.182900       0.129890
     9483.167400       0.132200
     9492.169000       0.134533
     9501.187600       0.136890
     9510.223500       0.139270
     9519.276500       0.141673
     9528.346800       0.144100
     9537.434400       0.146551
     9546.539400       0.149025
     9555.661700       0.151522
     9564.801500       0.154043
     9573.958800       0.156588
     9583.133700       0.159156
     9592.326100       0.161748
     9601.536200       0.164363
     9610.764100       0.167001
     9620.009600       0.169663
     9629.273000       0.172349
     9638.554200       0.175057
     9647.853400       0.177790
     9657.170400       0.180545
     9666.505600       0.183324
     9675.858700       0.186126
     9685.230000       0.188951
     9694.619500       0.191800
     9704.027200       0.194672
     9713.453100       0.197566
     9722.897400       0.200484
     9732.360100       0.203425
     9741.841200       0.206388
     9751.340800       0.209375
     9760.859000       0.212384
     9770.395700       0.215416
     9779.951100       0.218470
     9789.525200       0.221547
     9799.118100       0.224647
     9808.729800       0.227768
     9818.360300       0.230912
     9828.009800       0.234078
     9837.678300       0.237266
     9847.365800       0.240476
     9857.072400       0.243707
     9866.798200       0.246961
     9876.543200       0.250235
     9886.307500       0.253532
     9896.091000       0.256850
     9905.894000       0.260188
     9915.716400       0.263548
     9925.558300       0.266928
     9935.419800       0.270330
     9945.300800       0.273752
     9955.201600       0.277194
     9965.122100       0.280657
     9975.062300       0.284140
     9985.022500       0.287643
     9995.002500       0.291165
    10005.002500       0.294707
    10015.022500       0.298269
    10025.062700       0.301849
    10035.122900       0.305449
    10045.203400       0.309067
    10055.304200       0.312705
    10065.425300       0.316360
    10075.566800       0.320034
    10085.728700       0.323726
    10095.911200       0.327436
    10106.114200       0.331163
    10116.337900       0.334908
    10126.582300       0.338670
    10136.847400       0.342448
    10147.133400       0.346244
    10157.440300       0.350056
    10167.768200       0.353884
    10178.117000       0.357728
    10188.487000       0.361587
    10198.878100       0.365463
    10209.290500       0.369353
    10219.724100       0.373258
    10230.179000       0.377178
    10240.655400       0.381113
    10251.153300       0.385061
    10261.672700       0.389024
    10272.213700       0.393000
    10282.776300       0.396989
    10293.360800       0.400991
    10303.967000       0.405006
    10314.595200       0.409034
    10325.245200       0.413073
    10335.917300       0.417125
    10346.611500       0.421188
    10357.327800       0.425262
    10368.066400       0.429347
    10378.827200       0.433442
    10389.610400       0.437548
    10400.416000       0.441664
    10411.244100       0.445790
    10422.094800       0.449924
    10432.968200       0.454068
    10443.864200       0.458220
    10454.783100       0.462381
    10465.724800       0.466550
    10476.689400       0.470726
    10487.677000       0.474910
    10498.687700       0.479100
    10509.721500       0.483297
    10520.778500       0.487500
    10531.858900       0.491709
    10542.962600       0.495924
    10554.089700       0.500144
    10565.240400       0.504368
    10576.414600       0.508597
    10587.612500       0.512830
    10598.834100       0.517067
    10610.079600       0.521308
    10621.348900       0.525551
    10632.642200       0.529796
    10643.959600       0.534044
    10655.301000       0.538294
    10666.666700       0.542545
    10678.056600       0.546797
    10689.470900       0.551050
    10700.909600       0.555304
    10712.372800       0.559557
    10723.860600       0.563810
    10735.373100       0.568061
    10746.910300       0.572312
    10758.472300       0.576561
    10770.059200       0.580808
    10781.671200       0.585053
    10793.308100       0.589294
    10804.970300       0.593533
    10816.657700       0.597768
    10828.370300       0.601998
    10840.108400       0.606225
    10851.871900       0.610447
    10863.661100       0.614663
    10875.475800       0.618874
    10887.316300       0.623079
    10899.182600       0.627277
    10911.074700       0.631469
    10922.992900       0.635654
    10934.937100       0.639831
    10946.907500       0.643999
    10958.904100       0.648160
    10970.927000       0.652312
    10982.976400       0.656454
    10995.052200       0.660587
    11007.154700       0.664710
    11019.283700       0.668823
    11031.439600       0.672925
    11043.622300       0.677015
    11055.832000       0.681094
    11068.068600       0.685161
    11080.332400       0.689216
    11092.623400       0.693258
    11104.941700       0.697287
    11117.287400       0.701302
    11129.660500       0.705303
    11142.061300       0.709290
    11154.489700       0.713263
    11166.945800       0.717220
    11179.429800       0.721161
    11191.941800       0.725087
    11204.481800       0.728997
    11217.049900       0.732890
    11229.646300       0.736766
    11242.270900       0.740625
    11254.924000       0.744466
    11267.605600       0.748288
    11280.315800       0.752093
    11293.054800       0.755878
    11305.822500       0.759644
    11318.619100       0.763391
    11331.444800       0.767118
    11344.299500       0.770824
    11357.183400       0.774510
    11370.096600       0.778175
    11383.039300       0.781818
    11396.011400       0.785440
    11409.013100       0.789040
    11422.044500       0.792617
    11435.105800       0.796172
    11448.196900       0.799703
    11461.318100       0.803211
    11474.469300       0.806696
    11487.650800       0.810156
    11500.862600       0.813593
    11514.104800       0.817004
    11527.377500       0.820390
    11540.680900       0.823751
    11554.015000       0.827087
    11567.380000       0.830397
    11580.775900       0.833680
    11594.202900       0.836937
    11607.661100       0.840167
    11621.150500       0.843370
    11634.671300       0.846546
    11648.223600       0.849694
    11661.807600       0.852814
    11675.423200       0.855906
    11689.070700       0.858970
    11702.750100       0.862005
    11716.461600       0.865011
    11730.205300       0.867987
    11743.981200       0.870935
    11757.789500       0.873852
    11771.630400       0.876740
    11785.503800       0.879597
    11799.410000       0.882424
    11813.349100       0.885220
    11827.321100       0.887986
    11841.326200       0.890720
    11855.364600       0.893423
    11869.436200       0.896095
    11883.541300       0.898735
    11897.680000       0.901343
    11911.852300       0.903919
    11926.058400       0.906462
    11940.298500       0.908974
    11954.572600       0.911452
    11968.880900       0.913898
    11983.223500       0.916311
    11997.600500       0.918691
    12012.012000       0.921038
    12026.458200       0.923351
    12040.939200       0.925631
    12055.455100       0.927877
    12070.006000       0.930089
    12084.592100       0.932268
    12099.213600       0.934412
    12113.870400       0.936522
    12128.562800       0.938598
    12143.290800       0.940640
    12158.054700       0.942647
    12172.854500       0.944619
    12187.690400       0.946557
    12202.562500       0.948460
    12217.471000       0.950329
    12232.415900       0.952162
    12247.397400       0.953961
    12262.415700       0.955725
    12277.470800       0.957454
    12292.563000       0.959147
    12307.692300       0.960806
    12322.858900       0.962430
    12338.062900       0.964018
    12353.304500       0.965571
    12368.583800       0.967089
    12383.900900       0.968572
    12399.256000       0.970020
    12414.649300       0.971433
    12430.080800       0.972810
    12445.550700       0.974153
    12461.059200       0.975460
    12476.606400       0.976732
    12492.192400       0.977969
    12507.817400       0.979171
    12523.481500       0.980338
    12539.185000       0.981471
    12554.927800       0.982568
    12570.710200       0.983631
    12586.532400       0.984659
    12602.394500       0.985652
    12618.296500       0.986611
    12634.238800       0.987536
    12650.221400       0.988426
    12666.244500       0.989282
    12682.308200       0.990104
    12698.412700       0.990891
    12714.558200       0.991645
    12730.744700       0.992365
    12746.972600       0.993052
    12763.241900       0.993705
    12779.552700       0.994325
    12795.905300       0.994911
    12812.299800       0.995465
    12828.736400       0.995985
    12845.215200       0.996473
    12861.736300       0.996929
    12878.300100       0.997352
    12894.906500       0.997743
    12911.555800       0.998102
    12928.248200       0.998429
    12944.983800       0.998724
    12961.762800       0.998989
    12978.585300       0.999222
    12995.451600       0.999424
    13012.361700       0.999595
    13029.316000       0.999736
    13046.314400       0.999847
    13063.357300       0.999928
    13080.444700       0.999979
    13097.576900       1.000000
    13114.754100       0.999992
    13131.976400       0.999955
    13149.243900       0.999890
    13166.556900       0.999796
    13183.915600       0.999674
    13201.320100       0.999523
    13218.770700       0.999346
    13236.267400       0.999141
    13253.810500       0.998908
    13271.400100       0.998649
    13289.036500       0.998364
    13306.719900       0.998053
    13324.450400       0.997715
    13342.228200       0.997353
    13360.053400       0.996965
    13377.926400       0.996552
    13395.847300       0.996114
    13413.816200       0.995653
    13431.833400       0.995167
    13449.899100       0.994658
    13468.013500       0.994126
    13486.176700       0.993571
    13504.388900       0.992993
    13522.650400       0.992394
    13540.961400       0.991772
    13559.322000       0.991129
    13577.732500       0.990465
    13596.193100       0.989781
    13614.703900       0.989076
    13633.265200       0.988351
    13651.877100       0.987606
    13670.540000       0.986843
    13689.253900       0.986060
    13708.019200       0.985259
    13726.836000       0.984440
    13745.704500       0.983604
    13764.624900       0.982750
    13783.597500       0.981879
    13802.622500       0.980992
    13821.700100       0.980089
    13840.830400       0.979170
    13860.013900       0.978236
    13879.250500       0.977287
    13898.540700       0.976324
    13917.884500       0.975346
    13937.282200       0.974355
    13956.734100       0.973351
    13976.240400       0.972333
    13995.801300       0.971304
    14015.417000       0.970262
    14035.087700       0.969209
    14054.813800       0.968145
    14074.595400       0.967070
    14094.432700       0.965985
    14114.326000       0.964889
    14134.275600       0.963785
    14154.281700       0.962671
    14174.344400       0.961548
    14194.464200       0.960418
    14214.641100       0.959279
    14234.875400       0.958133
    14255.167500       0.956981
    14275.517500       0.955821
    14295.925700       0.954656
    14316.392300       0.953484
    14336.917600       0.952308
    14357.501800       0.951126
    14378.145200       0.949941
    14398.848100       0.948751
    14419.610700       0.947557
    14440.433200       0.946360
    14461.316000       0.945160
    14482.259200       0.943958
    14503.263200       0.942754
    14524.328200       0.941548
    14545.454500       0.940342
    14566.642400       0.939134
    14587.892000       0.937926
    14609.203800       0.936717
    14630.577900       0.935510
    14652.014700       0.934303
    14673.514300       0.933097
    14695.077100       0.931893
    14716.703500       0.930690
    14738.393500       0.929490
    14760.147600       0.928293
    14781.966000       0.927099
    14803.849000       0.925908
    14825.796900       0.924721
    14847.809900       0.923538
    14869.888500       0.922360
    14892.032800       0.921186
    14914.243100       0.920018
    14936.519800       0.918855
    14958.863100       0.917699
    14981.273400       0.916548
    15003.750900       0.915404
    15026.296000       0.914267
    15048.909000       0.913138
    15071.590100       0.912016
    15094.339600       0.910902
    15117.158000       0.909796
    15140.045400       0.908698
    15163.002300       0.907610
    15186.028900       0.906530
    15209.125500       0.905460
    15232.292500       0.904400
    15255.530100       0.903349
    15278.838800       0.902309
    15302.218800       0.901279
    15325.670500       0.900260
    15349.194200       0.899252
    15372.790200       0.898256
    15396.458800       0.897270
    15420.200500       0.896297
    15444.015400       0.895336
    15467.904100       0.894386
    15491.866800       0.893449
    15515.903800       0.892525
    15540.015500       0.891614
    15564.202300       0.890715
    15588.464500       0.889830
    15612.802500       0.888959
    15637.216600       0.888100
    15661.707100       0.887256
    15686.274500       0.886425
    15710.919100       0.885609
    15735.641200       0.884806
    15760.441300       0.884018
    15785.319700       0.883244
    15810.276700       0.882485
    15835.312700       0.881741
    15860.428200       0.881011
    15885.623500       0.880296
    15910.899000       0.879596
    15936.255000       0.878911
    15961.691900       0.878241
    15987.210200       0.877586
    16012.810200       0.876946
    16038.492400       0.876322
    16064.257000       0.875713
    16090.104600       0.875119
    16116.035500       0.874540
    16142.050000       0.873977
    16168.148700       0.873429
    16194.332000       0.872896
    16220.600200       0.872378
    16246.953700       0.871876
    16273.393000       0.871389
    16299.918500       0.870916
    16326.530600       0.870459
    16353.229800       0.870017
    16380.016400       0.869590
    16406.890900       0.869177
    16433.853700       0.868779
    16460.905300       0.868396
    16488.046200       0.868027
    16515.276600       0.867673
    16542.597200       0.867332
    16570.008300       0.867006
    16597.510400       0.866693
    16625.103900       0.866394
    16652.789300       0.866109
    16680.567100       0.865837
    16708.437800       0.865578
    16736.401700       0.865331
    16764.459300       0.865098
    16792.611300       0.864877
    16820.857900       0.864667
    16849.199700       0.864470
    16877.637100       0.864285
    16906.170800       0.864110
    16934.801000       0.863947
    16963.528400       0.863794
    16992.353400       0.863652
    17021.276600       0.863520
    17050.298400       0.863398
    17079.419300       0.863285
    17108.639900       0.863181
    17137.960600       0.863086
    17167.382000       0.862999
    17196.904600       0.862920
    17226.528900       0.862849
    17256.255400       0.862784
    17286.084700       0.862727
