37,   37, MVIRI VIS channel from srf_MET5_1995303_1995304_1801-Release_S10EL_10.dat
Number of data points:
806
Wavenumber (cm-1)   Filter response
     8350.730700       0.000000
     8357.710000       0.000000
     8364.701000       0.000000
     8371.703600       0.000002
     8378.718100       0.000004
     8385.744200       0.000009
     8392.782200       0.000016
     8399.832000       0.000027
     8406.893700       0.000041
     8413.967200       0.000059
     8421.052600       0.000081
     8428.150000       0.000109
     8435.259400       0.000143
     8442.380800       0.000182
     8449.514200       0.000228
     8456.659600       0.000280
     8463.817200       0.000340
     8470.986900       0.000407
     8478.168700       0.000482
     8485.362700       0.000565
     8492.569000       0.000657
     8499.787500       0.000757
     8507.018300       0.000867
     8514.261400       0.000987
     8521.516800       0.001116
     8528.784600       0.001255
     8536.064900       0.001405
     8543.357500       0.001565
     8550.662700       0.001737
     8557.980300       0.001919
     8565.310500       0.002113
     8572.653200       0.002318
     8580.008600       0.002536
     8587.376600       0.002765
     8594.757200       0.003007
     8602.150500       0.003261
     8609.556600       0.003528
     8616.975400       0.003808
     8624.407100       0.004101
     8631.851500       0.004407
     8639.308900       0.004727
     8646.779100       0.005060
     8654.262200       0.005407
     8661.758300       0.005768
     8669.267400       0.006144
     8676.789600       0.006533
     8684.324800       0.006937
     8691.873100       0.007356
     8699.434500       0.007789
     8707.009100       0.008237
     8714.596900       0.008700
     8722.198000       0.009179
     8729.812300       0.009673
     8737.439900       0.010182
     8745.080900       0.010707
     8752.735200       0.011247
     8760.403000       0.011803
     8768.084200       0.012375
     8775.778900       0.012964
     8783.487000       0.013568
     8791.208800       0.014189
     8798.944100       0.014826
     8806.693100       0.015480
     8814.455700       0.016151
     8822.232000       0.016838
     8830.022100       0.017542
     8837.825900       0.018264
     8845.643500       0.019002
     8853.475000       0.019758
     8861.320300       0.020531
     8869.179600       0.021321
     8877.052800       0.022129
     8884.940000       0.022954
     8892.841300       0.023798
     8900.756600       0.024659
     8908.686000       0.025538
     8916.629500       0.026436
     8924.587200       0.027351
     8932.559200       0.028285
     8940.545400       0.029238
     8948.545900       0.030208
     8956.560700       0.031198
     8964.589900       0.032206
     8972.633500       0.033233
     8980.691500       0.034279
     8988.764000       0.035344
     8996.851100       0.036428
     9004.952700       0.037531
     9013.068900       0.038654
     9021.199800       0.039796
     9029.345400       0.040958
     9037.505600       0.042139
     9045.680700       0.043340
     9053.870500       0.044561
     9062.075200       0.045801
     9070.294800       0.047062
     9078.529300       0.048343
     9086.778700       0.049644
     9095.043200       0.050966
     9103.322700       0.052307
     9111.617300       0.053670
     9119.927000       0.055053
     9128.251900       0.056456
     9136.592100       0.057881
     9144.947400       0.059326
     9153.318100       0.060792
     9161.704100       0.062280
     9170.105500       0.063788
     9178.522300       0.065318
     9186.954500       0.066869
     9195.402300       0.068442
     9203.865600       0.070036
     9212.344500       0.071652
     9220.839100       0.073289
     9229.349300       0.074948
     9237.875300       0.076629
     9246.417000       0.078332
     9254.974500       0.080057
     9263.547900       0.081804
     9272.137200       0.083573
     9280.742500       0.085364
     9289.363700       0.087178
     9298.000900       0.089014
     9306.654300       0.090873
     9315.323700       0.092754
     9324.009300       0.094658
     9332.711200       0.096584
     9341.429200       0.098533
     9350.163600       0.100505
     9358.914400       0.102499
     9367.681500       0.104517
     9376.465100       0.106558
     9385.265100       0.108621
     9394.081700       0.110708
     9402.914900       0.112817
     9411.764700       0.114950
     9420.631200       0.117107
     9429.514400       0.119286
     9438.414300       0.121488
     9447.331100       0.123714
     9456.264800       0.125964
     9465.215300       0.128236
     9474.182900       0.130532
     9483.167400       0.132852
     9492.169000       0.135195
     9501.187600       0.137561
     9510.223500       0.139951
     9519.276500       0.142365
     9528.346800       0.144802
     9537.434400       0.147263
     9546.539400       0.149747
     9555.661700       0.152255
     9564.801500       0.154786
     9573.958800       0.157341
     9583.133700       0.159919
     9592.326100       0.162521
     9601.536200       0.165146
     9610.764100       0.167795
     9620.009600       0.170468
     9629.273000       0.173164
     9638.554200       0.175883
     9647.853400       0.178626
     9657.170400       0.181392
     9666.505600       0.184181
     9675.858700       0.186994
     9685.230000       0.189830
     9694.619500       0.192689
     9704.027200       0.195571
     9713.453100       0.198477
     9722.897400       0.201406
     9732.360100       0.204357
     9741.841200       0.207332
     9751.340800       0.210329
     9760.859000       0.213349
     9770.395700       0.216392
     9779.951100       0.219457
     9789.525200       0.222545
     9799.118100       0.225655
     9808.729800       0.228787
     9818.360300       0.231942
     9828.009800       0.235119
     9837.678300       0.238318
     9847.365800       0.241539
     9857.072400       0.244781
     9866.798200       0.248046
     9876.543200       0.251331
     9886.307500       0.254639
     9896.091000       0.257968
     9905.894000       0.261317
     9915.716400       0.264688
     9925.558300       0.268079
     9935.419800       0.271492
     9945.300800       0.274925
     9955.201600       0.278378
     9965.122100       0.281851
     9975.062300       0.285345
     9985.022500       0.288859
     9995.002500       0.292392
    10005.002500       0.295945
    10015.022500       0.299517
    10025.062700       0.303108
    10035.122900       0.306719
    10045.203400       0.310348
    10055.304200       0.313996
    10065.425300       0.317662
    10075.566800       0.321346
    10085.728700       0.325049
    10095.911200       0.328769
    10106.114200       0.332507
    10116.337900       0.336262
    10126.582300       0.340034
    10136.847400       0.343823
    10147.133400       0.347629
    10157.440300       0.351451
    10167.768200       0.355289
    10178.117000       0.359143
    10188.487000       0.363013
    10198.878100       0.366898
    10209.290500       0.370798
    10219.724100       0.374713
    10230.179000       0.378643
    10240.655400       0.382587
    10251.153300       0.386546
    10261.672700       0.390517
    10272.213700       0.394503
    10282.776300       0.398501
    10293.360800       0.402513
    10303.967000       0.406537
    10314.595200       0.410574
    10325.245200       0.414622
    10335.917300       0.418683
    10346.611500       0.422755
    10357.327800       0.426838
    10368.066400       0.430931
    10378.827200       0.435035
    10389.610400       0.439150
    10400.416000       0.443274
    10411.244100       0.447408
    10422.094800       0.451551
    10432.968200       0.455702
    10443.864200       0.459863
    10454.783100       0.464031
    10465.724800       0.468208
    10476.689400       0.472391
    10487.677000       0.476583
    10498.687700       0.480780
    10509.721500       0.484985
    10520.778500       0.489195
    10531.858900       0.493411
    10542.962600       0.497633
    10554.089700       0.501859
    10565.240400       0.506091
    10576.414600       0.510326
    10587.612500       0.514566
    10598.834100       0.518809
    10610.079600       0.523055
    10621.348900       0.527304
    10632.642200       0.531556
    10643.959600       0.535809
    10655.301000       0.540065
    10666.666700       0.544321
    10678.056600       0.548579
    10689.470900       0.552837
    10700.909600       0.557095
    10712.372800       0.561353
    10723.860600       0.565610
    10735.373100       0.569867
    10746.910300       0.574122
    10758.472300       0.578375
    10770.059200       0.582626
    10781.671200       0.586874
    10793.308100       0.591119
    10804.970300       0.595362
    10816.657700       0.599600
    10828.370300       0.603834
    10840.108400       0.608063
    10851.871900       0.612288
    10863.661100       0.616507
    10875.475800       0.620720
    10887.316300       0.624927
    10899.182600       0.629128
    10911.074700       0.633322
    10922.992900       0.637508
    10934.937100       0.641686
    10946.907500       0.645857
    10958.904100       0.650018
    10970.927000       0.654171
    10982.976400       0.658315
    10995.052200       0.662448
    11007.154700       0.666572
    11019.283700       0.670685
    11031.439600       0.674787
    11043.622300       0.678877
    11055.832000       0.682956
    11068.068600       0.687022
    11080.332400       0.691077
    11092.623400       0.695118
    11104.941700       0.699145
    11117.287400       0.703159
    11129.660500       0.707159
    11142.061300       0.711145
    11154.489700       0.715115
    11166.945800       0.719070
    11179.429800       0.723010
    11191.941800       0.726933
    11204.481800       0.730840
    11217.049900       0.734731
    11229.646300       0.738603
    11242.270900       0.742459
    11254.924000       0.746296
    11267.605600       0.750116
    11280.315800       0.753916
    11293.054800       0.757697
    11305.822500       0.761459
    11318.619100       0.765202
    11331.444800       0.768924
    11344.299500       0.772625
    11357.183400       0.776306
    11370.096600       0.779966
    11383.039300       0.783604
    11396.011400       0.787220
    11409.013100       0.790813
    11422.044500       0.794385
    11435.105800       0.797933
    11448.196900       0.801458
    11461.318100       0.804959
    11474.469300       0.808437
    11487.650800       0.811890
    11500.862600       0.815319
    11514.104800       0.818723
    11527.377500       0.822102
    11540.680900       0.825455
    11554.015000       0.828782
    11567.380000       0.832084
    11580.775900       0.835359
    11594.202900       0.838607
    11607.661100       0.841828
    11621.150500       0.845022
    11634.671300       0.848188
    11648.223600       0.851327
    11661.807600       0.854437
    11675.423200       0.857519
    11689.070700       0.860573
    11702.750100       0.863597
    11716.461600       0.866593
    11730.205300       0.869558
    11743.981200       0.872495
    11757.789500       0.875401
    11771.630400       0.878277
    11785.503800       0.881123
    11799.410000       0.883938
    11813.349100       0.886723
    11827.321100       0.889476
    11841.326200       0.892198
    11855.364600       0.894889
    11869.436200       0.897548
    11883.541300       0.900175
    11897.680000       0.902770
    11911.852300       0.905333
    11926.058400       0.907863
    11940.298500       0.910361
    11954.572600       0.912826
    11968.880900       0.915258
    11983.223500       0.917657
    11997.600500       0.920022
    12012.012000       0.922355
    12026.458200       0.924653
    12040.939200       0.926918
    12055.455100       0.929149
    12070.006000       0.931347
    12084.592100       0.933510
    12099.213600       0.935638
    12113.870400       0.937733
    12128.562800       0.939793
    12143.290800       0.941819
    12158.054700       0.943810
    12172.854500       0.945766
    12187.690400       0.947688
    12202.562500       0.949574
    12217.471000       0.951426
    12232.415900       0.953243
    12247.397400       0.955025
    12262.415700       0.956771
    12277.470800       0.958483
    12292.563000       0.960159
    12307.692300       0.961800
    12322.858900       0.963406
    12338.062900       0.964976
    12353.304500       0.966512
    12368.583800       0.968012
    12383.900900       0.969476
    12399.256000       0.970906
    12414.649300       0.972300
    12430.080800       0.973659
    12445.550700       0.974982
    12461.059200       0.976270
    12476.606400       0.977524
    12492.192400       0.978742
    12507.817400       0.979924
    12523.481500       0.981072
    12539.185000       0.982185
    12554.927800       0.983263
    12570.710200       0.984306
    12586.532400       0.985314
    12602.394500       0.986288
    12618.296500       0.987227
    12634.238800       0.988131
    12650.221400       0.989001
    12666.244500       0.989836
    12682.308200       0.990638
    12698.412700       0.991405
    12714.558200       0.992138
    12730.744700       0.992838
    12746.972600       0.993504
    12763.241900       0.994136
    12779.552700       0.994735
    12795.905300       0.995300
    12812.299800       0.995833
    12828.736400       0.996332
    12845.215200       0.996799
    12861.736300       0.997233
    12878.300100       0.997635
    12894.906500       0.998004
    12911.555800       0.998341
    12928.248200       0.998647
    12944.983800       0.998921
    12961.762800       0.999163
    12978.585300       0.999375
    12995.451600       0.999555
    13012.361700       0.999705
    13029.316000       0.999824
    13046.314400       0.999912
    13063.357300       0.999971
    13080.444700       1.000000
    13097.576900       0.999999
    13114.754100       0.999969
    13131.976400       0.999910
    13149.243900       0.999822
    13166.556900       0.999706
    13183.915600       0.999562
    13201.320100       0.999389
    13218.770700       0.999189
    13236.267400       0.998962
    13253.810500       0.998707
    13271.400100       0.998426
    13289.036500       0.998118
    13306.719900       0.997784
    13324.450400       0.997424
    13342.228200       0.997039
    13360.053400       0.996628
    13377.926400       0.996193
    13395.847300       0.995733
    13413.816200       0.995248
    13431.833400       0.994740
    13449.899100       0.994209
    13468.013500       0.993654
    13486.176700       0.993076
    13504.388900       0.992476
    13522.650400       0.991854
    13540.961400       0.991209
    13559.322000       0.990544
    13577.732500       0.989857
    13596.193100       0.989150
    13614.703900       0.988422
    13633.265200       0.987675
    13651.877100       0.986908
    13670.540000       0.986121
    13689.253900       0.985316
    13708.019200       0.984493
    13726.836000       0.983651
    13745.704500       0.982792
    13764.624900       0.981915
    13783.597500       0.981022
    13802.622500       0.980112
    13821.700100       0.979187
    13840.830400       0.978245
    13860.013900       0.977288
    13879.250500       0.976317
    13898.540700       0.975331
    13917.884500       0.974331
    13937.282200       0.973317
    13956.734100       0.972290
    13976.240400       0.971251
    13995.801300       0.970199
    14015.417000       0.969135
    14035.087700       0.968059
    14054.813800       0.966973
    14074.595400       0.965875
    14094.432700       0.964768
    14114.326000       0.963650
    14134.275600       0.962523
    14154.281700       0.961387
    14174.344400       0.960242
    14194.464200       0.959089
    14214.641100       0.957929
    14234.875400       0.956760
    14255.167500       0.955585
    14275.517500       0.954404
    14295.925700       0.953216
    14316.392300       0.952023
    14336.917600       0.950824
    14357.501800       0.949621
    14378.145200       0.948413
    14398.848100       0.947201
    14419.610700       0.945985
    14440.433200       0.944766
    14461.316000       0.943545
    14482.259200       0.942321
    14503.263200       0.941095
    14524.328200       0.939867
    14545.454500       0.938638
    14566.642400       0.937409
    14587.892000       0.936179
    14609.203800       0.934949
    14630.577900       0.933719
    14652.014700       0.932490
    14673.514300       0.931263
    14695.077100       0.930036
    14716.703500       0.928812
    14738.393500       0.927591
    14760.147600       0.926372
    14781.966000       0.925156
    14803.849000       0.923943
    14825.796900       0.922734
    14847.809900       0.921530
    14869.888500       0.920330
    14892.032800       0.919134
    14914.243100       0.917944
    14936.519800       0.916760
    14958.863100       0.915582
    14981.273400       0.914410
    15003.750900       0.913244
    15026.296000       0.912085
    15048.909000       0.910934
    15071.590100       0.909790
    15094.339600       0.908654
    15117.158000       0.907527
    15140.045400       0.906408
    15163.002300       0.905297
    15186.028900       0.904196
    15209.125500       0.903104
    15232.292500       0.902022
    15255.530100       0.900950
    15278.838800       0.899888
    15302.218800       0.898836
    15325.670500       0.897795
    15349.194200       0.896765
    15372.790200       0.895747
    15396.458800       0.894740
    15420.200500       0.893744
    15444.015400       0.892761
    15467.904100       0.891790
    15491.866800       0.890831
    15515.903800       0.889884
    15540.015500       0.888951
    15564.202300       0.888030
    15588.464500       0.887123
    15612.802500       0.886229
    15637.216600       0.885349
    15661.707100       0.884482
    15686.274500       0.883629
    15710.919100       0.882790
    15735.641200       0.881965
    15760.441300       0.881154
    15785.319700       0.880358
    15810.276700       0.879576
    15835.312700       0.878809
    15860.428200       0.878057
    15885.623500       0.877319
    15910.899000       0.876596
    15936.255000       0.875888
    15961.691900       0.875195
    15987.210200       0.874518
    16012.810200       0.873855
    16038.492400       0.873207
    16064.257000       0.872575
    16090.104600       0.871958
    16116.035500       0.871356
    16142.050000       0.870769
    16168.148700       0.870197
    16194.332000       0.869641
    16220.600200       0.869100
    16246.953700       0.868574
    16273.393000       0.868063
    16299.918500       0.867567
    16326.530600       0.867085
    16353.229800       0.866619
    16380.016400       0.866168
    16406.890900       0.865731
    16433.853700       0.865309
    16460.905300       0.864901
    16488.046200       0.864508
    16515.276600       0.864129
    16542.597200       0.863764
    16570.008300       0.863413
    16597.510400       0.863075
    16625.103900       0.862752
    16652.789300       0.862441
    16680.567100       0.862144
    16708.437800       0.861860
    16736.401700       0.861588
    16764.459300       0.861329
    16792.611300       0.861083
    16820.857900       0.860848
    16849.199700       0.860625
    16877.637100       0.860414
    16906.170800       0.860214
    16934.801000       0.860025
    16963.528400       0.859846
    16992.353400       0.859678
    17021.276600       0.859520
    17050.298400       0.859371
    17079.419300       0.859232
    17108.639900       0.859102
    17137.960600       0.858980
    17167.382000       0.858867
    17196.904600       0.858761
    17226.528900       0.858663
    17256.255400       0.858572
    17286.084700       0.858487
