   9  ,noaa_11_hirs_09.flt
Number of data points:
101
Wavenumber (cm-1)   Filter response
      969.440000       0.000000
      970.630000       0.002782
      971.820000       0.002796
      973.000000       0.002809
      974.190000       0.002823
      975.380000       0.002838
      976.570000       0.002858
      977.750000       0.002878
      978.940000       0.002898
      980.130000       0.002918
      981.320000       0.002938
      982.510000       0.002958
      983.700000       0.002971
      984.890000       0.002989
      986.080000       0.003006
      987.270000       0.003024
      988.460000       0.003041
      989.630000       0.002926
      990.840000       0.002936
      992.040000       0.002946
      993.240000       0.003835
      994.450000       0.003847
      995.660000       0.003867
      996.870000       0.004950
      998.080000       0.004975
      999.280000       0.012487
     1000.500000       0.019873
     1001.700000       0.019261
     1002.900000       0.025710
     1004.100000       0.032963
     1005.300000       0.040480
     1006.500000       0.053979
     1007.700000       0.073936
     1008.900000       0.092005
     1010.100000       0.119670
     1011.400000       0.159220
     1012.600000       0.211850
     1013.800000       0.278560
     1015.000000       0.362840
     1016.300000       0.452810
     1017.500000       0.543990
     1018.600000       0.642150
     1019.900000       0.731220
     1021.000000       0.796400
     1022.300000       0.856890
     1023.500000       0.898350
     1024.700000       0.926200
     1025.900000       0.944220
     1027.100000       0.956940
     1028.300000       0.959890
     1029.500000       0.960330
     1030.700000       0.963030
     1031.900000       0.963370
     1033.100000       0.966770
     1034.300000       0.975230
     1035.500000       0.983620
     1036.700000       0.997020
     1037.900000       1.000000
     1039.100000       0.994380
     1040.300000       0.965660
     1041.500000       0.899560
     1042.700000       0.791150
     1043.900000       0.664930
     1045.200000       0.524260
     1046.400000       0.398860
     1047.600000       0.295420
     1048.800000       0.217810
     1050.000000       0.157260
     1051.300000       0.115210
     1052.500000       0.083734
     1053.700000       0.062395
     1054.900000       0.048938
     1056.100000       0.034699
     1057.300000       0.026056
     1058.500000       0.021276
     1059.700000       0.019592
     1060.900000       0.014048
     1062.100000       0.014113
     1063.400000       0.014154
     1064.600000       0.007823
     1065.800000       0.007882
     1067.000000       0.007938
     1068.200000       0.007603
     1069.400000       0.011731
     1070.500000       0.008450
     1071.700000       0.005957
     1072.900000       0.003272
     1074.100000       0.003276
     1075.300000       0.003279
     1076.500000       0.005200
     1077.700000       0.005202
     1078.800000       0.005204
     1080.000000       0.005206
     1081.200000       0.002533
     1082.400000       0.002537
     1083.600000       0.002542
     1084.800000       0.002546
     1085.900000       0.002553
     1087.100000       0.002555
     1088.300000       0.002557
     1089.500000       0.000000
