3,   Trishna TIR channel 3 SRF from file ISRF_TIR_V3_121120.txt sent by Emilie Delogu (CNES) April 2021
Number of data points:
2787
Wavenumber (cm-1)   Filter response
      822.571400       0.000145
      822.639000       0.000145
      822.706700       0.000145
      822.774400       0.000145
      822.842100       0.000145
      822.909800       0.000145
      822.977500       0.000146
      823.045300       0.000146
      823.113000       0.000146
      823.180800       0.000146
      823.248500       0.000146
      823.316300       0.000147
      823.384100       0.000147
      823.451900       0.000147
      823.519700       0.000147
      823.587500       0.000148
      823.655400       0.000148
      823.723200       0.000148
      823.791100       0.000148
      823.859000       0.000149
      823.926800       0.000149
      823.994700       0.000149
      824.062600       0.000150
      824.130500       0.000150
      824.198500       0.000150
      824.266400       0.000151
      824.334400       0.000151
      824.402300       0.000151
      824.470300       0.000152
      824.538300       0.000152
      824.606300       0.000152
      824.674300       0.000153
      824.742300       0.000153
      824.810300       0.000153
      824.878300       0.000154
      824.946400       0.000154
      825.014400       0.000155
      825.082500       0.000155
      825.150600       0.000155
      825.218700       0.000156
      825.286800       0.000156
      825.354900       0.000157
      825.423000       0.000157
      825.491200       0.000158
      825.559300       0.000158
      825.627500       0.000159
      825.695600       0.000159
      825.763800       0.000160
      825.832000       0.000160
      825.900200       0.000161
      825.968400       0.000161
      826.036700       0.000162
      826.104900       0.000162
      826.173200       0.000163
      826.241400       0.000163
      826.309700       0.000164
      826.378000       0.000164
      826.446300       0.000165
      826.514600       0.000166
      826.582900       0.000166
      826.651200       0.000167
      826.719600       0.000167
      826.787900       0.000168
      826.856300       0.000169
      826.924700       0.000169
      826.993100       0.000170
      827.061500       0.000171
      827.129900       0.000171
      827.198300       0.000172
      827.266700       0.000173
      827.335200       0.000173
      827.403600       0.000174
      827.472100       0.000175
      827.540500       0.000176
      827.609000       0.000176
      827.677500       0.000177
      827.746000       0.000178
      827.814600       0.000179
      827.883100       0.000179
      827.951600       0.000180
      828.020200       0.000181
      828.088800       0.000182
      828.157300       0.000182
      828.225900       0.000183
      828.294500       0.000184
      828.363200       0.000185
      828.431800       0.000186
      828.500400       0.000187
      828.569100       0.000188
      828.637700       0.000188
      828.706400       0.000189
      828.775100       0.000190
      828.843800       0.000191
      828.912500       0.000192
      828.981200       0.000193
      829.049900       0.000194
      829.118600       0.000195
      829.187400       0.000196
      829.256200       0.000197
      829.324900       0.000198
      829.393700       0.000199
      829.462500       0.000200
      829.531300       0.000201
      829.600100       0.000202
      829.669000       0.000203
      829.737800       0.000204
      829.806700       0.000205
      829.875500       0.000206
      829.944400       0.000208
      830.013300       0.000209
      830.082200       0.000210
      830.151100       0.000211
      830.220000       0.000212
      830.288900       0.000213
      830.357900       0.000214
      830.426800       0.000216
      830.495800       0.000217
      830.564800       0.000218
      830.633800       0.000219
      830.702800       0.000221
      830.771800       0.000222
      830.840800       0.000223
      830.909800       0.000224
      830.978900       0.000226
      831.048000       0.000227
      831.117000       0.000228
      831.186100       0.000230
      831.255200       0.000231
      831.324300       0.000233
      831.393400       0.000234
      831.462500       0.000235
      831.531700       0.000237
      831.600800       0.000238
      831.670000       0.000240
      831.739200       0.000241
      831.808400       0.000243
      831.877500       0.000244
      831.946800       0.000246
      832.016000       0.000247
      832.085200       0.000249
      832.154400       0.000250
      832.223700       0.000252
      832.293000       0.000254
      832.362200       0.000255
      832.431500       0.000257
      832.500800       0.000259
      832.570100       0.000260
      832.639500       0.000262
      832.708800       0.000264
      832.778100       0.000266
      832.847500       0.000267
      832.916900       0.000269
      832.986300       0.000271
      833.055600       0.000273
      833.125100       0.000274
      833.194500       0.000276
      833.263900       0.000278
      833.333300       0.000280
      833.402800       0.000282
      833.472200       0.000284
      833.541700       0.000286
      833.611200       0.000288
      833.680700       0.000290
      833.750200       0.000292
      833.819700       0.000294
      833.889300       0.000296
      833.958800       0.000298
      834.028400       0.000300
      834.097900       0.000302
      834.167500       0.000304
      834.237100       0.000307
      834.306700       0.000309
      834.376300       0.000311
      834.445900       0.000313
      834.515600       0.000315
      834.585200       0.000318
      834.654900       0.000320
      834.724500       0.000322
      834.794200       0.000325
      834.863900       0.000327
      834.933600       0.000329
      835.003300       0.000332
      835.073100       0.000334
      835.142800       0.000337
      835.212600       0.000339
      835.282300       0.000342
      835.352100       0.000344
      835.421900       0.000347
      835.491700       0.000349
      835.561500       0.000352
      835.631300       0.000355
      835.701200       0.000357
      835.771000       0.000360
      835.840900       0.000363
      835.910700       0.000365
      835.980600       0.000368
      836.050500       0.000371
      836.120400       0.000374
      836.190300       0.000377
      836.260200       0.000380
      836.330200       0.000383
      836.400100       0.000385
      836.470100       0.000388
      836.540100       0.000391
      836.610100       0.000394
      836.680100       0.000397
      836.750100       0.000401
      836.820100       0.000404
      836.890100       0.000407
      836.960200       0.000410
      837.030200       0.000413
      837.100300       0.000416
      837.170400       0.000420
      837.240500       0.000423
      837.310600       0.000426
      837.380700       0.000429
      837.450800       0.000433
      837.520900       0.000436
      837.591100       0.000440
      837.661200       0.000443
      837.731400       0.000447
      837.801600       0.000450
      837.871800       0.000454
      837.942000       0.000457
      838.012200       0.000461
      838.082500       0.000465
      838.152700       0.000468
      838.223000       0.000472
      838.293200       0.000476
      838.363500       0.000479
      838.433800       0.000483
      838.504100       0.000487
      838.574400       0.000491
      838.644800       0.000495
      838.715100       0.000499
      838.785400       0.000503
      838.855800       0.000507
      838.926200       0.000511
      838.996600       0.000515
      839.067000       0.000519
      839.137400       0.000523
      839.207800       0.000527
      839.278200       0.000531
      839.348700       0.000535
      839.419100       0.000540
      839.489600       0.000544
      839.560100       0.000548
      839.630600       0.000553
      839.701100       0.000557
      839.771600       0.000561
      839.842100       0.000566
      839.912600       0.000570
      839.983200       0.000575
      840.053800       0.000579
      840.124300       0.000584
      840.194900       0.000588
      840.265500       0.000593
      840.336100       0.000598
      840.406800       0.000602
      840.477400       0.000607
      840.548000       0.000612
      840.618700       0.000616
      840.689400       0.000621
      840.760000       0.000626
      840.830700       0.000631
      840.901400       0.000636
      840.972200       0.000641
      841.042900       0.000645
      841.113600       0.000650
      841.184400       0.000655
      841.255200       0.000660
      841.325900       0.000665
      841.396700       0.000670
      841.467500       0.000675
      841.538300       0.000680
      841.609200       0.000686
      841.680000       0.000691
      841.750800       0.000696
      841.821700       0.000701
      841.892600       0.000706
      841.963500       0.000712
      842.034400       0.000717
      842.105300       0.000722
      842.176200       0.000727
      842.247100       0.000733
      842.318100       0.000738
      842.389000       0.000743
      842.460000       0.000749
      842.531000       0.000754
      842.602000       0.000760
      842.673000       0.000765
      842.744000       0.000771
      842.815000       0.000776
      842.886000       0.000782
      842.957100       0.000787
      843.028200       0.000793
      843.099200       0.000798
      843.170300       0.000804
      843.241400       0.000810
      843.312500       0.000815
      843.383700       0.000821
      843.454800       0.000826
      843.525900       0.000832
      843.597100       0.000838
      843.668300       0.000843
      843.739500       0.000849
      843.810600       0.000855
      843.881900       0.000861
      843.953100       0.000866
      844.024300       0.000872
      844.095600       0.000878
      844.166800       0.000883
      844.238100       0.000889
      844.309400       0.000895
      844.380600       0.000901
      844.452000       0.000906
      844.523300       0.000912
      844.594600       0.000918
      844.665900       0.000924
      844.737300       0.000929
      844.808700       0.000935
      844.880000       0.000941
      844.951400       0.000947
      845.022800       0.000952
      845.094200       0.000958
      845.165700       0.000964
      845.237100       0.000970
      845.308500       0.000975
      845.380000       0.000981
      845.451500       0.000987
      845.523000       0.000993
      845.594500       0.000998
      845.666000       0.001004
      845.737500       0.001010
      845.809000       0.001015
      845.880600       0.001021
      845.952100       0.001027
      846.023700       0.001033
      846.095300       0.001038
      846.166900       0.001044
      846.238500       0.001049
      846.310100       0.001055
      846.381700       0.001061
      846.453400       0.001066
      846.525000       0.001072
      846.596700       0.001077
      846.668400       0.001083
      846.740100       0.001088
      846.811800       0.001094
      846.883500       0.001099
      846.955200       0.001105
      847.026900       0.001110
      847.098700       0.001116
      847.170500       0.001121
      847.242200       0.001126
      847.314000       0.001132
      847.385800       0.001137
      847.457600       0.001142
      847.529500       0.001148
      847.601300       0.001153
      847.673100       0.001158
      847.745000       0.001163
      847.816900       0.001168
      847.888800       0.001174
      847.960700       0.001179
      848.032600       0.001184
      848.104500       0.001189
      848.176400       0.001194
      848.248400       0.001199
      848.320300       0.001204
      848.392300       0.001209
      848.464300       0.001214
      848.536300       0.001219
      848.608300       0.001223
      848.680300       0.001228
      848.752300       0.001233
      848.824400       0.001238
      848.896400       0.001243
      848.968500       0.001247
      849.040600       0.001252
      849.112700       0.001257
      849.184800       0.001261
      849.256900       0.001266
      849.329000       0.001270
      849.401200       0.001275
      849.473300       0.001279
      849.545500       0.001284
      849.617700       0.001288
      849.689900       0.001293
      849.762100       0.001297
      849.834300       0.001301
      849.906500       0.001306
      849.978800       0.001310
      850.051000       0.001314
      850.123300       0.001319
      850.195500       0.001323
      850.267800       0.001327
      850.340100       0.001331
      850.412500       0.001335
      850.484800       0.001339
      850.557100       0.001343
      850.629500       0.001347
      850.701800       0.001351
      850.774200       0.001355
      850.846600       0.001359
      850.919000       0.001363
      850.991400       0.001367
      851.063800       0.001371
      851.136300       0.001375
      851.208700       0.001379
      851.281200       0.001383
      851.353700       0.001386
      851.426100       0.001390
      851.498600       0.001394
      851.571100       0.001397
      851.643700       0.001401
      851.716200       0.001405
      851.788800       0.001408
      851.861300       0.001412
      851.933900       0.001416
      852.006500       0.001419
      852.079100       0.001423
      852.151700       0.001426
      852.224300       0.001430
      852.296900       0.001433
      852.369600       0.001437
      852.442200       0.001440
      852.514900       0.001443
      852.587600       0.001447
      852.660300       0.001450
      852.733000       0.001454
      852.805700       0.001457
      852.878500       0.001460
      852.951200       0.001464
      853.024000       0.001467
      853.096700       0.001470
      853.169500       0.001474
      853.242300       0.001477
      853.315100       0.001480
      853.388000       0.001483
      853.460800       0.001487
      853.533600       0.001490
      853.606500       0.001493
      853.679400       0.001496
      853.752200       0.001500
      853.825100       0.001503
      853.898000       0.001506
      853.971000       0.001509
      854.043900       0.001513
      854.116800       0.001516
      854.189800       0.001519
      854.262800       0.001522
      854.335800       0.001525
      854.408700       0.001529
      854.481800       0.001532
      854.554800       0.001535
      854.627800       0.001538
      854.700900       0.001541
      854.773900       0.001545
      854.847000       0.001548
      854.920100       0.001551
      854.993200       0.001554
      855.066300       0.001557
      855.139400       0.001561
      855.212500       0.001564
      855.285700       0.001567
      855.358800       0.001570
      855.432000       0.001573
      855.505200       0.001577
      855.578400       0.001580
      855.651600       0.001583
      855.724800       0.001587
      855.798000       0.001590
      855.871300       0.001593
      855.944500       0.001596
      856.017800       0.001600
      856.091100       0.001603
      856.164400       0.001606
      856.237700       0.001610
      856.311000       0.001613
      856.384300       0.001617
      856.457700       0.001620
      856.531000       0.001623
      856.604400       0.001627
      856.677800       0.001630
      856.751200       0.001634
      856.824600       0.001637
      856.898000       0.001641
      856.971500       0.001645
      857.044900       0.001648
      857.118400       0.001652
      857.191800       0.001655
      857.265300       0.001659
      857.338800       0.001663
      857.412300       0.001666
      857.485900       0.001670
      857.559400       0.001674
      857.632900       0.001678
      857.706500       0.001681
      857.780100       0.001685
      857.853700       0.001689
      857.927200       0.001693
      858.000900       0.001697
      858.074500       0.001701
      858.148100       0.001705
      858.221800       0.001709
      858.295400       0.001713
      858.369100       0.001717
      858.442800       0.001721
      858.516500       0.001725
      858.590200       0.001730
      858.663900       0.001734
      858.737700       0.001738
      858.811400       0.001742
      858.885200       0.001747
      858.958900       0.001751
      859.032700       0.001756
      859.106500       0.001760
      859.180300       0.001764
      859.254200       0.001769
      859.328000       0.001774
      859.401900       0.001778
      859.475700       0.001783
      859.549600       0.001788
      859.623500       0.001792
      859.697400       0.001797
      859.771300       0.001802
      859.845200       0.001807
      859.919200       0.001812
      859.993100       0.001817
      860.067100       0.001822
      860.141100       0.001827
      860.215100       0.001832
      860.289100       0.001837
      860.363100       0.001842
      860.437100       0.001848
      860.511100       0.001853
      860.585200       0.001858
      860.659300       0.001864
      860.733300       0.001869
      860.807400       0.001875
      860.881500       0.001880
      860.955700       0.001886
      861.029800       0.001892
      861.103900       0.001898
      861.178100       0.001903
      861.252300       0.001909
      861.326400       0.001915
      861.400600       0.001921
      861.474800       0.001927
      861.549100       0.001934
      861.623300       0.001940
      861.697500       0.001946
      861.771800       0.001952
      861.846100       0.001959
      861.920400       0.001965
      861.994700       0.001972
      862.069000       0.001978
      862.143300       0.001985
      862.217600       0.001992
      862.292000       0.001998
      862.366300       0.002005
      862.440700       0.002012
      862.515100       0.002019
      862.589500       0.002026
      862.663900       0.002033
      862.738300       0.002041
      862.812800       0.002048
      862.887200       0.002055
      862.961700       0.002063
      863.036200       0.002070
      863.110700       0.002078
      863.185200       0.002085
      863.259700       0.002093
      863.334200       0.002101
      863.408700       0.002109
      863.483300       0.002117
      863.557900       0.002125
      863.632400       0.002133
      863.707000       0.002141
      863.781600       0.002150
      863.856300       0.002158
      863.930900       0.002166
      864.005500       0.002175
      864.080200       0.002184
      864.154900       0.002192
      864.229500       0.002201
      864.304200       0.002210
      864.378900       0.002219
      864.453700       0.002228
      864.528400       0.002238
      864.603100       0.002247
      864.677900       0.002256
      864.752700       0.002266
      864.827500       0.002276
      864.902300       0.002285
      864.977100       0.002295
      865.051900       0.002305
      865.126700       0.002315
      865.201600       0.002325
      865.276500       0.002335
      865.351300       0.002346
      865.426200       0.002356
      865.501100       0.002367
      865.576000       0.002377
      865.651000       0.002388
      865.725900       0.002399
      865.800900       0.002410
      865.875800       0.002421
      865.950800       0.002432
      866.025800       0.002444
      866.100800       0.002455
      866.175800       0.002467
      866.250900       0.002478
      866.325900       0.002490
      866.401000       0.002502
      866.476000       0.002514
      866.551100       0.002526
      866.626200       0.002538
