28,   28, MVIRI VIS channel from srf_MET7_2001033_2001034_1801-Release_S10EE_10.dat
Number of data points:
793
Wavenumber (cm-1)   Filter response
     8442.380800       0.000000
     8449.514200       0.000000
     8456.659600       0.000004
     8463.817200       0.000053
     8470.986900       0.000157
     8478.168700       0.000314
     8485.362700       0.000523
     8492.569000       0.000782
     8499.787500       0.001089
     8507.018300       0.001444
     8514.261400       0.001845
     8521.516800       0.002290
     8528.784600       0.002779
     8536.064900       0.003310
     8543.357500       0.003882
     8550.662700       0.004494
     8557.980300       0.005145
     8565.310500       0.005833
     8572.653200       0.006559
     8580.008600       0.007320
     8587.376600       0.008116
     8594.757200       0.008946
     8602.150500       0.009809
     8609.556600       0.010705
     8616.975400       0.011632
     8624.407100       0.012590
     8631.851500       0.013579
     8639.308900       0.014596
     8646.779100       0.015643
     8654.262200       0.016718
     8661.758300       0.017820
     8669.267400       0.018950
     8676.789600       0.020106
     8684.324800       0.021288
     8691.873100       0.022495
     8699.434500       0.023728
     8707.009100       0.024985
     8714.596900       0.026267
     8722.198000       0.027572
     8729.812300       0.028901
     8737.439900       0.030253
     8745.080900       0.031628
     8752.735200       0.033026
     8760.403000       0.034446
     8768.084200       0.035888
     8775.778900       0.037352
     8783.487000       0.038837
     8791.208800       0.040344
     8798.944100       0.041872
     8806.693100       0.043421
     8814.455700       0.044991
     8822.232000       0.046582
     8830.022100       0.048193
     8837.825900       0.049825
     8845.643500       0.051477
     8853.475000       0.053150
     8861.320300       0.054843
     8869.179600       0.056556
     8877.052800       0.058289
     8884.940000       0.060043
     8892.841300       0.061816
     8900.756600       0.063610
     8908.686000       0.065423
     8916.629500       0.067257
     8924.587200       0.069111
     8932.559200       0.070985
     8940.545400       0.072879
     8948.545900       0.074793
     8956.560700       0.076728
     8964.589900       0.078683
     8972.633500       0.080657
     8980.691500       0.082653
     8988.764000       0.084669
     8996.851100       0.086705
     9004.952700       0.088762
     9013.068900       0.090839
     9021.199800       0.092937
     9029.345400       0.095056
     9037.505600       0.097196
     9045.680700       0.099356
     9053.870500       0.101538
     9062.075200       0.103741
     9070.294800       0.105965
     9078.529300       0.108210
     9086.778700       0.110477
     9095.043200       0.112765
     9103.322700       0.115075
     9111.617300       0.117406
     9119.927000       0.119759
     9128.251900       0.122135
     9136.592100       0.124532
     9144.947400       0.126951
     9153.318100       0.129392
     9161.704100       0.131855
     9170.105500       0.134341
     9178.522300       0.136850
     9186.954500       0.139380
     9195.402300       0.141934
     9203.865600       0.144510
     9212.344500       0.147108
     9220.839100       0.149730
     9229.349300       0.152374
     9237.875300       0.155042
     9246.417000       0.157732
     9254.974500       0.160446
     9263.547900       0.163183
     9272.137200       0.165942
     9280.742500       0.168725
     9289.363700       0.171532
     9298.000900       0.174362
     9306.654300       0.177215
     9315.323700       0.180091
     9324.009300       0.182991
     9332.711200       0.185915
     9341.429200       0.188862
     9350.163600       0.191832
     9358.914400       0.194826
     9367.681500       0.197844
     9376.465100       0.200885
     9385.265100       0.203949
     9394.081700       0.207037
     9402.914900       0.210149
     9411.764700       0.213284
     9420.631200       0.216442
     9429.514400       0.219624
     9438.414300       0.222829
     9447.331100       0.226058
     9456.264800       0.229309
     9465.215300       0.232585
     9474.182900       0.235883
     9483.167400       0.239204
     9492.169000       0.242548
     9501.187600       0.245915
     9510.223500       0.249305
     9519.276500       0.252718
     9528.346800       0.256153
     9537.434400       0.259611
     9546.539400       0.263092
     9555.661700       0.266594
     9564.801500       0.270119
     9573.958800       0.273666
     9583.133700       0.277235
     9592.326100       0.280825
     9601.536200       0.284438
     9610.764100       0.288071
     9620.009600       0.291726
     9629.273000       0.295403
     9638.554200       0.299100
     9647.853400       0.302818
     9657.170400       0.306556
     9666.505600       0.310315
     9675.858700       0.314094
     9685.230000       0.317893
     9694.619500       0.321712
     9704.027200       0.325550
     9713.453100       0.329408
     9722.897400       0.333286
     9732.360100       0.337181
     9741.841200       0.341096
     9751.340800       0.345029
     9760.859000       0.348980
     9770.395700       0.352949
     9779.951100       0.356935
     9789.525200       0.360939
     9799.118100       0.364961
     9808.729800       0.368998
     9818.360300       0.373053
     9828.009800       0.377123
     9837.678300       0.381210
     9847.365800       0.385312
     9857.072400       0.389429
     9866.798200       0.393562
     9876.543200       0.397709
     9886.307500       0.401871
     9896.091000       0.406046
     9905.894000       0.410235
     9915.716400       0.414438
     9925.558300       0.418653
     9935.419800       0.422882
     9945.300800       0.427123
     9955.201600       0.431375
     9965.122100       0.435640
     9975.062300       0.439915
     9985.022500       0.444201
     9995.002500       0.448499
    10005.002500       0.452806
    10015.022500       0.457122
    10025.062700       0.461448
    10035.122900       0.465783
    10045.203400       0.470127
    10055.304200       0.474479
    10065.425300       0.478839
    10075.566800       0.483206
    10085.728700       0.487580
    10095.911200       0.491961
    10106.114200       0.496347
    10116.337900       0.500740
    10126.582300       0.505138
    10136.847400       0.509540
    10147.133400       0.513948
    10157.440300       0.518359
    10167.768200       0.522774
    10178.117000       0.527192
    10188.487000       0.531613
    10198.878100       0.536036
    10209.290500       0.540461
    10219.724100       0.544887
    10230.179000       0.549315
    10240.655400       0.553743
    10251.153300       0.558171
    10261.672700       0.562599
    10272.213700       0.567026
    10282.776300       0.571452
    10293.360800       0.575876
    10303.967000       0.580298
    10314.595200       0.584718
    10325.245200       0.589134
    10335.917300       0.593547
    10346.611500       0.597956
    10357.327800       0.602361
    10368.066400       0.606760
    10378.827200       0.611155
    10389.610400       0.615544
    10400.416000       0.619926
    10411.244100       0.624301
    10422.094800       0.628670
    10432.968200       0.633031
    10443.864200       0.637384
    10454.783100       0.641728
    10465.724800       0.646063
    10476.689400       0.650389
    10487.677000       0.654705
    10498.687700       0.659011
    10509.721500       0.663305
    10520.778500       0.667589
    10531.858900       0.671861
    10542.962600       0.676120
    10554.089700       0.680367
    10565.240400       0.684601
    10576.414600       0.688821
    10587.612500       0.693028
    10598.834100       0.697220
    10610.079600       0.701397
    10621.348900       0.705559
    10632.642200       0.709705
    10643.959600       0.713835
    10655.301000       0.717949
    10666.666700       0.722045
    10678.056600       0.726124
    10689.470900       0.730184
    10700.909600       0.734227
    10712.372800       0.738251
    10723.860600       0.742256
    10735.373100       0.746241
    10746.910300       0.750206
    10758.472300       0.754151
    10770.059200       0.758075
    10781.671200       0.761977
    10793.308100       0.765858
    10804.970300       0.769717
    10816.657700       0.773554
    10828.370300       0.777367
    10840.108400       0.781158
    10851.871900       0.784925
    10863.661100       0.788668
    10875.475800       0.792386
    10887.316300       0.796080
    10899.182600       0.799749
    10911.074700       0.803393
    10922.992900       0.807010
    10934.937100       0.810601
    10946.907500       0.814166
    10958.904100       0.817704
    10970.927000       0.821215
    10982.976400       0.824698
    10995.052200       0.828153
    11007.154700       0.831580
    11019.283700       0.834978
    11031.439600       0.838348
    11043.622300       0.841688
    11055.832000       0.844999
    11068.068600       0.848280
    11080.332400       0.851531
    11092.623400       0.854751
    11104.941700       0.857941
    11117.287400       0.861099
    11129.660500       0.864227
    11142.061300       0.867323
    11154.489700       0.870387
    11166.945800       0.873419
    11179.429800       0.876418
    11191.941800       0.879385
    11204.481800       0.882319
    11217.049900       0.885221
    11229.646300       0.888088
    11242.270900       0.890922
    11254.924000       0.893723
    11267.605600       0.896489
    11280.315800       0.899221
    11293.054800       0.901919
    11305.822500       0.904582
    11318.619100       0.907211
    11331.444800       0.909804
    11344.299500       0.912362
    11357.183400       0.914885
    11370.096600       0.917372
    11383.039300       0.919823
    11396.011400       0.922239
    11409.013100       0.924618
    11422.044500       0.926962
    11435.105800       0.929269
    11448.196900       0.931540
    11461.318100       0.933774
    11474.469300       0.935971
    11487.650800       0.938132
    11500.862600       0.940255
    11514.104800       0.942342
    11527.377500       0.944392
    11540.680900       0.946404
    11554.015000       0.948379
    11567.380000       0.950317
    11580.775900       0.952217
    11594.202900       0.954080
    11607.661100       0.955905
    11621.150500       0.957693
    11634.671300       0.959443
    11648.223600       0.961155
    11661.807600       0.962830
    11675.423200       0.964467
    11689.070700       0.966066
    11702.750100       0.967628
    11716.461600       0.969152
    11730.205300       0.970638
    11743.981200       0.972086
    11757.789500       0.973497
    11771.630400       0.974869
    11785.503800       0.976205
    11799.410000       0.977502
    11813.349100       0.978762
    11827.321100       0.979985
    11841.326200       0.981170
    11855.364600       0.982317
    11869.436200       0.983427
    11883.541300       0.984500
    11897.680000       0.985536
    11911.852300       0.986535
    11926.058400       0.987497
    11940.298500       0.988421
    11954.572600       0.989309
    11968.880900       0.990161
    11983.223500       0.990976
    11997.600500       0.991754
    12012.012000       0.992496
    12026.458200       0.993202
    12040.939200       0.993872
    12055.455100       0.994506
    12070.006000       0.995104
    12084.592100       0.995667
    12099.213600       0.996195
    12113.870400       0.996687
    12128.562800       0.997144
    12143.290800       0.997567
    12158.054700       0.997955
    12172.854500       0.998308
    12187.690400       0.998628
    12202.562500       0.998913
    12217.471000       0.999165
    12232.415900       0.999383
    12247.397400       0.999567
    12262.415700       0.999719
    12277.470800       0.999838
    12292.563000       0.999924
    12307.692300       0.999978
    12322.858900       1.000000
    12338.062900       0.999990
    12353.304500       0.999949
    12368.583800       0.999876
    12383.900900       0.999772
    12399.256000       0.999638
    12414.649300       0.999473
    12430.080800       0.999278
    12445.550700       0.999053
    12461.059200       0.998799
    12476.606400       0.998515
    12492.192400       0.998203
    12507.817400       0.997862
    12523.481500       0.997493
    12539.185000       0.997096
    12554.927800       0.996671
    12570.710200       0.996219
    12586.532400       0.995740
    12602.394500       0.995235
    12618.296500       0.994703
    12634.238800       0.994146
    12650.221400       0.993563
    12666.244500       0.992955
    12682.308200       0.992322
    12698.412700       0.991665
    12714.558200       0.990984
    12730.744700       0.990279
    12746.972600       0.989551
    12763.241900       0.988801
    12779.552700       0.988027
    12795.905300       0.987232
    12812.299800       0.986415
    12828.736400       0.985576
    12845.215200       0.984717
    12861.736300       0.983837
    12878.300100       0.982937
    12894.906500       0.982018
    12911.555800       0.981079
    12928.248200       0.980121
    12944.983800       0.979145
    12961.762800       0.978151
    12978.585300       0.977140
    12995.451600       0.976111
    13012.361700       0.975066
    13029.316000       0.974004
    13046.314400       0.972926
    13063.357300       0.971833
    13080.444700       0.970726
    13097.576900       0.969603
    13114.754100       0.968466
    13131.976400       0.967316
    13149.243900       0.966153
    13166.556900       0.964976
    13183.915600       0.963788
    13201.320100       0.962587
    13218.770700       0.961375
    13236.267400       0.960153
    13253.810500       0.958919
    13271.400100       0.957676
    13289.036500       0.956422
    13306.719900       0.955160
    13324.450400       0.953889
    13342.228200       0.952610
    13360.053400       0.951322
    13377.926400       0.950028
    13395.847300       0.948726
    13413.816200       0.947418
    13431.833400       0.946104
    13449.899100       0.944784
    13468.013500       0.943460
    13486.176700       0.942130
    13504.388900       0.940797
    13522.650400       0.939459
    13540.961400       0.938118
    13559.322000       0.936775
    13577.732500       0.935429
    13596.193100       0.934080
    13614.703900       0.932731
    13633.265200       0.931380
    13651.877100       0.930029
    13670.540000       0.928677
    13689.253900       0.927325
    13708.019200       0.925975
    13726.836000       0.924625
    13745.704500       0.923277
    13764.624900       0.921930
    13783.597500       0.920586
    13802.622500       0.919245
    13821.700100       0.917907
    13840.830400       0.916573
    13860.013900       0.915242
    13879.250500       0.913916
    13898.540700       0.912595
    13917.884500       0.911279
    13937.282200       0.909969
    13956.734100       0.908665
    13976.240400       0.907368
    13995.801300       0.906077
    14015.417000       0.904794
    14035.087700       0.903518
    14054.813800       0.902250
    14074.595400       0.900990
    14094.432700       0.899740
    14114.326000       0.898498
    14134.275600       0.897266
    14154.281700       0.896044
    14174.344400       0.894832
    14194.464200       0.893631
    14214.641100       0.892440
    14234.875400       0.891261
    14255.167500       0.890094
    14275.517500       0.888938
    14295.925700       0.887795
    14316.392300       0.886664
    14336.917600       0.885546
    14357.501800       0.884442
    14378.145200       0.883351
    14398.848100       0.882273
    14419.610700       0.881210
    14440.433200       0.880162
    14461.316000       0.879127
    14482.259200       0.878108
    14503.263200       0.877105
    14524.328200       0.876116
    14545.454500       0.875144
    14566.642400       0.874187
    14587.892000       0.873247
    14609.203800       0.872323
    14630.577900       0.871416
    14652.014700       0.870526
    14673.514300       0.869653
    14695.077100       0.868797
    14716.703500       0.867959
    14738.393500       0.867139
    14760.147600       0.866337
    14781.966000       0.865553
    14803.849000       0.864787
    14825.796900       0.864040
    14847.809900       0.863311
    14869.888500       0.862602
    14892.032800       0.861911
    14914.243100       0.861239
    14936.519800       0.860587
    14958.863100       0.859954
    14981.273400       0.859340
    15003.750900       0.858746
    15026.296000       0.858171
    15048.909000       0.857617
    15071.590100       0.857082
    15094.339600       0.856567
    15117.158000       0.856072
    15140.045400       0.855597
    15163.002300       0.855142
    15186.028900       0.854707
    15209.125500       0.854292
    15232.292500       0.853898
    15255.530100       0.853523
    15278.838800       0.853169
    15302.218800       0.852835
    15325.670500       0.852521
    15349.194200       0.852227
    15372.790200       0.851953
    15396.458800       0.851699
    15420.200500       0.851465
    15444.015400       0.851251
    15467.904100       0.851057
    15491.866800       0.850882
    15515.903800       0.850728
    15540.015500       0.850592
    15564.202300       0.850476
    15588.464500       0.850380
    15612.802500       0.850303
    15637.216600       0.850244
    15661.707100       0.850205
    15686.274500       0.850184
    15710.919100       0.850182
    15735.641200       0.850198
    15760.441300       0.850233
    15785.319700       0.850285
    15810.276700       0.850356
    15835.312700       0.850444
    15860.428200       0.850549
    15885.623500       0.850671
    15910.899000       0.850810
    15936.255000       0.850966
    15961.691900       0.851138
    15987.210200       0.851326
    16012.810200       0.851530
    16038.492400       0.851749
    16064.257000       0.851984
    16090.104600       0.852233
    16116.035500       0.852497
    16142.050000       0.852775
    16168.148700       0.853066
    16194.332000       0.853372
    16220.600200       0.853690
    16246.953700       0.854021
    16273.393000       0.854364
    16299.918500       0.854719
    16326.530600       0.855086
    16353.229800       0.855464
    16380.016400       0.855852
    16406.890900       0.856251
    16433.853700       0.856659
    16460.905300       0.857077
    16488.046200       0.857504
    16515.276600       0.857939
    16542.597200       0.858381
    16570.008300       0.858832
    16597.510400       0.859289
    16625.103900       0.859752
    16652.789300       0.860221
    16680.567100       0.860696
    16708.437800       0.861175
    16736.401700       0.861659
    16764.459300       0.862146
    16792.611300       0.862636
    16820.857900       0.863129
    16849.199700       0.863623
    16877.637100       0.864119
    16906.170800       0.864616
    16934.801000       0.865112
    16963.528400       0.865608
    16992.353400       0.866103
    17021.276600       0.866596
    17050.298400       0.867087
    17079.419300       0.867574
    17108.639900       0.868058
    17137.960600       0.868537
    17167.382000       0.869011
    17196.904600       0.869479
    17226.528900       0.869941
    17256.255400       0.870395
    17286.084700       0.870841
    17316.017300       0.871279
    17346.053800       0.871707
    17376.194600       0.872125
    17406.440400       0.872532
    17436.791600       0.872928
    17467.248900       0.873310
    17497.812800       0.873680
    17528.483800       0.874036
    17559.262500       0.874377
    17590.149500       0.874703
    17621.145400       0.875012
    17652.250700       0.875304
    17683.466000       0.875579
