13,   13, MVIRI VIS channel from srf_MET4_1991033_1991034_1801-Release_S10EL_10.dat
Number of data points:
752
Wavenumber (cm-1)   Filter response
     8745.080900       0.000000
     8752.735200       0.000000
     8760.403000       0.000001
     8768.084200       0.000059
     8775.778900       0.000198
     8783.487000       0.000417
     8791.208800       0.000714
     8798.944100       0.001086
     8806.693100       0.001531
     8814.455700       0.002046
     8822.232000       0.002630
     8830.022100       0.003280
     8837.825900       0.003995
     8845.643500       0.004773
     8853.475000       0.005610
     8861.320300       0.006507
     8869.179600       0.007461
     8877.052800       0.008470
     8884.940000       0.009533
     8892.841300       0.010648
     8900.756600       0.011814
     8908.686000       0.013028
     8916.629500       0.014290
     8924.587200       0.015598
     8932.559200       0.016951
     8940.545400       0.018348
     8948.545900       0.019786
     8956.560700       0.021266
     8964.589900       0.022785
     8972.633500       0.024343
     8980.691500       0.025939
     8988.764000       0.027571
     8996.851100       0.029239
     9004.952700       0.030941
     9013.068900       0.032676
     9021.199800       0.034445
     9029.345400       0.036245
     9037.505600       0.038076
     9045.680700       0.039937
     9053.870500       0.041827
     9062.075200       0.043746
     9070.294800       0.045693
     9078.529300       0.047667
     9086.778700       0.049668
     9095.043200       0.051695
     9103.322700       0.053747
     9111.617300       0.055824
     9119.927000       0.057925
     9128.251900       0.060049
     9136.592100       0.062198
     9144.947400       0.064368
     9153.318100       0.066561
     9161.704100       0.068776
     9170.105500       0.071013
     9178.522300       0.073271
     9186.954500       0.075549
     9195.402300       0.077848
     9203.865600       0.080166
     9212.344500       0.082505
     9220.839100       0.084863
     9229.349300       0.087240
     9237.875300       0.089637
     9246.417000       0.092052
     9254.974500       0.094486
     9263.547900       0.096938
     9272.137200       0.099408
     9280.742500       0.101896
     9289.363700       0.104401
     9298.000900       0.106925
     9306.654300       0.109466
     9315.323700       0.112024
     9324.009300       0.114600
     9332.711200       0.117193
     9341.429200       0.119802
     9350.163600       0.122429
     9358.914400       0.125073
     9367.681500       0.127733
     9376.465100       0.130411
     9385.265100       0.133104
     9394.081700       0.135815
     9402.914900       0.138542
     9411.764700       0.141286
     9420.631200       0.144046
     9429.514400       0.146823
     9438.414300       0.149617
     9447.331100       0.152426
     9456.264800       0.155253
     9465.215300       0.158096
     9474.182900       0.160955
     9483.167400       0.163831
     9492.169000       0.166723
     9501.187600       0.169633
     9510.223500       0.172558
     9519.276500       0.175500
     9528.346800       0.178459
     9537.434400       0.181435
     9546.539400       0.184426
     9555.661700       0.187435
     9564.801500       0.190460
     9573.958800       0.193502
     9583.133700       0.196561
     9592.326100       0.199636
     9601.536200       0.202729
     9610.764100       0.205838
     9620.009600       0.208964
     9629.273000       0.212107
     9638.554200       0.215266
     9647.853400       0.218443
     9657.170400       0.221636
     9666.505600       0.224846
     9675.858700       0.228074
     9685.230000       0.231318
     9694.619500       0.234579
     9704.027200       0.237857
     9713.453100       0.241152
     9722.897400       0.244465
     9732.360100       0.247794
     9741.841200       0.251140
     9751.340800       0.254503
     9760.859000       0.257883
     9770.395700       0.261280
     9779.951100       0.264694
     9789.525200       0.268124
     9799.118100       0.271572
     9808.729800       0.275037
     9818.360300       0.278518
     9828.009800       0.282016
     9837.678300       0.285531
     9847.365800       0.289063
     9857.072400       0.292611
     9866.798200       0.296176
     9876.543200       0.299757
     9886.307500       0.303355
     9896.091000       0.306969
     9905.894000       0.310599
     9915.716400       0.314246
     9925.558300       0.317909
     9935.419800       0.321588
     9945.300800       0.325283
     9955.201600       0.328993
     9965.122100       0.332720
     9975.062300       0.336462
     9985.022500       0.340219
     9995.002500       0.343993
    10005.002500       0.347781
    10015.022500       0.351584
    10025.062700       0.355403
    10035.122900       0.359236
    10045.203400       0.363084
    10055.304200       0.366946
    10065.425300       0.370823
    10075.566800       0.374714
    10085.728700       0.378620
    10095.911200       0.382539
    10106.114200       0.386472
    10116.337900       0.390418
    10126.582300       0.394377
    10136.847400       0.398350
    10147.133400       0.402336
    10157.440300       0.406334
    10167.768200       0.410345
    10178.117000       0.414368
    10188.487000       0.418403
    10198.878100       0.422450
    10209.290500       0.426508
    10219.724100       0.430578
    10230.179000       0.434659
    10240.655400       0.438750
    10251.153300       0.442852
    10261.672700       0.446965
    10272.213700       0.451087
    10282.776300       0.455220
    10293.360800       0.459361
    10303.967000       0.463512
    10314.595200       0.467672
    10325.245200       0.471841
    10335.917300       0.476018
    10346.611500       0.480202
    10357.327800       0.484395
    10368.066400       0.488594
    10378.827200       0.492801
    10389.610400       0.497015
    10400.416000       0.501235
    10411.244100       0.505462
    10422.094800       0.509694
    10432.968200       0.513931
    10443.864200       0.518174
    10454.783100       0.522421
    10465.724800       0.526673
    10476.689400       0.530928
    10487.677000       0.535188
    10498.687700       0.539451
    10509.721500       0.543716
    10520.778500       0.547985
    10531.858900       0.552255
    10542.962600       0.556528
    10554.089700       0.560802
    10565.240400       0.565077
    10576.414600       0.569352
    10587.612500       0.573628
    10598.834100       0.577905
    10610.079600       0.582180
    10621.348900       0.586455
    10632.642200       0.590728
    10643.959600       0.595000
    10655.301000       0.599270
    10666.666700       0.603537
    10678.056600       0.607802
    10689.470900       0.612063
    10700.909600       0.616321
    10712.372800       0.620574
    10723.860600       0.624823
    10735.373100       0.629067
    10746.910300       0.633306
    10758.472300       0.637539
    10770.059200       0.641766
    10781.671200       0.645986
    10793.308100       0.650199
    10804.970300       0.654405
    10816.657700       0.658603
    10828.370300       0.662793
    10840.108400       0.666973
    10851.871900       0.671145
    10863.661100       0.675308
    10875.475800       0.679460
    10887.316300       0.683602
    10899.182600       0.687733
    10911.074700       0.691852
    10922.992900       0.695960
    10934.937100       0.700056
    10946.907500       0.704139
    10958.904100       0.708210
    10970.927000       0.712267
    10982.976400       0.716310
    10995.052200       0.720339
    11007.154700       0.724353
    11019.283700       0.728352
    11031.439600       0.732335
    11043.622300       0.736303
    11055.832000       0.740254
    11068.068600       0.744188
    11080.332400       0.748105
    11092.623400       0.752005
    11104.941700       0.755886
    11117.287400       0.759749
    11129.660500       0.763593
    11142.061300       0.767417
    11154.489700       0.771222
    11166.945800       0.775007
    11179.429800       0.778771
    11191.941800       0.782515
    11204.481800       0.786237
    11217.049900       0.789937
    11229.646300       0.793615
    11242.270900       0.797271
    11254.924000       0.800904
    11267.605600       0.804513
    11280.315800       0.808099
    11293.054800       0.811661
    11305.822500       0.815198
    11318.619100       0.818711
    11331.444800       0.822198
    11344.299500       0.825659
    11357.183400       0.829095
    11370.096600       0.832505
    11383.039300       0.835887
    11396.011400       0.839243
    11409.013100       0.842571
    11422.044500       0.845872
    11435.105800       0.849145
    11448.196900       0.852389
    11461.318100       0.855604
    11474.469300       0.858790
    11487.650800       0.861947
    11500.862600       0.865075
    11514.104800       0.868172
    11527.377500       0.871239
    11540.680900       0.874275
    11554.015000       0.877280
    11567.380000       0.880254
    11580.775900       0.883196
    11594.202900       0.886106
    11607.661100       0.888984
    11621.150500       0.891830
    11634.671300       0.894643
    11648.223600       0.897423
    11661.807600       0.900170
    11675.423200       0.902883
    11689.070700       0.905562
    11702.750100       0.908207
    11716.461600       0.910818
    11730.205300       0.913395
    11743.981200       0.915936
    11757.789500       0.918443
    11771.630400       0.920914
    11785.503800       0.923350
    11799.410000       0.925750
    11813.349100       0.928115
    11827.321100       0.930443
    11841.326200       0.932735
    11855.364600       0.934990
    11869.436200       0.937209
    11883.541300       0.939391
    11897.680000       0.941536
    11911.852300       0.943644
    11926.058400       0.945714
    11940.298500       0.947747
    11954.572600       0.949742
    11968.880900       0.951700
    11983.223500       0.953619
    11997.600500       0.955500
    12012.012000       0.957343
    12026.458200       0.959148
    12040.939200       0.960914
    12055.455100       0.962642
    12070.006000       0.964331
    12084.592100       0.965982
    12099.213600       0.967593
    12113.870400       0.969166
    12128.562800       0.970699
    12143.290800       0.972194
    12158.054700       0.973649
    12172.854500       0.975065
    12187.690400       0.976442
    12202.562500       0.977780
    12217.471000       0.979078
    12232.415900       0.980337
    12247.397400       0.981557
    12262.415700       0.982737
    12277.470800       0.983878
    12292.563000       0.984979
    12307.692300       0.986041
    12322.858900       0.987064
    12338.062900       0.988047
    12353.304500       0.988991
    12368.583800       0.989895
    12383.900900       0.990761
    12399.256000       0.991586
    12414.649300       0.992373
    12430.080800       0.993121
    12445.550700       0.993829
    12461.059200       0.994498
    12476.606400       0.995129
    12492.192400       0.995720
    12507.817400       0.996273
    12523.481500       0.996787
    12539.185000       0.997263
    12554.927800       0.997699
    12570.710200       0.998098
    12586.532400       0.998458
    12602.394500       0.998780
    12618.296500       0.999064
    12634.238800       0.999310
    12650.221400       0.999519
    12666.244500       0.999690
    12682.308200       0.999823
    12698.412700       0.999919
    12714.558200       0.999978
    12730.744700       1.000000
    12746.972600       0.999985
    12763.241900       0.999934
    12779.552700       0.999846
    12795.905300       0.999722
    12812.299800       0.999563
    12828.736400       0.999367
    12845.215200       0.999136
    12861.736300       0.998869
    12878.300100       0.998567
    12894.906500       0.998231
    12911.555800       0.997860
    12928.248200       0.997454
    12944.983800       0.997014
    12961.762800       0.996541
    12978.585300       0.996034
    12995.451600       0.995493
    13012.361700       0.994919
    13029.316000       0.994313
    13046.314400       0.993673
    13063.357300       0.993002
    13080.444700       0.992299
    13097.576900       0.991564
    13114.754100       0.990797
    13131.976400       0.990000
    13149.243900       0.989172
    13166.556900       0.988313
    13183.915600       0.987424
    13201.320100       0.986505
    13218.770700       0.985557
    13236.267400       0.984580
    13253.810500       0.983574
    13271.400100       0.982540
    13289.036500       0.981477
    13306.719900       0.980387
    13324.450400       0.979269
    13342.228200       0.978124
    13360.053400       0.976953
    13377.926400       0.975755
    13395.847300       0.974532
    13413.816200       0.973282
    13431.833400       0.972008
    13449.899100       0.970709
    13468.013500       0.969385
    13486.176700       0.968037
    13504.388900       0.966666
    13522.650400       0.965271
    13540.961400       0.963854
    13559.322000       0.962414
    13577.732500       0.960952
    13596.193100       0.959469
    13614.703900       0.957964
    13633.265200       0.956439
    13651.877100       0.954893
    13670.540000       0.953327
    13689.253900       0.951741
    13708.019200       0.950137
    13726.836000       0.948514
    13745.704500       0.946872
    13764.624900       0.945213
    13783.597500       0.943536
    13802.622500       0.941842
    13821.700100       0.940132
    13840.830400       0.938406
    13860.013900       0.936664
    13879.250500       0.934906
    13898.540700       0.933134
    13917.884500       0.931348
    13937.282200       0.929548
    13956.734100       0.927734
    13976.240400       0.925907
    13995.801300       0.924068
    14015.417000       0.922217
    14035.087700       0.920354
    14054.813800       0.918480
    14074.595400       0.916595
    14094.432700       0.914699
    14114.326000       0.912794
    14134.275600       0.910880
    14154.281700       0.908956
    14174.344400       0.907024
    14194.464200       0.905084
    14214.641100       0.903137
    14234.875400       0.901182
    14255.167500       0.899221
    14275.517500       0.897253
    14295.925700       0.895279
    14316.392300       0.893301
    14336.917600       0.891317
    14357.501800       0.889329
    14378.145200       0.887336
    14398.848100       0.885341
    14419.610700       0.883342
    14440.433200       0.881340
    14461.316000       0.879336
    14482.259200       0.877331
    14503.263200       0.875324
    14524.328200       0.873316
    14545.454500       0.871307
    14566.642400       0.869299
    14587.892000       0.867290
    14609.203800       0.865283
    14630.577900       0.863277
    14652.014700       0.861272
    14673.514300       0.859270
    14695.077100       0.857269
    14716.703500       0.855272
    14738.393500       0.853278
    14760.147600       0.851288
    14781.966000       0.849302
    14803.849000       0.847320
    14825.796900       0.845343
    14847.809900       0.843372
    14869.888500       0.841406
    14892.032800       0.839446
    14914.243100       0.837493
    14936.519800       0.835546
    14958.863100       0.833607
    14981.273400       0.831675
    15003.750900       0.829751
    15026.296000       0.827835
    15048.909000       0.825928
    15071.590100       0.824030
    15094.339600       0.822142
    15117.158000       0.820263
    15140.045400       0.818394
    15163.002300       0.816535
    15186.028900       0.814687
    15209.125500       0.812850
    15232.292500       0.811025
    15255.530100       0.809211
    15278.838800       0.807409
    15302.218800       0.805619
    15325.670500       0.803842
    15349.194200       0.802077
    15372.790200       0.800326
    15396.458800       0.798588
    15420.200500       0.796864
    15444.015400       0.795153
    15467.904100       0.793457
    15491.866800       0.791775
    15515.903800       0.790108
    15540.015500       0.788456
    15564.202300       0.786819
    15588.464500       0.785197
    15612.802500       0.783591
    15637.216600       0.782001
    15661.707100       0.780427
    15686.274500       0.778869
    15710.919100       0.777328
    15735.641200       0.775803
    15760.441300       0.774295
    15785.319700       0.772803
    15810.276700       0.771329
    15835.312700       0.769872
    15860.428200       0.768433
    15885.623500       0.767011
    15910.899000       0.765607
    15936.255000       0.764220
    15961.691900       0.762852
    15987.210200       0.761501
    16012.810200       0.760169
    16038.492400       0.758855
    16064.257000       0.757559
    16090.104600       0.756282
    16116.035500       0.755023
    16142.050000       0.753782
    16168.148700       0.752560
    16194.332000       0.751357
    16220.600200       0.750172
    16246.953700       0.749006
    16273.393000       0.747859
    16299.918500       0.746730
    16326.530600       0.745620
    16353.229800       0.744529
    16380.016400       0.743456
    16406.890900       0.742402
    16433.853700       0.741366
    16460.905300       0.740349
    16488.046200       0.739351
    16515.276600       0.738371
    16542.597200       0.737409
    16570.008300       0.736465
    16597.510400       0.735540
    16625.103900       0.734633
    16652.789300       0.733743
    16680.567100       0.732872
    16708.437800       0.732018
    16736.401700       0.731182
    16764.459300       0.730363
    16792.611300       0.729562
    16820.857900       0.728777
    16849.199700       0.728010
    16877.637100       0.727259
    16906.170800       0.726524
    16934.801000       0.725806
    16963.528400       0.725105
    16992.353400       0.724419
    17021.276600       0.723748
    17050.298400       0.723093
    17079.419300       0.722454
    17108.639900       0.721829
    17137.960600       0.721219
    17167.382000       0.720623
    17196.904600       0.720041
    17226.528900       0.719473
    17256.255400       0.718918
    17286.084700       0.718377
    17316.017300       0.717848
    17346.053800       0.717332
    17376.194600       0.716828
    17406.440400       0.716335
    17436.791600       0.715854
    17467.248900       0.715384
    17497.812800       0.714925
    17528.483800       0.714476
    17559.262500       0.714037
    17590.149500       0.713607
    17621.145400       0.713186
    17652.250700       0.712774
    17683.466000       0.712370
    17714.791900       0.711973
    17746.228900       0.711584
    17777.777800       0.711202
    17809.439000       0.710826
    17841.213200       0.710455
    17873.101000       0.710090
    17905.103000       0.709730
    17937.219700       0.709374
    17969.451900       0.709022
    18001.800200       0.708673
    18034.265100       0.708327
    18066.847300       0.707983
    18099.547500       0.707641
    18132.366300       0.707300
    18165.304300       0.706959
    18198.362100       0.706619
    18231.540600       0.706277
    18264.840200       0.705935
    18298.261700       0.705590
    18331.805700       0.705243
    18365.472900       0.704894
    18399.264000       0.704540
    18433.179700       0.704182
    18467.220700       0.703820
    18501.387600       0.703451
    18535.681200       0.703077
    18570.102100       0.702696
    18604.651200       0.702307
    18639.329000       0.701910
    18674.136300       0.701504
    18709.073900       0.701089
    18744.142500       0.700664
    18779.342700       0.700227
    18814.675400       0.699780
    18850.141400       0.699319
    18885.741300       0.698846
    18921.475900       0.698360
    18957.346000       0.697859
    18993.352300       0.697342
    19029.495700       0.696810
    19065.776900       0.696262
