18,   18, MVIRI VIS channel from srf_MET7_1999303_1999304_1801-Release_S10EE_10.dat
Number of data points:
793
Wavenumber (cm-1)   Filter response
     8442.380800       0.000000
     8449.514200       0.000000
     8456.659600       0.000004
     8463.817200       0.000052
     8470.986900       0.000155
     8478.168700       0.000310
     8485.362700       0.000516
     8492.569000       0.000772
     8499.787500       0.001076
     8507.018300       0.001426
     8514.261400       0.001822
     8521.516800       0.002262
     8528.784600       0.002745
     8536.064900       0.003269
     8543.357500       0.003834
     8550.662700       0.004439
     8557.980300       0.005082
     8565.310500       0.005762
     8572.653200       0.006479
     8580.008600       0.007231
     8587.376600       0.008018
     8594.757200       0.008838
     8602.150500       0.009691
     8609.556600       0.010576
     8616.975400       0.011492
     8624.407100       0.012439
     8631.851500       0.013416
     8639.308900       0.014422
     8646.779100       0.015456
     8654.262200       0.016519
     8661.758300       0.017608
     8669.267400       0.018725
     8676.789600       0.019868
     8684.324800       0.021036
     8691.873100       0.022230
     8699.434500       0.023449
     8707.009100       0.024692
     8714.596900       0.025959
     8722.198000       0.027249
     8729.812300       0.028564
     8737.439900       0.029901
     8745.080900       0.031260
     8752.735200       0.032642
     8760.403000       0.034047
     8768.084200       0.035473
     8775.778900       0.036920
     8783.487000       0.038390
     8791.208800       0.039880
     8798.944100       0.041391
     8806.693100       0.042924
     8814.455700       0.044477
     8822.232000       0.046050
     8830.022100       0.047644
     8837.825900       0.049259
     8845.643500       0.050894
     8853.475000       0.052548
     8861.320300       0.054224
     8869.179600       0.055919
     8877.052800       0.057634
     8884.940000       0.059369
     8892.841300       0.061124
     8900.756600       0.062899
     8908.686000       0.064694
     8916.629500       0.066509
     8924.587200       0.068344
     8932.559200       0.070199
     8940.545400       0.072074
     8948.545900       0.073969
     8956.560700       0.075884
     8964.589900       0.077819
     8972.633500       0.079774
     8980.691500       0.081750
     8988.764000       0.083746
     8996.851100       0.085762
     9004.952700       0.087799
     9013.068900       0.089855
     9021.199800       0.091933
     9029.345400       0.094032
     9037.505600       0.096151
     9045.680700       0.098291
     9053.870500       0.100451
     9062.075200       0.102633
     9070.294800       0.104836
     9078.529300       0.107060
     9086.778700       0.109306
     9095.043200       0.111573
     9103.322700       0.113861
     9111.617300       0.116171
     9119.927000       0.118502
     9128.251900       0.120856
     9136.592100       0.123231
     9144.947400       0.125628
     9153.318100       0.128047
     9161.704100       0.130488
     9170.105500       0.132952
     9178.522300       0.135438
     9186.954500       0.137946
     9195.402300       0.140477
     9203.865600       0.143030
     9212.344500       0.145606
     9220.839100       0.148205
     9229.349300       0.150826
     9237.875300       0.153471
     9246.417000       0.156138
     9254.974500       0.158828
     9263.547900       0.161542
     9272.137200       0.164278
     9280.742500       0.167038
     9289.363700       0.169821
     9298.000900       0.172627
     9306.654300       0.175457
     9315.323700       0.178310
     9324.009300       0.181186
     9332.711200       0.184086
     9341.429200       0.187009
     9350.163600       0.189955
     9358.914400       0.192925
     9367.681500       0.195919
     9376.465100       0.198936
     9385.265100       0.201976
     9394.081700       0.205040
     9402.914900       0.208127
     9411.764700       0.211238
     9420.631200       0.214372
     9429.514400       0.217530
     9438.414300       0.220711
     9447.331100       0.223915
     9456.264800       0.227142
     9465.215300       0.230393
     9474.182900       0.233666
     9483.167400       0.236963
     9492.169000       0.240283
     9501.187600       0.243626
     9510.223500       0.246991
     9519.276500       0.250379
     9528.346800       0.253791
     9537.434400       0.257224
     9546.539400       0.260680
     9555.661700       0.264158
     9564.801500       0.267658
     9573.958800       0.271181
     9583.133700       0.274726
     9592.326100       0.278292
     9601.536200       0.281880
     9610.764100       0.285489
     9620.009600       0.289120
     9629.273000       0.292772
     9638.554200       0.296445
     9647.853400       0.300139
     9657.170400       0.303853
     9666.505600       0.307588
     9675.858700       0.311344
     9685.230000       0.315119
     9694.619500       0.318914
     9704.027200       0.322729
     9713.453100       0.326563
     9722.897400       0.330417
     9732.360100       0.334289
     9741.841200       0.338181
     9751.340800       0.342090
     9760.859000       0.346018
     9770.395700       0.349964
     9779.951100       0.353928
     9789.525200       0.357909
     9799.118100       0.361908
     9808.729800       0.365923
     9818.360300       0.369955
     9828.009800       0.374004
     9837.678300       0.378068
     9847.365800       0.382149
     9857.072400       0.386244
     9866.798200       0.390355
     9876.543200       0.394481
     9886.307500       0.398621
     9896.091000       0.402776
     9905.894000       0.406944
     9915.716400       0.411126
     9925.558300       0.415321
     9935.419800       0.419530
     9945.300800       0.423750
     9955.201600       0.427983
     9965.122100       0.432228
     9975.062300       0.436483
     9985.022500       0.440751
     9995.002500       0.445029
    10005.002500       0.449317
    10015.022500       0.453615
    10025.062700       0.457923
    10035.122900       0.462240
    10045.203400       0.466566
    10055.304200       0.470901
    10065.425300       0.475243
    10075.566800       0.479593
    10085.728700       0.483951
    10095.911200       0.488315
    10106.114200       0.492686
    10116.337900       0.497062
    10126.582300       0.501444
    10136.847400       0.505832
    10147.133400       0.510224
    10157.440300       0.514621
    10167.768200       0.519021
    10178.117000       0.523425
    10188.487000       0.527833
    10198.878100       0.532243
    10209.290500       0.536655
    10219.724100       0.541068
    10230.179000       0.545483
    10240.655400       0.549900
    10251.153300       0.554316
    10261.672700       0.558733
    10272.213700       0.563149
    10282.776300       0.567564
    10293.360800       0.571978
    10303.967000       0.576390
    10314.595200       0.580800
    10325.245200       0.585207
    10335.917300       0.589612
    10346.611500       0.594012
    10357.327800       0.598409
    10368.066400       0.602801
    10378.827200       0.607188
    10389.610400       0.611570
    10400.416000       0.615946
    10411.244100       0.620315
    10422.094800       0.624678
    10432.968200       0.629034
    10443.864200       0.633382
    10454.783100       0.637722
    10465.724800       0.642053
    10476.689400       0.646375
    10487.677000       0.650688
    10498.687700       0.654991
    10509.721500       0.659284
    10520.778500       0.663565
    10531.858900       0.667836
    10542.962600       0.672094
    10554.089700       0.676341
    10565.240400       0.680575
    10576.414600       0.684796
    10587.612500       0.689003
    10598.834100       0.693196
    10610.079600       0.697375
    10621.348900       0.701539
    10632.642200       0.705688
    10643.959600       0.709821
    10655.301000       0.713938
    10666.666700       0.718039
    10678.056600       0.722122
    10689.470900       0.726188
    10700.909600       0.730236
    10712.372800       0.734266
    10723.860600       0.738277
    10735.373100       0.742269
    10746.910300       0.746242
    10758.472300       0.750194
    10770.059200       0.754126
    10781.671200       0.758038
    10793.308100       0.761928
    10804.970300       0.765797
    10816.657700       0.769644
    10828.370300       0.773468
    10840.108400       0.777270
    10851.871900       0.781048
    10863.661100       0.784804
    10875.475800       0.788535
    10887.316300       0.792242
    10899.182600       0.795924
    10911.074700       0.799582
    10922.992900       0.803214
    10934.937100       0.806820
    10946.907500       0.810401
    10958.904100       0.813955
    10970.927000       0.817482
    10982.976400       0.820982
    10995.052200       0.824455
    11007.154700       0.827900
    11019.283700       0.831316
    11031.439600       0.834705
    11043.622300       0.838065
    11055.832000       0.841395
    11068.068600       0.844697
    11080.332400       0.847968
    11092.623400       0.851210
    11104.941700       0.854422
    11117.287400       0.857602
    11129.660500       0.860753
    11142.061300       0.863872
    11154.489700       0.866959
    11166.945800       0.870016
    11179.429800       0.873040
    11191.941800       0.876032
    11204.481800       0.878992
    11217.049900       0.881919
    11229.646300       0.884813
    11242.270900       0.887674
    11254.924000       0.890502
    11267.605600       0.893296
    11280.315800       0.896056
    11293.054800       0.898782
    11305.822500       0.901475
    11318.619100       0.904133
    11331.444800       0.906756
    11344.299500       0.909344
    11357.183400       0.911898
    11370.096600       0.914416
    11383.039300       0.916899
    11396.011400       0.919347
    11409.013100       0.921759
    11422.044500       0.924135
    11435.105800       0.926476
    11448.196900       0.928780
    11461.318100       0.931048
    11474.469300       0.933280
    11487.650800       0.935476
    11500.862600       0.937635
    11514.104800       0.939757
    11527.377500       0.941843
    11540.680900       0.943891
    11554.015000       0.945904
    11567.380000       0.947878
    11580.775900       0.949816
    11594.202900       0.951717
    11607.661100       0.953581
    11621.150500       0.955407
    11634.671300       0.957196
    11648.223600       0.958948
    11661.807600       0.960662
    11675.423200       0.962339
    11689.070700       0.963979
    11702.750100       0.965581
    11716.461600       0.967146
    11730.205300       0.968673
    11743.981200       0.970163
    11757.789500       0.971616
    11771.630400       0.973031
    11785.503800       0.974409
    11799.410000       0.975749
    11813.349100       0.977052
    11827.321100       0.978318
    11841.326200       0.979547
    11855.364600       0.980739
    11869.436200       0.981893
    11883.541300       0.983011
    11897.680000       0.984091
    11911.852300       0.985135
    11926.058400       0.986142
    11940.298500       0.987113
    11954.572600       0.988046
    11968.880900       0.988944
    11983.223500       0.989805
    11997.600500       0.990630
    12012.012000       0.991419
    12026.458200       0.992172
    12040.939200       0.992889
    12055.455100       0.993571
    12070.006000       0.994217
    12084.592100       0.994827
    12099.213600       0.995403
    12113.870400       0.995944
    12128.562800       0.996449
    12143.290800       0.996921
    12158.054700       0.997357
    12172.854500       0.997760
    12187.690400       0.998128
    12202.562500       0.998463
    12217.471000       0.998764
    12232.415900       0.999032
    12247.397400       0.999266
    12262.415700       0.999468
    12277.470800       0.999637
    12292.563000       0.999773
    12307.692300       0.999878
    12322.858900       0.999950
    12338.062900       0.999991
    12353.304500       1.000000
    12368.583800       0.999978
    12383.900900       0.999925
    12399.256000       0.999842
    12414.649300       0.999728
    12430.080800       0.999585
    12445.550700       0.999411
    12461.059200       0.999208
    12476.606400       0.998976
    12492.192400       0.998716
    12507.817400       0.998426
    12523.481500       0.998109
    12539.185000       0.997764
    12554.927800       0.997391
    12570.710200       0.996991
    12586.532400       0.996564
    12602.394500       0.996111
    12618.296500       0.995631
    12634.238800       0.995126
    12650.221400       0.994595
    12666.244500       0.994040
    12682.308200       0.993459
    12698.412700       0.992854
    12714.558200       0.992226
    12730.744700       0.991573
    12746.972600       0.990897
    12763.241900       0.990199
    12779.552700       0.989478
    12795.905300       0.988735
    12812.299800       0.987970
    12828.736400       0.987184
    12845.215200       0.986377
    12861.736300       0.985550
    12878.300100       0.984702
    12894.906500       0.983835
    12911.555800       0.982949
    12928.248200       0.982044
    12944.983800       0.981120
    12961.762800       0.980179
    12978.585300       0.979219
    12995.451600       0.978243
    13012.361700       0.977250
    13029.316000       0.976240
    13046.314400       0.975215
    13063.357300       0.974174
    13080.444700       0.973119
    13097.576900       0.972048
    13114.754100       0.970964
    13131.976400       0.969866
    13149.243900       0.968754
    13166.556900       0.967630
    13183.915600       0.966494
    13201.320100       0.965345
    13218.770700       0.964185
    13236.267400       0.963014
    13253.810500       0.961832
    13271.400100       0.960641
    13289.036500       0.959439
    13306.719900       0.958229
    13324.450400       0.957009
    13342.228200       0.955781
    13360.053400       0.954546
    13377.926400       0.953303
    13395.847300       0.952053
    13413.816200       0.950796
    13431.833400       0.949534
    13449.899100       0.948265
    13468.013500       0.946992
    13486.176700       0.945714
    13504.388900       0.944431
    13522.650400       0.943145
    13540.961400       0.941856
    13559.322000       0.940563
    13577.732500       0.939268
    13596.193100       0.937971
    13614.703900       0.936672
    13633.265200       0.935373
    13651.877100       0.934072
    13670.540000       0.932772
    13689.253900       0.931471
    13708.019200       0.930171
    13726.836000       0.928872
    13745.704500       0.927575
    13764.624900       0.926279
    13783.597500       0.924986
    13802.622500       0.923696
    13821.700100       0.922408
    13840.830400       0.921125
    13860.013900       0.919845
    13879.250500       0.918570
    13898.540700       0.917300
    13917.884500       0.916035
    13937.282200       0.914775
    13956.734100       0.913522
    13976.240400       0.912275
    13995.801300       0.911035
    14015.417000       0.909803
    14035.087700       0.908578
    14054.813800       0.907361
    14074.595400       0.906152
    14094.432700       0.904952
    14114.326000       0.903762
    14134.275600       0.902581
    14154.281700       0.901410
    14174.344400       0.900249
    14194.464200       0.899099
    14214.641100       0.897959
    14234.875400       0.896831
    14255.167500       0.895715
    14275.517500       0.894611
    14295.925700       0.893519
    14316.392300       0.892440
    14336.917600       0.891373
    14357.501800       0.890320
    14378.145200       0.889281
    14398.848100       0.888256
    14419.610700       0.887244
    14440.433200       0.886248
    14461.316000       0.885266
    14482.259200       0.884299
    14503.263200       0.883347
    14524.328200       0.882411
    14545.454500       0.881491
    14566.642400       0.880588
    14587.892000       0.879700
    14609.203800       0.878829
    14630.577900       0.877975
    14652.014700       0.877138
    14673.514300       0.876319
    14695.077100       0.875517
    14716.703500       0.874733
    14738.393500       0.873966
    14760.147600       0.873218
    14781.966000       0.872489
    14803.849000       0.871777
    14825.796900       0.871085
    14847.809900       0.870411
    14869.888500       0.869756
    14892.032800       0.869121
    14914.243100       0.868505
    14936.519800       0.867908
    14958.863100       0.867331
    14981.273400       0.866773
    15003.750900       0.866235
    15026.296000       0.865717
    15048.909000       0.865219
    15071.590100       0.864742
    15094.339600       0.864284
    15117.158000       0.863847
    15140.045400       0.863429
    15163.002300       0.863033
    15186.028900       0.862656
    15209.125500       0.862300
    15232.292500       0.861964
    15255.530100       0.861649
    15278.838800       0.861354
    15302.218800       0.861080
    15325.670500       0.860826
    15349.194200       0.860592
    15372.790200       0.860379
    15396.458800       0.860186
    15420.200500       0.860014
    15444.015400       0.859861
    15467.904100       0.859729
    15491.866800       0.859617
    15515.903800       0.859525
    15540.015500       0.859453
    15564.202300       0.859400
    15588.464500       0.859367
    15612.802500       0.859354
    15637.216600       0.859360
    15661.707100       0.859385
    15686.274500       0.859430
    15710.919100       0.859493
    15735.641200       0.859575
    15760.441300       0.859676
    15785.319700       0.859795
    15810.276700       0.859932
    15835.312700       0.860087
    15860.428200       0.860260
    15885.623500       0.860450
    15910.899000       0.860658
    15936.255000       0.860882
    15961.691900       0.861124
    15987.210200       0.861381
    16012.810200       0.861655
    16038.492400       0.861945
    16064.257000       0.862250
    16090.104600       0.862570
    16116.035500       0.862905
    16142.050000       0.863255
    16168.148700       0.863619
    16194.332000       0.863997
    16220.600200       0.864388
    16246.953700       0.864792
    16273.393000       0.865209
    16299.918500       0.865638
    16326.530600       0.866080
    16353.229800       0.866532
    16380.016400       0.866996
    16406.890900       0.867470
    16433.853700       0.867955
    16460.905300       0.868449
    16488.046200       0.868952
    16515.276600       0.869464
    16542.597200       0.869984
    16570.008300       0.870512
    16597.510400       0.871047
    16625.103900       0.871589
    16652.789300       0.872137
    16680.567100       0.872691
    16708.437800       0.873249
    16736.401700       0.873812
    16764.459300       0.874380
    16792.611300       0.874950
    16820.857900       0.875524
    16849.199700       0.876099
    16877.637100       0.876676
    16906.170800       0.877254
    16934.801000       0.877833
    16963.528400       0.878411
    16992.353400       0.878988
    17021.276600       0.879563
    17050.298400       0.880137
    17079.419300       0.880707
    17108.639900       0.881274
    17137.960600       0.881836
    17167.382000       0.882394
    17196.904600       0.882946
    17226.528900       0.883491
    17256.255400       0.884029
    17286.084700       0.884560
    17316.017300       0.885082
    17346.053800       0.885594
    17376.194600       0.886097
    17406.440400       0.886588
    17436.791600       0.887069
    17467.248900       0.887536
    17497.812800       0.887991
    17528.483800       0.888432
    17559.262500       0.888858
    17590.149500       0.889268
    17621.145400       0.889662
    17652.250700       0.890039
    17683.466000       0.890398
