97,   97, MVIRI VIS channel from srf_MET5_2003123_2003124_1801-Release_S10EL_10.dat
Number of data points:
806
Wavenumber (cm-1)   Filter response
     8350.730700       0.000000
     8357.710000       0.000000
     8364.701000       0.000000
     8371.703600       0.000002
     8378.718100       0.000004
     8385.744200       0.000009
     8392.782200       0.000017
     8399.832000       0.000028
     8406.893700       0.000042
     8413.967200       0.000061
     8421.052600       0.000085
     8428.150000       0.000114
     8435.259400       0.000148
     8442.380800       0.000189
     8449.514200       0.000236
     8456.659600       0.000291
     8463.817200       0.000353
     8470.986900       0.000422
     8478.168700       0.000500
     8485.362700       0.000586
     8492.569000       0.000682
     8499.787500       0.000786
     8507.018300       0.000900
     8514.261400       0.001024
     8521.516800       0.001158
     8528.784600       0.001303
     8536.064900       0.001458
     8543.357500       0.001625
     8550.662700       0.001802
     8557.980300       0.001991
     8565.310500       0.002192
     8572.653200       0.002406
     8580.008600       0.002631
     8587.376600       0.002869
     8594.757200       0.003119
     8602.150500       0.003383
     8609.556600       0.003660
     8616.975400       0.003950
     8624.407100       0.004253
     8631.851500       0.004571
     8639.308900       0.004902
     8646.779100       0.005247
     8654.262200       0.005607
     8661.758300       0.005981
     8669.267400       0.006370
     8676.789600       0.006773
     8684.324800       0.007191
     8691.873100       0.007625
     8699.434500       0.008073
     8707.009100       0.008538
     8714.596900       0.009017
     8722.198000       0.009512
     8729.812300       0.010023
     8737.439900       0.010550
     8745.080900       0.011093
     8752.735200       0.011653
     8760.403000       0.012228
     8768.084200       0.012820
     8775.778900       0.013429
     8783.487000       0.014054
     8791.208800       0.014696
     8798.944100       0.015355
     8806.693100       0.016031
     8814.455700       0.016725
     8822.232000       0.017435
     8830.022100       0.018163
     8837.825900       0.018909
     8845.643500       0.019672
     8853.475000       0.020453
     8861.320300       0.021252
     8869.179600       0.022068
     8877.052800       0.022903
     8884.940000       0.023756
     8892.841300       0.024627
     8900.756600       0.025517
     8908.686000       0.026425
     8916.629500       0.027352
     8924.587200       0.028297
     8932.559200       0.029261
     8940.545400       0.030245
     8948.545900       0.031247
     8956.560700       0.032268
     8964.589900       0.033308
     8972.633500       0.034368
     8980.691500       0.035448
     8988.764000       0.036546
     8996.851100       0.037665
     9004.952700       0.038803
     9013.068900       0.039961
     9021.199800       0.041139
     9029.345400       0.042337
     9037.505600       0.043555
     9045.680700       0.044793
     9053.870500       0.046051
     9062.075200       0.047330
     9070.294800       0.048630
     9078.529300       0.049950
     9086.778700       0.051291
     9095.043200       0.052652
     9103.322700       0.054035
     9111.617300       0.055439
     9119.927000       0.056863
     9128.251900       0.058309
     9136.592100       0.059776
     9144.947400       0.061264
     9153.318100       0.062774
     9161.704100       0.064305
     9170.105500       0.065858
     9178.522300       0.067433
     9186.954500       0.069029
     9195.402300       0.070648
     9203.865600       0.072288
     9212.344500       0.073950
     9220.839100       0.075635
     9229.349300       0.077341
     9237.875300       0.079070
     9246.417000       0.080822
     9254.974500       0.082596
     9263.547900       0.084392
     9272.137200       0.086211
     9280.742500       0.088052
     9289.363700       0.089916
     9298.000900       0.091804
     9306.654300       0.093714
     9315.323700       0.095646
     9324.009300       0.097602
     9332.711200       0.099582
     9341.429200       0.101583
     9350.163600       0.103609
     9358.914400       0.105657
     9367.681500       0.107729
     9376.465100       0.109824
     9385.265100       0.111943
     9394.081700       0.114085
     9402.914900       0.116250
     9411.764700       0.118439
     9420.631200       0.120651
     9429.514400       0.122887
     9438.414300       0.125147
     9447.331100       0.127430
     9456.264800       0.129738
     9465.215300       0.132068
     9474.182900       0.134423
     9483.167400       0.136801
     9492.169000       0.139203
     9501.187600       0.141629
     9510.223500       0.144079
     9519.276500       0.146552
     9528.346800       0.149050
     9537.434400       0.151571
     9546.539400       0.154116
     9555.661700       0.156685
     9564.801500       0.159277
     9573.958800       0.161894
     9583.133700       0.164534
     9592.326100       0.167198
     9601.536200       0.169886
     9610.764100       0.172597
     9620.009600       0.175333
     9629.273000       0.178092
     9638.554200       0.180874
     9647.853400       0.183680
     9657.170400       0.186510
     9666.505600       0.189363
     9675.858700       0.192240
     9685.230000       0.195140
     9694.619500       0.198064
     9704.027200       0.201010
     9713.453100       0.203980
     9722.897400       0.206974
     9732.360100       0.209990
     9741.841200       0.213029
     9751.340800       0.216091
     9760.859000       0.219177
     9770.395700       0.222285
     9779.951100       0.225415
     9789.525200       0.228568
     9799.118100       0.231744
     9808.729800       0.234942
     9818.360300       0.238162
     9828.009800       0.241405
     9837.678300       0.244669
     9847.365800       0.247956
     9857.072400       0.251264
     9866.798200       0.254594
     9876.543200       0.257945
     9886.307500       0.261318
     9896.091000       0.264712
     9905.894000       0.268127
     9915.716400       0.271563
     9925.558300       0.275020
     9935.419800       0.278497
     9945.300800       0.281996
     9955.201600       0.285514
     9965.122100       0.289052
     9975.062300       0.292610
     9985.022500       0.296189
     9995.002500       0.299786
    10005.002500       0.303403
    10015.022500       0.307040
    10025.062700       0.310695
    10035.122900       0.314369
    10045.203400       0.318062
    10055.304200       0.321773
    10065.425300       0.325502
    10075.566800       0.329249
    10085.728700       0.333014
    10095.911200       0.336797
    10106.114200       0.340597
    10116.337900       0.344413
    10126.582300       0.348247
    10136.847400       0.352097
    10147.133400       0.355963
    10157.440300       0.359846
    10167.768200       0.363744
    10178.117000       0.367658
    10188.487000       0.371587
    10198.878100       0.375531
    10209.290500       0.379490
    10219.724100       0.383463
    10230.179000       0.387450
    10240.655400       0.391452
    10251.153300       0.395467
    10261.672700       0.399495
    10272.213700       0.403536
    10282.776300       0.407590
    10293.360800       0.411657
    10303.967000       0.415735
    10314.595200       0.419826
    10325.245200       0.423927
    10335.917300       0.428041
    10346.611500       0.432165
    10357.327800       0.436299
    10368.066400       0.440444
    10378.827200       0.444598
    10389.610400       0.448762
    10400.416000       0.452936
    10411.244100       0.457118
    10422.094800       0.461309
    10432.968200       0.465508
    10443.864200       0.469715
    10454.783100       0.473929
    10465.724800       0.478151
    10476.689400       0.482379
    10487.677000       0.486614
    10498.687700       0.490855
    10509.721500       0.495101
    10520.778500       0.499353
    10531.858900       0.503610
    10542.962600       0.507872
    10554.089700       0.512137
    10565.240400       0.516407
    10576.414600       0.520680
    10587.612500       0.524956
    10598.834100       0.529236
    10610.079600       0.533517
    10621.348900       0.537800
    10632.642200       0.542085
    10643.959600       0.546371
    10655.301000       0.550658
    10666.666700       0.554945
    10678.056600       0.559233
    10689.470900       0.563520
    10700.909600       0.567806
    10712.372800       0.572091
    10723.860600       0.576374
    10735.373100       0.580656
    10746.910300       0.584935
    10758.472300       0.589211
    10770.059200       0.593484
    10781.671200       0.597754
    10793.308100       0.602019
    10804.970300       0.606281
    10816.657700       0.610537
    10828.370300       0.614788
    10840.108400       0.619034
    10851.871900       0.623274
    10863.661100       0.627507
    10875.475800       0.631733
    10887.316300       0.635952
    10899.182600       0.640164
    10911.074700       0.644367
    10922.992900       0.648562
    10934.937100       0.652748
    10946.907500       0.656925
    10958.904100       0.661092
    10970.927000       0.665249
    10982.976400       0.669395
    10995.052200       0.673531
    11007.154700       0.677655
    11019.283700       0.681768
    11031.439600       0.685868
    11043.622300       0.689956
    11055.832000       0.694031
    11068.068600       0.698093
    11080.332400       0.702141
    11092.623400       0.706175
    11104.941700       0.710194
    11117.287400       0.714198
    11129.660500       0.718187
    11142.061300       0.722160
    11154.489700       0.726118
    11166.945800       0.730058
    11179.429800       0.733982
    11191.941800       0.737889
    11204.481800       0.741778
    11217.049900       0.745649
    11229.646300       0.749501
    11242.270900       0.753335
    11254.924000       0.757149
    11267.605600       0.760944
    11280.315800       0.764719
    11293.054800       0.768474
    11305.822500       0.772208
    11318.619100       0.775921
    11331.444800       0.779613
    11344.299500       0.783283
    11357.183400       0.786931
    11370.096600       0.790556
    11383.039300       0.794159
    11396.011400       0.797739
    11409.013100       0.801295
    11422.044500       0.804827
    11435.105800       0.808335
    11448.196900       0.811819
    11461.318100       0.815277
    11474.469300       0.818711
    11487.650800       0.822119
    11500.862600       0.825502
    11514.104800       0.828858
    11527.377500       0.832188
    11540.680900       0.835491
    11554.015000       0.838767
    11567.380000       0.842016
    11580.775900       0.845237
    11594.202900       0.848430
    11607.661100       0.851596
    11621.150500       0.854732
    11634.671300       0.857840
    11648.223600       0.860919
    11661.807600       0.863968
    11675.423200       0.866988
    11689.070700       0.869979
    11702.750100       0.872939
    11716.461600       0.875868
    11730.205300       0.878767
    11743.981200       0.881636
    11757.789500       0.884473
    11771.630400       0.887279
    11785.503800       0.890053
    11799.410000       0.892796
    11813.349100       0.895507
    11827.321100       0.898185
    11841.326200       0.900831
    11855.364600       0.903445
    11869.436200       0.906026
    11883.541300       0.908574
    11897.680000       0.911088
    11911.852300       0.913570
    11926.058400       0.916018
    11940.298500       0.918432
    11954.572600       0.920812
    11968.880900       0.923158
    11983.223500       0.925470
    11997.600500       0.927748
    12012.012000       0.929992
    12026.458200       0.932200
    12040.939200       0.934375
    12055.455100       0.936514
    12070.006000       0.938618
    12084.592100       0.940687
    12099.213600       0.942721
    12113.870400       0.944720
    12128.562800       0.946684
    12143.290800       0.948612
    12158.054700       0.950504
    12172.854500       0.952361
    12187.690400       0.954182
    12202.562500       0.955967
    12217.471000       0.957717
    12232.415900       0.959430
    12247.397400       0.961108
    12262.415700       0.962750
    12277.470800       0.964356
    12292.563000       0.965925
    12307.692300       0.967459
    12322.858900       0.968957
    12338.062900       0.970418
    12353.304500       0.971844
    12368.583800       0.973233
    12383.900900       0.974586
    12399.256000       0.975903
    12414.649300       0.977185
    12430.080800       0.978430
    12445.550700       0.979639
    12461.059200       0.980812
    12476.606400       0.981950
    12492.192400       0.983052
    12507.817400       0.984117
    12523.481500       0.985147
    12539.185000       0.986142
    12554.927800       0.987101
    12570.710200       0.988024
    12586.532400       0.988912
    12602.394500       0.989764
    12618.296500       0.990582
    12634.238800       0.991364
    12650.221400       0.992112
    12666.244500       0.992824
    12682.308200       0.993502
    12698.412700       0.994145
    12714.558200       0.994753
    12730.744700       0.995327
    12746.972600       0.995867
    12763.241900       0.996373
    12779.552700       0.996846
    12795.905300       0.997284
    12812.299800       0.997689
    12828.736400       0.998060
    12845.215200       0.998398
    12861.736300       0.998704
    12878.300100       0.998976
    12894.906500       0.999216
    12911.555800       0.999424
    12928.248200       0.999599
    12944.983800       0.999742
    12961.762800       0.999854
    12978.585300       0.999934
    12995.451600       0.999982
    13012.361700       1.000000
    13029.316000       0.999987
    13046.314400       0.999943
    13063.357300       0.999869
    13080.444700       0.999765
    13097.576900       0.999631
    13114.754100       0.999468
    13131.976400       0.999275
    13149.243900       0.999053
    13166.556900       0.998803
    13183.915600       0.998524
    13201.320100       0.998217
    13218.770700       0.997883
    13236.267400       0.997520
    13253.810500       0.997131
    13271.400100       0.996715
    13289.036500       0.996272
    13306.719900       0.995803
    13324.450400       0.995307
    13342.228200       0.994787
    13360.053400       0.994241
    13377.926400       0.993670
    13395.847300       0.993074
    13413.816200       0.992454
    13431.833400       0.991810
    13449.899100       0.991143
    13468.013500       0.990452
    13486.176700       0.989739
    13504.388900       0.989003
    13522.650400       0.988245
    13540.961400       0.987465
    13559.322000       0.986663
    13577.732500       0.985841
    13596.193100       0.984998
    13614.703900       0.984135
    13633.265200       0.983252
    13651.877100       0.982349
    13670.540000       0.981427
    13689.253900       0.980486
    13708.019200       0.979527
    13726.836000       0.978551
    13745.704500       0.977556
    13764.624900       0.976544
    13783.597500       0.975516
    13802.622500       0.974471
    13821.700100       0.973411
    13840.830400       0.972335
    13860.013900       0.971243
    13879.250500       0.970137
    13898.540700       0.969017
    13917.884500       0.967883
    13937.282200       0.966735
    13956.734100       0.965574
    13976.240400       0.964400
    13995.801300       0.963215
    14015.417000       0.962017
    14035.087700       0.960808
    14054.813800       0.959588
    14074.595400       0.958358
    14094.432700       0.957117
    14114.326000       0.955867
    14134.275600       0.954607
    14154.281700       0.953338
    14174.344400       0.952061
    14194.464200       0.950776
    14214.641100       0.949483
    14234.875400       0.948183
    14255.167500       0.946876
    14275.517500       0.945563
    14295.925700       0.944244
    14316.392300       0.942919
    14336.917600       0.941590
    14357.501800       0.940255
    14378.145200       0.938916
    14398.848100       0.937574
    14419.610700       0.936228
    14440.433200       0.934878
    14461.316000       0.933526
    14482.259200       0.932172
    14503.263200       0.930816
    14524.328200       0.929459
    14545.454500       0.928100
    14566.642400       0.926741
    14587.892000       0.925382
    14609.203800       0.924022
    14630.577900       0.922663
    14652.014700       0.921306
    14673.514300       0.919949
    14695.077100       0.918594
    14716.703500       0.917241
    14738.393500       0.915891
    14760.147600       0.914543
    14781.966000       0.913198
    14803.849000       0.911857
    14825.796900       0.910520
    14847.809900       0.909187
    14869.888500       0.907859
    14892.032800       0.906536
    14914.243100       0.905217
    14936.519800       0.903905
    14958.863100       0.902599
    14981.273400       0.901298
    15003.750900       0.900005
    15026.296000       0.898718
    15048.909000       0.897439
    15071.590100       0.896167
    15094.339600       0.894903
    15117.158000       0.893647
    15140.045400       0.892400
    15163.002300       0.891161
    15186.028900       0.889932
    15209.125500       0.888712
    15232.292500       0.887501
    15255.530100       0.886301
    15278.838800       0.885110
    15302.218800       0.883930
    15325.670500       0.882761
    15349.194200       0.881602
    15372.790200       0.880455
    15396.458800       0.879319
    15420.200500       0.878194
    15444.015400       0.877081
    15467.904100       0.875981
    15491.866800       0.874892
    15515.903800       0.873816
    15540.015500       0.872753
    15564.202300       0.871702
    15588.464500       0.870665
    15612.802500       0.869640
    15637.216600       0.868629
    15661.707100       0.867631
    15686.274500       0.866647
    15710.919100       0.865676
    15735.641200       0.864720
    15760.441300       0.863777
    15785.319700       0.862849
    15810.276700       0.861934
    15835.312700       0.861034
    15860.428200       0.860149
    15885.623500       0.859278
    15910.899000       0.858421
    15936.255000       0.857579
    15961.691900       0.856752
    15987.210200       0.855939
    16012.810200       0.855141
    16038.492400       0.854358
    16064.257000       0.853590
    16090.104600       0.852837
    16116.035500       0.852098
    16142.050000       0.851374
    16168.148700       0.850665
    16194.332000       0.849971
    16220.600200       0.849291
    16246.953700       0.848627
    16273.393000       0.847976
    16299.918500       0.847341
    16326.530600       0.846720
    16353.229800       0.846113
    16380.016400       0.845521
    16406.890900       0.844943
    16433.853700       0.844379
    16460.905300       0.843829
    16488.046200       0.843293
    16515.276600       0.842770
    16542.597200       0.842261
    16570.008300       0.841766
    16597.510400       0.841284
    16625.103900       0.840815
    16652.789300       0.840359
    16680.567100       0.839915
    16708.437800       0.839484
    16736.401700       0.839066
    16764.459300       0.838659
    16792.611300       0.838264
    16820.857900       0.837881
    16849.199700       0.837509
    16877.637100       0.837148
    16906.170800       0.836797
    16934.801000       0.836457
    16963.528400       0.836128
    16992.353400       0.835808
    17021.276600       0.835497
    17050.298400       0.835196
    17079.419300       0.834904
    17108.639900       0.834620
    17137.960600       0.834344
    17167.382000       0.834076
    17196.904600       0.833815
    17226.528900       0.833561
    17256.255400       0.833314
    17286.084700       0.833073
