22,   22, MVIRI VIS channel from srf_MET7_2000123_2000124_1801-Release_S10EE_10.dat
Number of data points:
793
Wavenumber (cm-1)   Filter response
     8442.380800       0.000000
     8449.514200       0.000000
     8456.659600       0.000004
     8463.817200       0.000053
     8470.986900       0.000156
     8478.168700       0.000312
     8485.362700       0.000519
     8492.569000       0.000776
     8499.787500       0.001081
     8507.018300       0.001433
     8514.261400       0.001831
     8521.516800       0.002274
     8528.784600       0.002759
     8536.064900       0.003286
     8543.357500       0.003854
     8550.662700       0.004462
     8557.980300       0.005108
     8565.310500       0.005792
     8572.653200       0.006512
     8580.008600       0.007268
     8587.376600       0.008058
     8594.757200       0.008883
     8602.150500       0.009740
     8609.556600       0.010630
     8616.975400       0.011550
     8624.407100       0.012502
     8631.851500       0.013484
     8639.308900       0.014494
     8646.779100       0.015534
     8654.262200       0.016601
     8661.758300       0.017696
     8669.267400       0.018818
     8676.789600       0.019966
     8684.324800       0.021140
     8691.873100       0.022340
     8699.434500       0.023564
     8707.009100       0.024813
     8714.596900       0.026086
     8722.198000       0.027383
     8729.812300       0.028704
     8737.439900       0.030047
     8745.080900       0.031413
     8752.735200       0.032802
     8760.403000       0.034212
     8768.084200       0.035645
     8775.778900       0.037100
     8783.487000       0.038575
     8791.208800       0.040072
     8798.944100       0.041591
     8806.693100       0.043130
     8814.455700       0.044690
     8822.232000       0.046271
     8830.022100       0.047872
     8837.825900       0.049494
     8845.643500       0.051136
     8853.475000       0.052798
     8861.320300       0.054481
     8869.179600       0.056183
     8877.052800       0.057906
     8884.940000       0.059649
     8892.841300       0.061411
     8900.756600       0.063194
     8908.686000       0.064997
     8916.629500       0.066820
     8924.587200       0.068663
     8932.559200       0.070525
     8940.545400       0.072408
     8948.545900       0.074311
     8956.560700       0.076234
     8964.589900       0.078178
     8972.633500       0.080141
     8980.691500       0.082125
     8988.764000       0.084129
     8996.851100       0.086153
     9004.952700       0.088198
     9013.068900       0.090264
     9021.199800       0.092350
     9029.345400       0.094457
     9037.505600       0.096585
     9045.680700       0.098733
     9053.870500       0.100903
     9062.075200       0.103093
     9070.294800       0.105305
     9078.529300       0.107538
     9086.778700       0.109792
     9095.043200       0.112068
     9103.322700       0.114365
     9111.617300       0.116684
     9119.927000       0.119024
     9128.251900       0.121387
     9136.592100       0.123771
     9144.947400       0.126177
     9153.318100       0.128606
     9161.704100       0.131056
     9170.105500       0.133529
     9178.522300       0.136024
     9186.954500       0.138542
     9195.402300       0.141082
     9203.865600       0.143645
     9212.344500       0.146230
     9220.839100       0.148839
     9229.349300       0.151469
     9237.875300       0.154124
     9246.417000       0.156800
     9254.974500       0.159500
     9263.547900       0.162224
     9272.137200       0.164970
     9280.742500       0.167739
     9289.363700       0.170532
     9298.000900       0.173348
     9306.654300       0.176187
     9315.323700       0.179050
     9324.009300       0.181936
     9332.711200       0.184846
     9341.429200       0.187779
     9350.163600       0.190735
     9358.914400       0.193715
     9367.681500       0.196719
     9376.465100       0.199746
     9385.265100       0.202796
     9394.081700       0.205870
     9402.914900       0.208967
     9411.764700       0.212088
     9420.631200       0.215233
     9429.514400       0.218400
     9438.414300       0.221591
     9447.331100       0.224805
     9456.264800       0.228043
     9465.215300       0.231304
     9474.182900       0.234587
     9483.167400       0.237895
     9492.169000       0.241224
     9501.187600       0.244577
     9510.223500       0.247953
     9519.276500       0.251351
     9528.346800       0.254773
     9537.434400       0.258216
     9546.539400       0.261682
     9555.661700       0.265171
     9564.801500       0.268681
     9573.958800       0.272214
     9583.133700       0.275769
     9592.326100       0.279345
     9601.536200       0.282943
     9610.764100       0.286562
     9620.009600       0.290204
     9629.273000       0.293866
     9638.554200       0.297549
     9647.853400       0.301253
     9657.170400       0.304977
     9666.505600       0.308722
     9675.858700       0.312487
     9685.230000       0.316272
     9694.619500       0.320078
     9704.027200       0.323902
     9713.453100       0.327746
     9722.897400       0.331610
     9732.360100       0.335492
     9741.841200       0.339393
     9751.340800       0.343312
     9760.859000       0.347250
     9770.395700       0.351206
     9779.951100       0.355179
     9789.525200       0.359170
     9799.118100       0.363178
     9808.729800       0.367202
     9818.360300       0.371244
     9828.009800       0.375301
     9837.678300       0.379375
     9847.365800       0.383464
     9857.072400       0.387569
     9866.798200       0.391689
     9876.543200       0.395824
     9886.307500       0.399973
     9896.091000       0.404136
     9905.894000       0.408313
     9915.716400       0.412504
     9925.558300       0.416707
     9935.419800       0.420924
     9945.300800       0.425153
     9955.201600       0.429394
     9965.122100       0.433647
     9975.062300       0.437911
     9985.022500       0.442186
     9995.002500       0.446473
    10005.002500       0.450769
    10015.022500       0.455075
    10025.062700       0.459390
    10035.122900       0.463715
    10045.203400       0.468048
    10055.304200       0.472390
    10065.425300       0.476739
    10075.566800       0.481097
    10085.728700       0.485461
    10095.911200       0.489832
    10106.114200       0.494209
    10116.337900       0.498593
    10126.582300       0.502981
    10136.847400       0.507375
    10147.133400       0.511774
    10157.440300       0.516177
    10167.768200       0.520583
    10178.117000       0.524993
    10188.487000       0.529406
    10198.878100       0.533822
    10209.290500       0.538239
    10219.724100       0.542658
    10230.179000       0.547078
    10240.655400       0.551500
    10251.153300       0.555921
    10261.672700       0.560342
    10272.213700       0.564763
    10282.776300       0.569183
    10293.360800       0.573601
    10303.967000       0.578017
    10314.595200       0.582431
    10325.245200       0.586842
    10335.917300       0.591250
    10346.611500       0.595654
    10357.327800       0.600054
    10368.066400       0.604450
    10378.827200       0.608840
    10389.610400       0.613225
    10400.416000       0.617603
    10411.244100       0.621975
    10422.094800       0.626341
    10432.968200       0.630698
    10443.864200       0.635049
    10454.783100       0.639390
    10465.724800       0.643723
    10476.689400       0.648047
    10487.677000       0.652362
    10498.687700       0.656666
    10509.721500       0.660959
    10520.778500       0.665242
    10531.858900       0.669513
    10542.962600       0.673772
    10554.089700       0.678019
    10565.240400       0.682252
    10576.414600       0.686473
    10587.612500       0.690680
    10598.834100       0.694873
    10610.079600       0.699051
    10621.348900       0.703214
    10632.642200       0.707362
    10643.959600       0.711494
    10655.301000       0.715610
    10666.666700       0.719708
    10678.056600       0.723790
    10689.470900       0.727854
    10700.909600       0.731900
    10712.372800       0.735927
    10723.860600       0.739936
    10735.373100       0.743925
    10746.910300       0.747895
    10758.472300       0.751844
    10770.059200       0.755773
    10781.671200       0.759680
    10793.308100       0.763567
    10804.970300       0.767432
    10816.657700       0.771274
    10828.370300       0.775094
    10840.108400       0.778891
    10851.871900       0.782665
    10863.661100       0.786416
    10875.475800       0.790142
    10887.316300       0.793843
    10899.182600       0.797520
    10911.074700       0.801172
    10922.992900       0.804798
    10934.937100       0.808398
    10946.907500       0.811972
    10958.904100       0.815519
    10970.927000       0.819040
    10982.976400       0.822533
    10995.052200       0.825998
    11007.154700       0.829436
    11019.283700       0.832845
    11031.439600       0.836226
    11043.622300       0.839577
    11055.832000       0.842900
    11068.068600       0.846192
    11080.332400       0.849456
    11092.623400       0.852689
    11104.941700       0.855891
    11117.287400       0.859063
    11129.660500       0.862204
    11142.061300       0.865313
    11154.489700       0.868391
    11166.945800       0.871437
    11179.429800       0.874451
    11191.941800       0.877433
    11204.481800       0.880382
    11217.049900       0.883298
    11229.646300       0.886182
    11242.270900       0.889031
    11254.924000       0.891848
    11267.605600       0.894631
    11280.315800       0.897379
    11293.054800       0.900094
    11305.822500       0.902774
    11318.619100       0.905420
    11331.444800       0.908031
    11344.299500       0.910606
    11357.183400       0.913147
    11370.096600       0.915653
    11383.039300       0.918123
    11396.011400       0.920557
    11409.013100       0.922956
    11422.044500       0.925318
    11435.105800       0.927645
    11448.196900       0.929935
    11461.318100       0.932189
    11474.469300       0.934407
    11487.650800       0.936588
    11500.862600       0.938732
    11514.104800       0.940840
    11527.377500       0.942911
    11540.680900       0.944944
    11554.015000       0.946941
    11567.380000       0.948901
    11580.775900       0.950823
    11594.202900       0.952708
    11607.661100       0.954556
    11621.150500       0.956366
    11634.671300       0.958139
    11648.223600       0.959874
    11661.807600       0.961572
    11675.423200       0.963233
    11689.070700       0.964855
    11702.750100       0.966441
    11716.461600       0.967988
    11730.205300       0.969499
    11743.981200       0.970971
    11757.789500       0.972406
    11771.630400       0.973804
    11785.503800       0.975164
    11799.410000       0.976487
    11813.349100       0.977772
    11827.321100       0.979020
    11841.326200       0.980231
    11855.364600       0.981404
    11869.436200       0.982540
    11883.541300       0.983639
    11897.680000       0.984701
    11911.852300       0.985726
    11926.058400       0.986714
    11940.298500       0.987666
    11954.572600       0.988581
    11968.880900       0.989459
    11983.223500       0.990301
    11997.600500       0.991107
    12012.012000       0.991876
    12026.458200       0.992609
    12040.939200       0.993307
    12055.455100       0.993969
    12070.006000       0.994595
    12084.592100       0.995186
    12099.213600       0.995742
    12113.870400       0.996262
    12128.562800       0.996748
    12143.290800       0.997199
    12158.054700       0.997615
    12172.854500       0.997997
    12187.690400       0.998346
    12202.562500       0.998660
    12217.471000       0.998940
    12232.415900       0.999187
    12247.397400       0.999401
    12262.415700       0.999582
    12277.470800       0.999730
    12292.563000       0.999846
    12307.692300       0.999929
    12322.858900       0.999980
    12338.062900       1.000000
    12353.304500       0.999988
    12368.583800       0.999945
    12383.900900       0.999871
    12399.256000       0.999767
    12414.649300       0.999632
    12430.080800       0.999467
    12445.550700       0.999272
    12461.059200       0.999048
    12476.606400       0.998794
    12492.192400       0.998512
    12507.817400       0.998201
    12523.481500       0.997862
    12539.185000       0.997495
    12554.927800       0.997101
    12570.710200       0.996679
    12586.532400       0.996231
    12602.394500       0.995756
    12618.296500       0.995255
    12634.238800       0.994728
    12650.221400       0.994176
    12666.244500       0.993598
    12682.308200       0.992996
    12698.412700       0.992369
    12714.558200       0.991719
    12730.744700       0.991044
    12746.972600       0.990347
    12763.241900       0.989627
    12779.552700       0.988884
    12795.905300       0.988119
    12812.299800       0.987333
    12828.736400       0.986525
    12845.215200       0.985696
    12861.736300       0.984847
    12878.300100       0.983978
    12894.906500       0.983089
    12911.555800       0.982180
    12928.248200       0.981253
    12944.983800       0.980308
    12961.762800       0.979345
    12978.585300       0.978364
    12995.451600       0.977365
    13012.361700       0.976350
    13029.316000       0.975319
    13046.314400       0.974272
    13063.357300       0.973210
    13080.444700       0.972132
    13097.576900       0.971040
    13114.754100       0.969934
    13131.976400       0.968814
    13149.243900       0.967681
    13166.556900       0.966535
    13183.915600       0.965377
    13201.320100       0.964207
    13218.770700       0.963025
    13236.267400       0.961832
    13253.810500       0.960629
    13271.400100       0.959416
    13289.036500       0.958193
    13306.719900       0.956961
    13324.450400       0.955720
    13342.228200       0.954470
    13360.053400       0.953213
    13377.926400       0.951949
    13395.847300       0.950677
    13413.816200       0.949399
    13431.833400       0.948115
    13449.899100       0.946826
    13468.013500       0.945531
    13486.176700       0.944231
    13504.388900       0.942927
    13522.650400       0.941620
    13540.961400       0.940309
    13559.322000       0.938995
    13577.732500       0.937679
    13596.193100       0.936360
    13614.703900       0.935040
    13633.265200       0.933719
    13651.877100       0.932398
    13670.540000       0.931076
    13689.253900       0.929754
    13708.019200       0.928433
    13726.836000       0.927113
    13745.704500       0.925794
    13764.624900       0.924477
    13783.597500       0.923163
    13802.622500       0.921851
    13821.700100       0.920543
    13840.830400       0.919238
    13860.013900       0.917937
    13879.250500       0.916641
    13898.540700       0.915350
    13917.884500       0.914063
    13937.282200       0.912783
    13956.734100       0.911508
    13976.240400       0.910240
    13995.801300       0.908979
    14015.417000       0.907725
    14035.087700       0.906479
    14054.813800       0.905241
    14074.595400       0.904011
    14094.432700       0.902790
    14114.326000       0.901578
    14134.275600       0.900376
    14154.281700       0.899184
    14174.344400       0.898001
    14194.464200       0.896830
    14214.641100       0.895669
    14234.875400       0.894520
    14255.167500       0.893382
    14275.517500       0.892256
    14295.925700       0.891143
    14316.392300       0.890042
    14336.917600       0.888954
    14357.501800       0.887880
    14378.145200       0.886819
    14398.848100       0.885772
    14419.610700       0.884739
    14440.433200       0.883720
    14461.316000       0.882717
    14482.259200       0.881728
    14503.263200       0.880755
    14524.328200       0.879797
    14545.454500       0.878855
    14566.642400       0.877929
    14587.892000       0.877020
    14609.203800       0.876127
    14630.577900       0.875250
    14652.014700       0.874391
    14673.514300       0.873550
    14695.077100       0.872725
    14716.703500       0.871918
    14738.393500       0.871130
    14760.147600       0.870359
    14781.966000       0.869606
    14803.849000       0.868872
    14825.796900       0.868157
    14847.809900       0.867460
    14869.888500       0.866783
    14892.032800       0.866124
    14914.243100       0.865485
    14936.519800       0.864865
    14958.863100       0.864264
    14981.273400       0.863683
    15003.750900       0.863122
    15026.296000       0.862580
    15048.909000       0.862059
    15071.590100       0.861557
    15094.339600       0.861075
    15117.158000       0.860614
    15140.045400       0.860172
    15163.002300       0.859751
    15186.028900       0.859350
    15209.125500       0.858970
    15232.292500       0.858609
    15255.530100       0.858269
    15278.838800       0.857950
    15302.218800       0.857650
    15325.670500       0.857371
    15349.194200       0.857112
    15372.790200       0.856874
    15396.458800       0.856655
    15420.200500       0.856457
    15444.015400       0.856279
    15467.904100       0.856121
    15491.866800       0.855983
    15515.903800       0.855864
    15540.015500       0.855766
    15564.202300       0.855687
    15588.464500       0.855627
    15612.802500       0.855587
    15637.216600       0.855566
    15661.707100       0.855565
    15686.274500       0.855582
    15710.919100       0.855618
    15735.641200       0.855672
    15760.441300       0.855745
    15785.319700       0.855836
    15810.276700       0.855946
    15835.312700       0.856073
    15860.428200       0.856217
    15885.623500       0.856379
    15910.899000       0.856558
    15936.255000       0.856754
    15961.691900       0.856966
    15987.210200       0.857194
    16012.810200       0.857439
    16038.492400       0.857699
    16064.257000       0.857975
    16090.104600       0.858265
    16116.035500       0.858570
    16142.050000       0.858890
    16168.148700       0.859224
    16194.332000       0.859571
    16220.600200       0.859932
    16246.953700       0.860305
    16273.393000       0.860692
    16299.918500       0.861090
    16326.530600       0.861500
    16353.229800       0.861921
    16380.016400       0.862353
    16406.890900       0.862796
    16433.853700       0.863248
    16460.905300       0.863711
    16488.046200       0.864182
    16515.276600       0.864661
    16542.597200       0.865149
    16570.008300       0.865645
    16597.510400       0.866147
    16625.103900       0.866656
    16652.789300       0.867171
    16680.567100       0.867692
    16708.437800       0.868217
    16736.401700       0.868747
    16764.459300       0.869280
    16792.611300       0.869817
    16820.857900       0.870357
    16849.199700       0.870898
    16877.637100       0.871442
    16906.170800       0.871985
    16934.801000       0.872530
    16963.528400       0.873073
    16992.353400       0.873616
    17021.276600       0.874157
    17050.298400       0.874696
    17079.419300       0.875231
    17108.639900       0.875763
    17137.960600       0.876291
    17167.382000       0.876813
    17196.904600       0.877330
    17226.528900       0.877840
    17256.255400       0.878343
    17286.084700       0.878838
    17316.017300       0.879325
    17346.053800       0.879802
    17376.194600       0.880269
    17406.440400       0.880725
    17436.791600       0.881170
    17467.248900       0.881602
    17497.812800       0.882021
    17528.483800       0.882426
    17559.262500       0.882817
    17590.149500       0.883191
    17621.145400       0.883550
    17652.250700       0.883891
    17683.466000       0.884215
