9,    JPSS-2 VIIRS M7 0.87 mu  SRF version 2 (V2) July 2019 J2_VIIRS_RSR_M7_BA_Fused_V2F.txt
Number of data points:
247
Wavenumber (cm-1)   Filter response
    10780.474000       0.000028
    10806.009400       0.000039
    10815.429300       0.000041
    10830.235000       0.000050
    10844.211000       0.000062
    10855.512000       0.000073
    10864.770500       0.000083
    10879.901100       0.000102
    10879.948500       0.000101
    10888.395000       0.000115
    10888.418800       0.000115
    10902.058100       0.000142
    10904.566500       0.000147
    10913.253800       0.000168
    10923.267300       0.000193
    10938.011000       0.000242
    10951.559100       0.000300
    10962.952900       0.000358
    10971.793700       0.000423
    10987.477600       0.000540
    10988.479700       0.000509
    10995.608400       0.000590
    10995.850200       0.000622
    11003.557500       0.000679
    11006.015900       0.000692
    11009.966200       0.000792
    11014.016400       0.000789
    11021.190400       0.000972
    11028.933300       0.001089
    11030.916300       0.001144
    11031.025900       0.001154
    11037.978400       0.001321
    11045.391000       0.001512
    11045.635000       0.001519
    11053.241300       0.001759
    11055.575300       0.001842
    11059.439000       0.001989
    11063.513400       0.002154
    11070.886900       0.002523
    11070.960400       0.002523
    11078.601600       0.002939
    11080.099100       0.003071
    11080.479700       0.003061
    11087.421000       0.003553
    11095.084900       0.004162
    11095.577300       0.004267
    11096.956300       0.004322
    11104.029200       0.005090
    11109.259600       0.005739
    11113.222600       0.006232
    11120.353400       0.007411
    11120.439900       0.007463
    11122.035400       0.007703
    11129.871100       0.009309
    11129.957800       0.009310
    11137.085300       0.011094
    11144.880100       0.013549
    11145.426600       0.013702
    11146.706300       0.014159
    11153.394900       0.017335
    11153.556600       0.016871
    11163.031600       0.021771
    11170.151600       0.026485
    11170.713100       0.026765
    11178.030300       0.033188
    11178.917500       0.034822
    11179.567300       0.034719
    11179.642300       0.034812
    11187.108900       0.043077
    11187.121400       0.043093
    11194.422500       0.054146
    11194.572900       0.054322
    11195.287200       0.055549
    11196.565800       0.057863
    11203.603100       0.071956
    11204.318600       0.074414
    11212.823900       0.097312
    11220.183800       0.125683
    11220.385200       0.125569
    11227.818000       0.158735
    11229.255400       0.169316
    11229.595800       0.168778
    11237.003000       0.215990
    11244.217700       0.273773
    11245.317700       0.283604
    11246.481300       0.290959
    11253.809400       0.363197
    11262.491500       0.456159
    11270.831300       0.554512
    11279.450600       0.656112
    11287.331400       0.740118
    11294.712900       0.810327
    11302.321300       0.866932
    11304.212200       0.878925
    11312.268400       0.920518
    11320.771800       0.951079
    11328.248500       0.967391
    11335.555100       0.977793
    11337.392900       0.979181
    11344.994500       0.983252
    11352.284100       0.986020
    11360.305700       0.986950
    11367.899300       0.986974
    11370.846500       0.987251
    11378.298900       0.986996
    11385.773900       0.987363
    11393.505500       0.988622
    11395.388100       0.988871
    11403.067700       0.990270
    11410.458100       0.991885
    11418.327600       0.994037
    11426.482000       0.995940
    11428.715100       0.996361
    11436.348100       0.997898
    11443.939000       0.998812
    11443.965200       0.998935
    11445.288100       0.999111
    11451.684200       0.999670
    11453.494200       0.999810
    11461.147300       0.999912
    11469.849800       1.000000
    11478.025300       0.999432
    11485.170300       0.998765
    11486.568800       0.998849
    11494.622800       0.998236
    11502.463300       0.997811
    11510.009700       0.997647
    11517.977300       0.998044
    11525.796500       0.998412
    11528.161600       0.998561
    11535.914800       0.998966
    11543.065400       0.999157
    11550.825400       0.999557
    11552.666900       0.999425
    11560.479800       0.999504
    11568.102600       0.998961
    11575.842600       0.998183
    11583.834500       0.996977
    11586.075900       0.996540
    11593.732400       0.994916
    11601.278000       0.992807
    11609.183800       0.990753
    11617.316300       0.988386
    11625.189900       0.986187
    11627.163400       0.985555
    11635.348200       0.982697
    11642.744700       0.980086
    11642.771800       0.980115
    11643.802100       0.979480
    11650.313500       0.976819
    11652.146200       0.975948
    11660.216600       0.972751
    11667.998800       0.970181
    11675.641300       0.967185
    11683.430400       0.963740
    11691.585300       0.960273
    11693.540400       0.959276
    11701.476600       0.954556
    11709.478500       0.947056
    11717.601100       0.933801
    11725.253900       0.913254
    11740.630700       0.838007
    11743.305400       0.820044
    11751.019400       0.760268
    11758.439300       0.695579
    11767.142400       0.610664
    11775.026300       0.533050
    11782.671000       0.460043
    11790.395100       0.391971
    11792.939600       0.371840
    11800.523900       0.318173
    11800.635300       0.314525
    11808.159900       0.267376
    11815.456700       0.228658
    11815.861600       0.226484
    11824.873600       0.187085
    11831.631200       0.162265
    11832.429100       0.160415
    11833.885400       0.152978
    11842.223700       0.132445
    11842.658400       0.131191
    11842.700500       0.131154
    11850.419300       0.113015
    11857.360700       0.099455
    11857.937200       0.098265
    11857.979400       0.098759
    11865.563200       0.085449
    11873.325900       0.074122
    11873.551400       0.073234
    11881.889300       0.062514
    11883.061200       0.061023
    11883.428300       0.060518
    11898.826700       0.043084
    11900.016100       0.042775
    11907.526200       0.036063
    11914.946300       0.030217
    11915.017300       0.030415
    11915.031500       0.030410
    11917.232400       0.028671
    11925.105600       0.023613
    11925.190900       0.023626
    11925.418400       0.023439
    11933.103000       0.019270
    11940.127400       0.010070
    11940.669200       0.015885
    11940.940100       0.015705
    11949.301500       0.012683
    11956.859700       0.010443
    11957.059800       0.010367
    11964.269900       0.008537
    11966.532000       0.008130
    11975.015300       0.006601
    11982.663500       0.005540
    11982.893200       0.005462
    11990.551400       0.004594
    11998.421000       0.003865
    12006.358600       0.003285
    12013.989100       0.002851
    12014.220000       0.002821
    12016.067900       0.002729
    12024.014400       0.002359
    12024.404700       0.002347
    12032.579400       0.002042
    12039.764900       0.001815
    12040.112800       0.001801
    12048.018600       0.001598
    12055.571400       0.001431
    12055.716700       0.001433
    12065.185800       0.001252
    12069.671000       0.001181
    12097.369300       0.000841
    12113.444800       0.000696
    12127.209600       0.000599
    12139.797000       0.000521
    12155.837800       0.000432
    12184.928200       0.000308
    12197.546600       0.000263
    12213.233300       0.000213
    12229.708200       0.000174
    12245.597700       0.000144
    12261.002400       0.000121
    12277.214600       0.000100
    12287.201000       0.000091
    12303.967000       0.000080
    12320.262800       0.000070
    12335.475600       0.000062
    12344.292200       0.000061
