7,   7, MVIRI VIS channel from srf_MET4_1990123_1990124_1801-Release_S10EL_10.dat
Number of data points:
752
Wavenumber (cm-1)   Filter response
     8745.080900       0.000000
     8752.735200       0.000000
     8760.403000       0.000001
     8768.084200       0.000058
     8775.778900       0.000197
     8783.487000       0.000415
     8791.208800       0.000710
     8798.944100       0.001080
     8806.693100       0.001523
     8814.455700       0.002035
     8822.232000       0.002616
     8830.022100       0.003263
     8837.825900       0.003975
     8845.643500       0.004748
     8853.475000       0.005582
     8861.320300       0.006474
     8869.179600       0.007423
     8877.052800       0.008428
     8884.940000       0.009485
     8892.841300       0.010595
     8900.756600       0.011755
     8908.686000       0.012963
     8916.629500       0.014219
     8924.587200       0.015521
     8932.559200       0.016867
     8940.545400       0.018257
     8948.545900       0.019689
     8956.560700       0.021161
     8964.589900       0.022674
     8972.633500       0.024224
     8980.691500       0.025812
     8988.764000       0.027437
     8996.851100       0.029097
     9004.952700       0.030791
     9013.068900       0.032518
     9021.199800       0.034279
     9029.345400       0.036071
     9037.505600       0.037893
     9045.680700       0.039746
     9053.870500       0.041628
     9062.075200       0.043538
     9070.294800       0.045477
     9078.529300       0.047442
     9086.778700       0.049434
     9095.043200       0.051452
     9103.322700       0.053495
     9111.617300       0.055563
     9119.927000       0.057654
     9128.251900       0.059770
     9136.592100       0.061909
     9144.947400       0.064070
     9153.318100       0.066254
     9161.704100       0.068460
     9170.105500       0.070687
     9178.522300       0.072935
     9186.954500       0.075204
     9195.402300       0.077493
     9203.865600       0.079802
     9212.344500       0.082132
     9220.839100       0.084480
     9229.349300       0.086848
     9237.875300       0.089235
     9246.417000       0.091640
     9254.974500       0.094064
     9263.547900       0.096506
     9272.137200       0.098967
     9280.742500       0.101445
     9289.363700       0.103941
     9298.000900       0.106455
     9306.654300       0.108986
     9315.323700       0.111534
     9324.009300       0.114100
     9332.711200       0.116684
     9341.429200       0.119283
     9350.163600       0.121900
     9358.914400       0.124534
     9367.681500       0.127185
     9376.465100       0.129852
     9385.265100       0.132536
     9394.081700       0.135237
     9402.914900       0.137954
     9411.764700       0.140689
     9420.631200       0.143439
     9429.514400       0.146206
     9438.414300       0.148990
     9447.331100       0.151790
     9456.264800       0.154607
     9465.215300       0.157440
     9474.182900       0.160289
     9483.167400       0.163156
     9492.169000       0.166038
     9501.187600       0.168938
     9510.223500       0.171854
     9519.276500       0.174786
     9528.346800       0.177735
     9537.434400       0.180701
     9546.539400       0.183683
     9555.661700       0.186682
     9564.801500       0.189698
     9573.958800       0.192730
     9583.133700       0.195779
     9592.326100       0.198845
     9601.536200       0.201928
     9610.764100       0.205027
     9620.009600       0.208144
     9629.273000       0.211277
     9638.554200       0.214427
     9647.853400       0.217594
     9657.170400       0.220778
     9666.505600       0.223979
     9675.858700       0.227197
     9685.230000       0.230432
     9694.619500       0.233684
     9704.027200       0.236953
     9713.453100       0.240239
     9722.897400       0.243542
     9732.360100       0.246862
     9741.841200       0.250199
     9751.340800       0.253552
     9760.859000       0.256923
     9770.395700       0.260311
     9779.951100       0.263716
     9789.525200       0.267138
     9799.118100       0.270577
     9808.729800       0.274032
     9818.360300       0.277505
     9828.009800       0.280994
     9837.678300       0.284500
     9847.365800       0.288023
     9857.072400       0.291562
     9866.798200       0.295119
     9876.543200       0.298691
     9886.307500       0.302280
     9896.091000       0.305886
     9905.894000       0.309508
     9915.716400       0.313146
     9925.558300       0.316800
     9935.419800       0.320471
     9945.300800       0.324158
     9955.201600       0.327860
     9965.122100       0.331578
     9975.062300       0.335312
     9985.022500       0.339062
     9995.002500       0.342827
    10005.002500       0.346607
    10015.022500       0.350403
    10025.062700       0.354213
    10035.122900       0.358039
    10045.203400       0.361879
    10055.304200       0.365734
    10065.425300       0.369603
    10075.566800       0.373487
    10085.728700       0.377385
    10095.911200       0.381297
    10106.114200       0.385222
    10116.337900       0.389161
    10126.582300       0.393113
    10136.847400       0.397079
    10147.133400       0.401058
    10157.440300       0.405049
    10167.768200       0.409053
    10178.117000       0.413069
    10188.487000       0.417098
    10198.878100       0.421138
    10209.290500       0.425190
    10219.724100       0.429253
    10230.179000       0.433328
    10240.655400       0.437413
    10251.153300       0.441509
    10261.672700       0.445616
    10272.213700       0.449732
    10282.776300       0.453858
    10293.360800       0.457995
    10303.967000       0.462140
    10314.595200       0.466294
    10325.245200       0.470457
    10335.917300       0.474629
    10346.611500       0.478808
    10357.327800       0.482995
    10368.066400       0.487190
    10378.827200       0.491392
    10389.610400       0.495601
    10400.416000       0.499817
    10411.244100       0.504038
    10422.094800       0.508266
    10432.968200       0.512499
    10443.864200       0.516738
    10454.783100       0.520981
    10465.724800       0.525228
    10476.689400       0.529480
    10487.677000       0.533736
    10498.687700       0.537995
    10509.721500       0.542257
    10520.778500       0.546522
    10531.858900       0.550790
    10542.962600       0.555059
    10554.089700       0.559330
    10565.240400       0.563602
    10576.414600       0.567875
    10587.612500       0.572149
    10598.834100       0.576422
    10610.079600       0.580696
    10621.348900       0.584968
    10632.642200       0.589240
    10643.959600       0.593510
    10655.301000       0.597778
    10666.666700       0.602043
    10678.056600       0.606306
    10689.470900       0.610566
    10700.909600       0.614823
    10712.372800       0.619075
    10723.860600       0.623323
    10735.373100       0.627567
    10746.910300       0.631805
    10758.472300       0.636038
    10770.059200       0.640264
    10781.671200       0.644484
    10793.308100       0.648697
    10804.970300       0.652904
    10816.657700       0.657102
    10828.370300       0.661292
    10840.108400       0.665474
    10851.871900       0.669646
    10863.661100       0.673810
    10875.475800       0.677963
    10887.316300       0.682106
    10899.182600       0.686239
    10911.074700       0.690360
    10922.992900       0.694470
    10934.937100       0.698568
    10946.907500       0.702653
    10958.904100       0.706726
    10970.927000       0.710785
    10982.976400       0.714831
    10995.052200       0.718862
    11007.154700       0.722879
    11019.283700       0.726881
    11031.439600       0.730868
    11043.622300       0.734839
    11055.832000       0.738794
    11068.068600       0.742732
    11080.332400       0.746653
    11092.623400       0.750557
    11104.941700       0.754442
    11117.287400       0.758310
    11129.660500       0.762158
    11142.061300       0.765988
    11154.489700       0.769798
    11166.945800       0.773588
    11179.429800       0.777357
    11191.941800       0.781106
    11204.481800       0.784834
    11217.049900       0.788540
    11229.646300       0.792224
    11242.270900       0.795886
    11254.924000       0.799525
    11267.605600       0.803141
    11280.315800       0.806733
    11293.054800       0.810302
    11305.822500       0.813846
    11318.619100       0.817366
    11331.444800       0.820860
    11344.299500       0.824329
    11357.183400       0.827773
    11370.096600       0.831190
    11383.039300       0.834581
    11396.011400       0.837945
    11409.013100       0.841281
    11422.044500       0.844590
    11435.105800       0.847872
    11448.196900       0.851125
    11461.318100       0.854349
    11474.469300       0.857545
    11487.650800       0.860711
    11500.862600       0.863847
    11514.104800       0.866954
    11527.377500       0.870031
    11540.680900       0.873077
    11554.015000       0.876092
    11567.380000       0.879076
    11580.775900       0.882029
    11594.202900       0.884949
    11607.661100       0.887838
    11621.150500       0.890695
    11634.671300       0.893519
    11648.223600       0.896310
    11661.807600       0.899068
    11675.423200       0.901792
    11689.070700       0.904483
    11702.750100       0.907140
    11716.461600       0.909763
    11730.205300       0.912351
    11743.981200       0.914905
    11757.789500       0.917424
    11771.630400       0.919908
    11785.503800       0.922356
    11799.410000       0.924769
    11813.349100       0.927146
    11827.321100       0.929488
    11841.326200       0.931793
    11855.364600       0.934061
    11869.436200       0.936293
    11883.541300       0.938489
    11897.680000       0.940647
    11911.852300       0.942769
    11926.058400       0.944853
    11940.298500       0.946900
    11954.572600       0.948909
    11968.880900       0.950880
    11983.223500       0.952814
    11997.600500       0.954710
    12012.012000       0.956567
    12026.458200       0.958387
    12040.939200       0.960168
    12055.455100       0.961910
    12070.006000       0.963614
    12084.592100       0.965280
    12099.213600       0.966906
    12113.870400       0.968494
    12128.562800       0.970043
    12143.290800       0.971553
    12158.054700       0.973024
    12172.854500       0.974456
    12187.690400       0.975848
    12202.562500       0.977202
    12217.471000       0.978516
    12232.415900       0.979791
    12247.397400       0.981027
    12262.415700       0.982223
    12277.470800       0.983380
    12292.563000       0.984498
    12307.692300       0.985576
    12322.858900       0.986615
    12338.062900       0.987615
    12353.304500       0.988575
    12368.583800       0.989496
    12383.900900       0.990378
    12399.256000       0.991221
    12414.649300       0.992024
    12430.080800       0.992789
    12445.550700       0.993514
    12461.059200       0.994200
    12476.606400       0.994848
    12492.192400       0.995456
    12507.817400       0.996026
    12523.481500       0.996557
    12539.185000       0.997050
    12554.927800       0.997504
    12570.710200       0.997920
    12586.532400       0.998298
    12602.394500       0.998637
    12618.296500       0.998939
    12634.238800       0.999202
    12650.221400       0.999428
    12666.244500       0.999616
    12682.308200       0.999767
    12698.412700       0.999881
    12714.558200       0.999957
    12730.744700       0.999997
    12746.972600       1.000000
    12763.241900       0.999966
    12779.552700       0.999896
    12795.905300       0.999790
    12812.299800       0.999648
    12828.736400       0.999470
    12845.215200       0.999256
    12861.736300       0.999008
    12878.300100       0.998724
    12894.906500       0.998405
    12911.555800       0.998051
    12928.248200       0.997664
    12944.983800       0.997242
    12961.762800       0.996786
    12978.585300       0.996296
    12995.451600       0.995773
    13012.361700       0.995217
    13029.316000       0.994628
    13046.314400       0.994007
    13063.357300       0.993353
    13080.444700       0.992667
    13097.576900       0.991950
    13114.754100       0.991201
    13131.976400       0.990421
    13149.243900       0.989610
    13166.556900       0.988769
    13183.915600       0.987898
    13201.320100       0.986997
    13218.770700       0.986066
    13236.267400       0.985106
    13253.810500       0.984118
    13271.400100       0.983100
    13289.036500       0.982055
    13306.719900       0.980982
    13324.450400       0.979882
    13342.228200       0.978754
    13360.053400       0.977600
    13377.926400       0.976419
    13395.847300       0.975213
    13413.816200       0.973980
    13431.833400       0.972723
    13449.899100       0.971441
    13468.013500       0.970134
    13486.176700       0.968803
    13504.388900       0.967448
    13522.650400       0.966071
    13540.961400       0.964670
    13559.322000       0.963247
    13577.732500       0.961801
    13596.193100       0.960334
    13614.703900       0.958846
    13633.265200       0.957337
    13651.877100       0.955807
    13670.540000       0.954258
    13689.253900       0.952689
    13708.019200       0.951100
    13726.836000       0.949493
    13745.704500       0.947868
    13764.624900       0.946224
    13783.597500       0.944564
    13802.622500       0.942886
    13821.700100       0.941191
    13840.830400       0.939481
    13860.013900       0.937754
    13879.250500       0.936013
    13898.540700       0.934256
    13917.884500       0.932485
    13937.282200       0.930700
    13956.734100       0.928902
    13976.240400       0.927091
    13995.801300       0.925267
    14015.417000       0.923430
    14035.087700       0.921582
    14054.813800       0.919723
    14074.595400       0.917853
    14094.432700       0.915973
    14114.326000       0.914083
    14134.275600       0.912183
    14154.281700       0.910274
    14174.344400       0.908357
    14194.464200       0.906431
    14214.641100       0.904498
    14234.875400       0.902558
    14255.167500       0.900611
    14275.517500       0.898657
    14295.925700       0.896698
    14316.392300       0.894733
    14336.917600       0.892763
    14357.501800       0.890789
    14378.145200       0.888811
    14398.848100       0.886829
    14419.610700       0.884844
    14440.433200       0.882856
    14461.316000       0.880866
    14482.259200       0.878874
    14503.263200       0.876880
    14524.328200       0.874886
    14545.454500       0.872891
    14566.642400       0.870896
    14587.892000       0.868901
    14609.203800       0.866907
    14630.577900       0.864914
    14652.014700       0.862922
    14673.514300       0.860933
    14695.077100       0.858946
    14716.703500       0.856961
    14738.393500       0.854980
    14760.147600       0.853003
    14781.966000       0.851030
    14803.849000       0.849061
    14825.796900       0.847096
    14847.809900       0.845138
    14869.888500       0.843184
    14892.032800       0.841237
    14914.243100       0.839296
    14936.519800       0.837362
    14958.863100       0.835435
    14981.273400       0.833516
    15003.750900       0.831604
    15026.296000       0.829701
    15048.909000       0.827806
    15071.590100       0.825920
    15094.339600       0.824044
    15117.158000       0.822177
    15140.045400       0.820320
    15163.002300       0.818473
    15186.028900       0.816638
    15209.125500       0.814813
    15232.292500       0.812999
    15255.530100       0.811197
    15278.838800       0.809407
    15302.218800       0.807629
    15325.670500       0.805864
    15349.194200       0.804111
    15372.790200       0.802372
    15396.458800       0.800645
    15420.200500       0.798933
    15444.015400       0.797234
    15467.904100       0.795550
    15491.866800       0.793880
    15515.903800       0.792225
    15540.015500       0.790584
    15564.202300       0.788959
    15588.464500       0.787349
    15612.802500       0.785755
    15637.216600       0.784176
    15661.707100       0.782614
    15686.274500       0.781068
    15710.919100       0.779538
    15735.641200       0.778025
    15760.441300       0.776528
    15785.319700       0.775049
    15810.276700       0.773586
    15835.312700       0.772141
    15860.428200       0.770713
    15885.623500       0.769303
    15910.899000       0.767911
    15936.255000       0.766536
    15961.691900       0.765179
    15987.210200       0.763841
    16012.810200       0.762520
    16038.492400       0.761218
    16064.257000       0.759934
    16090.104600       0.758668
    16116.035500       0.757421
    16142.050000       0.756193
    16168.148700       0.754983
    16194.332000       0.753791
    16220.600200       0.752619
    16246.953700       0.751465
    16273.393000       0.750329
    16299.918500       0.749213
    16326.530600       0.748115
    16353.229800       0.747036
    16380.016400       0.745975
    16406.890900       0.744933
    16433.853700       0.743910
    16460.905300       0.742905
    16488.046200       0.741919
    16515.276600       0.740951
    16542.597200       0.740002
    16570.008300       0.739071
    16597.510400       0.738158
    16625.103900       0.737263
    16652.789300       0.736386
    16680.567100       0.735527
    16708.437800       0.734686
    16736.401700       0.733863
    16764.459300       0.733057
    16792.611300       0.732268
    16820.857900       0.731496
    16849.199700       0.730742
    16877.637100       0.730004
    16906.170800       0.729282
    16934.801000       0.728577
    16963.528400       0.727889
    16992.353400       0.727216
    17021.276600       0.726559
    17050.298400       0.725917
    17079.419300       0.725290
    17108.639900       0.724679
    17137.960600       0.724082
    17167.382000       0.723500
    17196.904600       0.722931
    17226.528900       0.722377
    17256.255400       0.721836
    17286.084700       0.721308
    17316.017300       0.720793
    17346.053800       0.720290
    17376.194600       0.719800
    17406.440400       0.719321
    17436.791600       0.718854
    17467.248900       0.718398
    17497.812800       0.717953
    17528.483800       0.717517
    17559.262500       0.717092
    17590.149500       0.716676
    17621.145400       0.716270
    17652.250700       0.715871
    17683.466000       0.715481
    17714.791900       0.715099
    17746.228900       0.714724
    17777.777800       0.714356
    17809.439000       0.713994
    17841.213200       0.713638
    17873.101000       0.713287
    17905.103000       0.712941
    17937.219700       0.712600
    17969.451900       0.712262
    18001.800200       0.711928
    18034.265100       0.711596
    18066.847300       0.711267
    18099.547500       0.710939
    18132.366300       0.710612
    18165.304300       0.710286
    18198.362100       0.709959
    18231.540600       0.709632
    18264.840200       0.709304
    18298.261700       0.708974
    18331.805700       0.708642
    18365.472900       0.708306
    18399.264000       0.707967
    18433.179700       0.707624
    18467.220700       0.707276
    18501.387600       0.706922
    18535.681200       0.706561
    18570.102100       0.706194
    18604.651200       0.705820
    18639.329000       0.705437
    18674.136300       0.705046
    18709.073900       0.704644
    18744.142500       0.704233
    18779.342700       0.703811
    18814.675400       0.703377
    18850.141400       0.702930
    18885.741300       0.702471
    18921.475900       0.701998
    18957.346000       0.701511
    18993.352300       0.701008
    19029.495700       0.700489
    19065.776900       0.699954
