13,   13, MVIRI VIS channel from srf_MET3_1990168_1990169_1801-Release_S10EE_10.dat
Number of data points:
743
Wavenumber (cm-1)   Filter response
     8814.455700       0.000000
     8822.232000       0.000000
     8830.022100       0.000708
     8837.825900       0.002969
     8845.643500       0.005250
     8853.475000       0.007549
     8861.320300       0.009866
     8869.179600       0.012198
     8877.052800       0.014546
     8884.940000       0.016908
     8892.841300       0.019283
     8900.756600       0.021670
     8908.686000       0.024068
     8916.629500       0.026477
     8924.587200       0.028896
     8932.559200       0.031323
     8940.545400       0.033760
     8948.545900       0.036203
     8956.560700       0.038654
     8964.589900       0.041112
     8972.633500       0.043576
     8980.691500       0.046045
     8988.764000       0.048520
     8996.851100       0.050999
     9004.952700       0.053483
     9013.068900       0.055972
     9021.199800       0.058464
     9029.345400       0.060960
     9037.505600       0.063459
     9045.680700       0.065962
     9053.870500       0.068468
     9062.075200       0.070977
     9070.294800       0.073490
     9078.529300       0.076004
     9086.778700       0.078522
     9095.043200       0.081043
     9103.322700       0.083566
     9111.617300       0.086093
     9119.927000       0.088621
     9128.251900       0.091154
     9136.592100       0.093689
     9144.947400       0.096227
     9153.318100       0.098768
     9161.704100       0.101313
     9170.105500       0.103861
     9178.522300       0.106413
     9186.954500       0.108969
     9195.402300       0.111528
     9203.865600       0.114092
     9212.344500       0.116661
     9220.839100       0.119234
     9229.349300       0.121811
     9237.875300       0.124394
     9246.417000       0.126982
     9254.974500       0.129576
     9263.547900       0.132176
     9272.137200       0.134782
     9280.742500       0.137394
     9289.363700       0.140013
     9298.000900       0.142639
     9306.654300       0.145272
     9315.323700       0.147913
     9324.009300       0.150561
     9332.711200       0.153218
     9341.429200       0.155883
     9350.163600       0.158557
     9358.914400       0.161240
     9367.681500       0.163932
     9376.465100       0.166634
     9385.265100       0.169346
     9394.081700       0.172068
     9402.914900       0.174801
     9411.764700       0.177544
     9420.631200       0.180299
     9429.514400       0.183065
     9438.414300       0.185843
     9447.331100       0.188633
     9456.264800       0.191435
     9465.215300       0.194250
     9474.182900       0.197078
     9483.167400       0.199919
     9492.169000       0.202773
     9501.187600       0.205641
     9510.223500       0.208523
     9519.276500       0.211419
     9528.346800       0.214330
     9537.434400       0.217256
     9546.539400       0.220196
     9555.661700       0.223152
     9564.801500       0.226122
     9573.958800       0.229109
     9583.133700       0.232111
     9592.326100       0.235130
     9601.536200       0.238164
     9610.764100       0.241215
     9620.009600       0.244283
     9629.273000       0.247368
     9638.554200       0.250469
     9647.853400       0.253588
     9657.170400       0.256723
     9666.505600       0.259877
     9675.858700       0.263047
     9685.230000       0.266236
     9694.619500       0.269442
     9704.027200       0.272666
     9713.453100       0.275908
     9722.897400       0.279168
     9732.360100       0.282446
     9741.841200       0.285743
     9751.340800       0.289057
     9760.859000       0.292390
     9770.395700       0.295742
     9779.951100       0.299112
     9789.525200       0.302500
     9799.118100       0.305907
     9808.729800       0.309332
     9818.360300       0.312776
     9828.009800       0.316238
     9837.678300       0.319719
     9847.365800       0.323218
     9857.072400       0.326736
     9866.798200       0.330272
     9876.543200       0.333826
     9886.307500       0.337398
     9896.091000       0.340989
     9905.894000       0.344597
     9915.716400       0.348224
     9925.558300       0.351868
     9935.419800       0.355531
     9945.300800       0.359211
     9955.201600       0.362908
     9965.122100       0.366623
     9975.062300       0.370355
     9985.022500       0.374104
     9995.002500       0.377870
    10005.002500       0.381653
    10015.022500       0.385453
    10025.062700       0.389268
    10035.122900       0.393100
    10045.203400       0.396948
    10055.304200       0.400812
    10065.425300       0.404692
    10075.566800       0.408586
    10085.728700       0.412496
    10095.911200       0.416421
    10106.114200       0.420360
    10116.337900       0.424314
    10126.582300       0.428282
    10136.847400       0.432263
    10147.133400       0.436259
    10157.440300       0.440267
    10167.768200       0.444288
    10178.117000       0.448323
    10188.487000       0.452369
    10198.878100       0.456428
    10209.290500       0.460498
    10219.724100       0.464579
    10230.179000       0.468672
    10240.655400       0.472776
    10251.153300       0.476890
    10261.672700       0.481013
    10272.213700       0.485147
    10282.776300       0.489290
    10293.360800       0.493442
    10303.967000       0.497602
    10314.595200       0.501771
    10325.245200       0.505948
    10335.917300       0.510132
    10346.611500       0.514323
    10357.327800       0.518521
    10368.066400       0.522725
    10378.827200       0.526935
    10389.610400       0.531151
    10400.416000       0.535371
    10411.244100       0.539596
    10422.094800       0.543826
    10432.968200       0.548059
    10443.864200       0.552296
    10454.783100       0.556535
    10465.724800       0.560777
    10476.689400       0.565021
    10487.677000       0.569267
    10498.687700       0.573514
    10509.721500       0.577762
    10520.778500       0.582010
    10531.858900       0.586258
    10542.962600       0.590506
    10554.089700       0.594752
    10565.240400       0.598997
    10576.414600       0.603240
    10587.612500       0.607481
    10598.834100       0.611719
    10610.079600       0.615954
    10621.348900       0.620184
    10632.642200       0.624411
    10643.959600       0.628633
    10655.301000       0.632850
    10666.666700       0.637061
    10678.056600       0.641266
    10689.470900       0.645465
    10700.909600       0.649657
    10712.372800       0.653841
    10723.860600       0.658017
    10735.373100       0.662185
    10746.910300       0.666345
    10758.472300       0.670494
    10770.059200       0.674635
    10781.671200       0.678764
    10793.308100       0.682884
    10804.970300       0.686992
    10816.657700       0.691089
    10828.370300       0.695173
    10840.108400       0.699245
    10851.871900       0.703304
    10863.661100       0.707350
    10875.475800       0.711382
    10887.316300       0.715399
    10899.182600       0.719402
    10911.074700       0.723390
    10922.992900       0.727362
    10934.937100       0.731318
    10946.907500       0.735258
    10958.904100       0.739180
    10970.927000       0.743086
    10982.976400       0.746973
    10995.052200       0.750843
    11007.154700       0.754693
    11019.283700       0.758525
    11031.439600       0.762338
    11043.622300       0.766130
    11055.832000       0.769902
    11068.068600       0.773653
    11080.332400       0.777384
    11092.623400       0.781093
    11104.941700       0.784780
    11117.287400       0.788445
    11129.660500       0.792087
    11142.061300       0.795706
    11154.489700       0.799302
    11166.945800       0.802874
    11179.429800       0.806422
    11191.941800       0.809945
    11204.481800       0.813443
    11217.049900       0.816917
    11229.646300       0.820364
    11242.270900       0.823786
    11254.924000       0.827182
    11267.605600       0.830551
    11280.315800       0.833893
    11293.054800       0.837207
    11305.822500       0.840494
    11318.619100       0.843754
    11331.444800       0.846985
    11344.299500       0.850187
    11357.183400       0.853361
    11370.096600       0.856506
    11383.039300       0.859621
    11396.011400       0.862707
    11409.013100       0.865762
    11422.044500       0.868787
    11435.105800       0.871782
    11448.196900       0.874746
    11461.318100       0.877679
    11474.469300       0.880581
    11487.650800       0.883451
    11500.862600       0.886290
    11514.104800       0.889096
    11527.377500       0.891871
    11540.680900       0.894612
    11554.015000       0.897322
    11567.380000       0.899998
    11580.775900       0.902641
    11594.202900       0.905251
    11607.661100       0.907827
    11621.150500       0.910370
    11634.671300       0.912878
    11648.223600       0.915353
    11661.807600       0.917794
    11675.423200       0.920200
    11689.070700       0.922572
    11702.750100       0.924909
    11716.461600       0.927211
    11730.205300       0.929478
    11743.981200       0.931710
    11757.789500       0.933907
    11771.630400       0.936069
    11785.503800       0.938195
    11799.410000       0.940286
    11813.349100       0.942341
    11827.321100       0.944360
    11841.326200       0.946343
    11855.364600       0.948290
    11869.436200       0.950202
    11883.541300       0.952077
    11897.680000       0.953916
    11911.852300       0.955719
    11926.058400       0.957485
    11940.298500       0.959215
    11954.572600       0.960909
    11968.880900       0.962567
    11983.223500       0.964188
    11997.600500       0.965772
    12012.012000       0.967320
    12026.458200       0.968832
    12040.939200       0.970307
    12055.455100       0.971745
    12070.006000       0.973147
    12084.592100       0.974513
    12099.213600       0.975842
    12113.870400       0.977135
    12128.562800       0.978391
    12143.290800       0.979610
    12158.054700       0.980794
    12172.854500       0.981941
    12187.690400       0.983052
    12202.562500       0.984126
    12217.471000       0.985165
    12232.415900       0.986167
    12247.397400       0.987133
    12262.415700       0.988064
    12277.470800       0.988958
    12292.563000       0.989817
    12307.692300       0.990640
    12322.858900       0.991427
    12338.062900       0.992179
    12353.304500       0.992895
    12368.583800       0.993576
    12383.900900       0.994222
    12399.256000       0.994833
    12414.649300       0.995409
    12430.080800       0.995951
    12445.550700       0.996457
    12461.059200       0.996929
    12476.606400       0.997367
    12492.192400       0.997770
    12507.817400       0.998140
    12523.481500       0.998475
    12539.185000       0.998777
    12554.927800       0.999045
    12570.710200       0.999279
    12586.532400       0.999481
    12602.394500       0.999649
    12618.296500       0.999784
    12634.238800       0.999887
    12650.221400       0.999957
    12666.244500       0.999994
    12682.308200       1.000000
    12698.412700       0.999974
    12714.558200       0.999915
    12730.744700       0.999826
    12746.972600       0.999705
    12763.241900       0.999553
    12779.552700       0.999369
    12795.905300       0.999156
    12812.299800       0.998911
    12828.736400       0.998637
    12845.215200       0.998332
    12861.736300       0.997998
    12878.300100       0.997634
    12894.906500       0.997241
    12911.555800       0.996819
    12928.248200       0.996368
    12944.983800       0.995888
    12961.762800       0.995380
    12978.585300       0.994844
    12995.451600       0.994280
    13012.361700       0.993688
    13029.316000       0.993069
    13046.314400       0.992423
    13063.357300       0.991750
    13080.444700       0.991051
    13097.576900       0.990325
    13114.754100       0.989573
    13131.976400       0.988795
    13149.243900       0.987992
    13166.556900       0.987164
    13183.915600       0.986310
    13201.320100       0.985432
    13218.770700       0.984529
    13236.267400       0.983602
    13253.810500       0.982652
    13271.400100       0.981677
    13289.036500       0.980680
    13306.719900       0.979659
    13324.450400       0.978615
    13342.228200       0.977549
    13360.053400       0.976461
    13377.926400       0.975350
    13395.847300       0.974218
    13413.816200       0.973065
    13431.833400       0.971890
    13449.899100       0.970695
    13468.013500       0.969479
    13486.176700       0.968242
    13504.388900       0.966986
    13522.650400       0.965710
    13540.961400       0.964414
    13559.322000       0.963100
    13577.732500       0.961766
    13596.193100       0.960414
    13614.703900       0.959043
    13633.265200       0.957654
    13651.877100       0.956248
    13670.540000       0.954824
    13689.253900       0.953382
    13708.019200       0.951924
    13726.836000       0.950449
    13745.704500       0.948958
    13764.624900       0.947450
    13783.597500       0.945927
    13802.622500       0.944388
    13821.700100       0.942833
    13840.830400       0.941264
    13860.013900       0.939679
    13879.250500       0.938080
    13898.540700       0.936467
    13917.884500       0.934840
    13937.282200       0.933199
    13956.734100       0.931544
    13976.240400       0.929876
    13995.801300       0.928195
    14015.417000       0.926502
    14035.087700       0.924796
    14054.813800       0.923077
    14074.595400       0.921347
    14094.432700       0.919604
    14114.326000       0.917850
    14134.275600       0.916085
    14154.281700       0.914309
    14174.344400       0.912522
    14194.464200       0.910724
    14214.641100       0.908916
    14234.875400       0.907098
    14255.167500       0.905269
    14275.517500       0.903431
    14295.925700       0.901584
    14316.392300       0.899727
    14336.917600       0.897861
    14357.501800       0.895987
    14378.145200       0.894104
    14398.848100       0.892212
    14419.610700       0.890312
    14440.433200       0.888404
    14461.316000       0.886488
    14482.259200       0.884564
    14503.263200       0.882633
    14524.328200       0.880695
    14545.454500       0.878749
    14566.642400       0.876797
    14587.892000       0.874838
    14609.203800       0.872872
    14630.577900       0.870900
    14652.014700       0.868922
    14673.514300       0.866938
    14695.077100       0.864947
    14716.703500       0.862951
    14738.393500       0.860949
    14760.147600       0.858942
    14781.966000       0.856930
    14803.849000       0.854912
    14825.796900       0.852890
    14847.809900       0.850862
    14869.888500       0.848830
    14892.032800       0.846794
    14914.243100       0.844752
    14936.519800       0.842707
    14958.863100       0.840657
    14981.273400       0.838603
    15003.750900       0.836544
    15026.296000       0.834482
    15048.909000       0.832417
    15071.590100       0.830347
    15094.339600       0.828274
    15117.158000       0.826198
    15140.045400       0.824118
    15163.002300       0.822034
    15186.028900       0.819948
    15209.125500       0.817858
    15232.292500       0.815765
    15255.530100       0.813669
    15278.838800       0.811570
    15302.218800       0.809468
    15325.670500       0.807364
    15349.194200       0.805257
    15372.790200       0.803147
    15396.458800       0.801034
    15420.200500       0.798919
    15444.015400       0.796801
    15467.904100       0.794680
    15491.866800       0.792557
    15515.903800       0.790432
    15540.015500       0.788304
    15564.202300       0.786174
    15588.464500       0.784042
    15612.802500       0.781907
    15637.216600       0.779770
    15661.707100       0.777630
    15686.274500       0.775489
    15710.919100       0.773344
    15735.641200       0.771198
    15760.441300       0.769049
    15785.319700       0.766898
    15810.276700       0.764745
    15835.312700       0.762590
    15860.428200       0.760432
    15885.623500       0.758272
    15910.899000       0.756109
    15936.255000       0.753944
    15961.691900       0.751777
    15987.210200       0.749607
    16012.810200       0.747435
    16038.492400       0.745261
    16064.257000       0.743083
    16090.104600       0.740904
    16116.035500       0.738722
    16142.050000       0.736537
    16168.148700       0.734349
    16194.332000       0.732159
    16220.600200       0.729966
    16246.953700       0.727770
    16273.393000       0.725571
    16299.918500       0.723370
    16326.530600       0.721165
    16353.229800       0.718958
    16380.016400       0.716747
    16406.890900       0.714533
    16433.853700       0.712316
    16460.905300       0.710096
    16488.046200       0.707872
    16515.276600       0.705645
    16542.597200       0.703414
    16570.008300       0.701180
    16597.510400       0.698942
    16625.103900       0.696700
    16652.789300       0.694454
    16680.567100       0.692205
    16708.437800       0.689951
    16736.401700       0.687694
    16764.459300       0.685432
    16792.611300       0.683166
    16820.857900       0.680896
    16849.199700       0.678621
    16877.637100       0.676342
    16906.170800       0.674058
    16934.801000       0.671769
    16963.528400       0.669476
    16992.353400       0.667178
    17021.276600       0.664874
    17050.298400       0.662566
    17079.419300       0.660253
    17108.639900       0.657934
    17137.960600       0.655610
    17167.382000       0.653280
    17196.904600       0.650945
    17226.528900       0.648604
    17256.255400       0.646258
    17286.084700       0.643906
    17316.017300       0.641547
    17346.053800       0.639183
    17376.194600       0.636813
    17406.440400       0.634436
    17436.791600       0.632053
    17467.248900       0.629664
    17497.812800       0.627268
    17528.483800       0.624866
    17559.262500       0.622457
    17590.149500       0.620041
    17621.145400       0.617619
    17652.250700       0.615189
    17683.466000       0.612752
    17714.791900       0.610309
    17746.228900       0.607858
    17777.777800       0.605400
    17809.439000       0.602934
    17841.213200       0.600461
    17873.101000       0.597980
    17905.103000       0.595492
    17937.219700       0.592996
    17969.451900       0.590493
    18001.800200       0.587981
    18034.265100       0.585462
    18066.847300       0.582935
    18099.547500       0.580400
    18132.366300       0.577856
    18165.304300       0.575305
    18198.362100       0.572745
    18231.540600       0.570177
    18264.840200       0.567601
    18298.261700       0.565016
    18331.805700       0.562423
    18365.472900       0.559822
    18399.264000       0.557212
    18433.179700       0.554593
    18467.220700       0.551966
    18501.387600       0.549330
    18535.681200       0.546685
    18570.102100       0.544032
    18604.651200       0.541370
    18639.329000       0.538700
    18674.136300       0.536020
    18709.073900       0.533332
    18744.142500       0.530635
    18779.342700       0.527930
    18814.675400       0.525215
    18850.141400       0.522492
    18885.741300       0.519760
    18921.475900       0.517019
    18957.346000       0.514269
    18993.352300       0.511511
    19029.495700       0.508744
    19065.776900       0.505968
    19102.196800       0.503184
    19138.756000       0.500391
    19175.455400       0.497589
    19212.295900       0.494779
    19249.278200       0.491960
    19286.403100       0.489132
    19323.671500       0.486296
    19361.084200       0.483452
    19398.642100       0.480600
