112,   112, MVIRI VIS channel from srf_MET5_2005078_2005079_1801-Release_S10EL_10.dat
Number of data points:
806
Wavenumber (cm-1)   Filter response
     8350.730700       0.000000
     8357.710000       0.000000
     8364.701000       0.000000
     8371.703600       0.000002
     8378.718100       0.000004
     8385.744200       0.000009
     8392.782200       0.000017
     8399.832000       0.000028
     8406.893700       0.000043
     8413.967200       0.000062
     8421.052600       0.000085
     8428.150000       0.000115
     8435.259400       0.000150
     8442.380800       0.000191
     8449.514200       0.000239
     8456.659600       0.000294
     8463.817200       0.000356
     8470.986900       0.000426
     8478.168700       0.000505
     8485.362700       0.000592
     8492.569000       0.000688
     8499.787500       0.000794
     8507.018300       0.000909
     8514.261400       0.001034
     8521.516800       0.001169
     8528.784600       0.001315
     8536.064900       0.001472
     8543.357500       0.001640
     8550.662700       0.001819
     8557.980300       0.002010
     8565.310500       0.002213
     8572.653200       0.002428
     8580.008600       0.002655
     8587.376600       0.002895
     8594.757200       0.003148
     8602.150500       0.003414
     8609.556600       0.003693
     8616.975400       0.003986
     8624.407100       0.004292
     8631.851500       0.004612
     8639.308900       0.004946
     8646.779100       0.005295
     8654.262200       0.005657
     8661.758300       0.006035
     8669.267400       0.006427
     8676.789600       0.006834
     8684.324800       0.007256
     8691.873100       0.007693
     8699.434500       0.008146
     8707.009100       0.008614
     8714.596900       0.009097
     8722.198000       0.009597
     8729.812300       0.010112
     8737.439900       0.010644
     8745.080900       0.011191
     8752.735200       0.011755
     8760.403000       0.012336
     8768.084200       0.012933
     8775.778900       0.013546
     8783.487000       0.014177
     8791.208800       0.014824
     8798.944100       0.015489
     8806.693100       0.016171
     8814.455700       0.016870
     8822.232000       0.017586
     8830.022100       0.018320
     8837.825900       0.019072
     8845.643500       0.019842
     8853.475000       0.020629
     8861.320300       0.021434
     8869.179600       0.022257
     8877.052800       0.023099
     8884.940000       0.023959
     8892.841300       0.024837
     8900.756600       0.025734
     8908.686000       0.026649
     8916.629500       0.027583
     8924.587200       0.028536
     8932.559200       0.029508
     8940.545400       0.030499
     8948.545900       0.031509
     8956.560700       0.032538
     8964.589900       0.033587
     8972.633500       0.034655
     8980.691500       0.035743
     8988.764000       0.036850
     8996.851100       0.037977
     9004.952700       0.039124
     9013.068900       0.040291
     9021.199800       0.041478
     9029.345400       0.042685
     9037.505600       0.043912
     9045.680700       0.045160
     9053.870500       0.046428
     9062.075200       0.047717
     9070.294800       0.049026
     9078.529300       0.050356
     9086.778700       0.051707
     9095.043200       0.053079
     9103.322700       0.054471
     9111.617300       0.055885
     9119.927000       0.057320
     9128.251900       0.058776
     9136.592100       0.060254
     9144.947400       0.061753
     9153.318100       0.063274
     9161.704100       0.064816
     9170.105500       0.066380
     9178.522300       0.067966
     9186.954500       0.069574
     9195.402300       0.071204
     9203.865600       0.072856
     9212.344500       0.074530
     9220.839100       0.076227
     9229.349300       0.077945
     9237.875300       0.079686
     9246.417000       0.081449
     9254.974500       0.083236
     9263.547900       0.085044
     9272.137200       0.086876
     9280.742500       0.088730
     9289.363700       0.090607
     9298.000900       0.092507
     9306.654300       0.094430
     9315.323700       0.096376
     9324.009300       0.098345
     9332.711200       0.100337
     9341.429200       0.102352
     9350.163600       0.104391
     9358.914400       0.106453
     9367.681500       0.108538
     9376.465100       0.110647
     9385.265100       0.112779
     9394.081700       0.114935
     9402.914900       0.117114
     9411.764700       0.119317
     9420.631200       0.121544
     9429.514400       0.123794
     9438.414300       0.126068
     9447.331100       0.128366
     9456.264800       0.130688
     9465.215300       0.133033
     9474.182900       0.135402
     9483.167400       0.137795
     9492.169000       0.140212
     9501.187600       0.142653
     9510.223500       0.145117
     9519.276500       0.147606
     9528.346800       0.150118
     9537.434400       0.152655
     9546.539400       0.155215
     9555.661700       0.157799
     9564.801500       0.160407
     9573.958800       0.163039
     9583.133700       0.165695
     9592.326100       0.168374
     9601.536200       0.171077
     9610.764100       0.173804
     9620.009600       0.176555
     9629.273000       0.179330
     9638.554200       0.182128
     9647.853400       0.184951
     9657.170400       0.187796
     9666.505600       0.190665
     9675.858700       0.193558
     9685.230000       0.196474
     9694.619500       0.199414
     9704.027200       0.202376
     9713.453100       0.205363
     9722.897400       0.208372
     9732.360100       0.211404
     9741.841200       0.214460
     9751.340800       0.217538
     9760.859000       0.220640
     9770.395700       0.223764
     9779.951100       0.226911
     9789.525200       0.230080
     9799.118100       0.233272
     9808.729800       0.236486
     9818.360300       0.239723
     9828.009800       0.242982
     9837.678300       0.246263
     9847.365800       0.249566
     9857.072400       0.252890
     9866.798200       0.256236
     9876.543200       0.259603
     9886.307500       0.262993
     9896.091000       0.266403
     9905.894000       0.269834
     9915.716400       0.273287
     9925.558300       0.276759
     9935.419800       0.280253
     9945.300800       0.283768
     9955.201600       0.287302
     9965.122100       0.290856
     9975.062300       0.294430
     9985.022500       0.298025
     9995.002500       0.301638
    10005.002500       0.305271
    10015.022500       0.308924
    10025.062700       0.312595
    10035.122900       0.316284
    10045.203400       0.319993
    10055.304200       0.323720
    10065.425300       0.327464
    10075.566800       0.331227
    10085.728700       0.335008
    10095.911200       0.338806
    10106.114200       0.342620
    10116.337900       0.346452
    10126.582300       0.350301
    10136.847400       0.354166
    10147.133400       0.358048
    10157.440300       0.361945
    10167.768200       0.365858
    10178.117000       0.369786
    10188.487000       0.373730
    10198.878100       0.377689
    10209.290500       0.381662
    10219.724100       0.385649
    10230.179000       0.389651
    10240.655400       0.393666
    10251.153300       0.397695
    10261.672700       0.401737
    10272.213700       0.405792
    10282.776300       0.409860
    10293.360800       0.413940
    10303.967000       0.418031
    10314.595200       0.422135
    10325.245200       0.426250
    10335.917300       0.430376
    10346.611500       0.434513
    10357.327800       0.438659
    10368.066400       0.442817
    10378.827200       0.446983
    10389.610400       0.451160
    10400.416000       0.455345
    10411.244100       0.459539
    10422.094800       0.463741
    10432.968200       0.467952
    10443.864200       0.472170
    10454.783100       0.476396
    10465.724800       0.480628
    10476.689400       0.484867
    10487.677000       0.489113
    10498.687700       0.493364
    10509.721500       0.497621
    10520.778500       0.501882
    10531.858900       0.506149
    10542.962600       0.510420
    10554.089700       0.514696
    10565.240400       0.518974
    10576.414600       0.523256
    10587.612500       0.527541
    10598.834100       0.531829
    10610.079600       0.536119
    10621.348900       0.540410
    10632.642200       0.544703
    10643.959600       0.548997
    10655.301000       0.553291
    10666.666700       0.557586
    10678.056600       0.561880
    10689.470900       0.566174
    10700.909600       0.570467
    10712.372800       0.574758
    10723.860600       0.579047
    10735.373100       0.583335
    10746.910300       0.587620
    10758.472300       0.591901
    10770.059200       0.596179
    10781.671200       0.600454
    10793.308100       0.604724
    10804.970300       0.608990
    10816.657700       0.613250
    10828.370300       0.617505
    10840.108400       0.621754
    10851.871900       0.625997
    10863.661100       0.630233
    10875.475800       0.634462
    10887.316300       0.638684
    10899.182600       0.642897
    10911.074700       0.647103
    10922.992900       0.651299
    10934.937100       0.655487
    10946.907500       0.659664
    10958.904100       0.663832
    10970.927000       0.667990
    10982.976400       0.672137
    10995.052200       0.676272
    11007.154700       0.680396
    11019.283700       0.684508
    11031.439600       0.688608
    11043.622300       0.692694
    11055.832000       0.696768
    11068.068600       0.700827
    11080.332400       0.704873
    11092.623400       0.708905
    11104.941700       0.712921
    11117.287400       0.716923
    11129.660500       0.720908
    11142.061300       0.724878
    11154.489700       0.728832
    11166.945800       0.732768
    11179.429800       0.736687
    11191.941800       0.740589
    11204.481800       0.744473
    11217.049900       0.748338
    11229.646300       0.752185
    11242.270900       0.756013
    11254.924000       0.759821
    11267.605600       0.763609
    11280.315800       0.767378
    11293.054800       0.771125
    11305.822500       0.774852
    11318.619100       0.778557
    11331.444800       0.782240
    11344.299500       0.785902
    11357.183400       0.789541
    11370.096600       0.793158
    11383.039300       0.796751
    11396.011400       0.800321
    11409.013100       0.803867
    11422.044500       0.807389
    11435.105800       0.810886
    11448.196900       0.814359
    11461.318100       0.817806
    11474.469300       0.821228
    11487.650800       0.824625
    11500.862600       0.827995
    11514.104800       0.831339
    11527.377500       0.834656
    11540.680900       0.837946
    11554.015000       0.841209
    11567.380000       0.844444
    11580.775900       0.847651
    11594.202900       0.850830
    11607.661100       0.853981
    11621.150500       0.857103
    11634.671300       0.860195
    11648.223600       0.863258
    11661.807600       0.866292
    11675.423200       0.869296
    11689.070700       0.872270
    11702.750100       0.875213
    11716.461600       0.878126
    11730.205300       0.881008
    11743.981200       0.883859
    11757.789500       0.886678
    11771.630400       0.889466
    11785.503800       0.892222
    11799.410000       0.894946
    11813.349100       0.897638
    11827.321100       0.900297
    11841.326200       0.902924
    11855.364600       0.905518
    11869.436200       0.908078
    11883.541300       0.910606
    11897.680000       0.913100
    11911.852300       0.915560
    11926.058400       0.917987
    11940.298500       0.920380
    11954.572600       0.922739
    11968.880900       0.925063
    11983.223500       0.927353
    11997.600500       0.929608
    12012.012000       0.931829
    12026.458200       0.934015
    12040.939200       0.936166
    12055.455100       0.938282
    12070.006000       0.940362
    12084.592100       0.942408
    12099.213600       0.944418
    12113.870400       0.946392
    12128.562800       0.948331
    12143.290800       0.950234
    12158.054700       0.952101
    12172.854500       0.953933
    12187.690400       0.955728
    12202.562500       0.957488
    12217.471000       0.959211
    12232.415900       0.960899
    12247.397400       0.962550
    12262.415700       0.964165
    12277.470800       0.965744
    12292.563000       0.967287
    12307.692300       0.968793
    12322.858900       0.970264
    12338.062900       0.971698
    12353.304500       0.973095
    12368.583800       0.974457
    12383.900900       0.975782
    12399.256000       0.977071
    12414.649300       0.978323
    12430.080800       0.979540
    12445.550700       0.980720
    12461.059200       0.981865
    12476.606400       0.982973
    12492.192400       0.984045
    12507.817400       0.985081
    12523.481500       0.986081
    12539.185000       0.987046
    12554.927800       0.987975
    12570.710200       0.988868
    12586.532400       0.989726
    12602.394500       0.990548
    12618.296500       0.991335
    12634.238800       0.992086
    12650.221400       0.992803
    12666.244500       0.993484
    12682.308200       0.994131
    12698.412700       0.994742
    12714.558200       0.995320
    12730.744700       0.995862
    12746.972600       0.996371
    12763.241900       0.996845
    12779.552700       0.997285
    12795.905300       0.997692
    12812.299800       0.998065
    12828.736400       0.998404
    12845.215200       0.998710
    12861.736300       0.998983
    12878.300100       0.999223
    12894.906500       0.999430
    12911.555800       0.999605
    12928.248200       0.999748
    12944.983800       0.999858
    12961.762800       0.999937
    12978.585300       0.999984
    12995.451600       1.000000
    13012.361700       0.999985
    13029.316000       0.999938
    13046.314400       0.999862
    13063.357300       0.999754
    13080.444700       0.999617
    13097.576900       0.999450
    13114.754100       0.999253
    13131.976400       0.999027
    13149.243900       0.998772
    13166.556900       0.998488
    13183.915600       0.998176
    13201.320100       0.997835
    13218.770700       0.997467
    13236.267400       0.997071
    13253.810500       0.996648
    13271.400100       0.996198
    13289.036500       0.995722
    13306.719900       0.995219
    13324.450400       0.994690
    13342.228200       0.994135
    13360.053400       0.993556
    13377.926400       0.992951
    13395.847300       0.992321
    13413.816200       0.991668
    13431.833400       0.990990
    13449.899100       0.990289
    13468.013500       0.989565
    13486.176700       0.988817
    13504.388900       0.988048
    13522.650400       0.987256
    13540.961400       0.986442
    13559.322000       0.985607
    13577.732500       0.984751
    13596.193100       0.983874
    13614.703900       0.982977
    13633.265200       0.982060
    13651.877100       0.981124
    13670.540000       0.980169
    13689.253900       0.979194
    13708.019200       0.978202
    13726.836000       0.977191
    13745.704500       0.976163
    13764.624900       0.975118
    13783.597500       0.974057
    13802.622500       0.972978
    13821.700100       0.971884
    13840.830400       0.970775
    13860.013900       0.969650
    13879.250500       0.968511
    13898.540700       0.967357
    13917.884500       0.966190
    13937.282200       0.965009
    13956.734100       0.963815
    13976.240400       0.962608
    13995.801300       0.961389
    14015.417000       0.960159
    14035.087700       0.958917
    14054.813800       0.957664
    14074.595400       0.956401
    14094.432700       0.955127
    14114.326000       0.953844
    14134.275600       0.952552
    14154.281700       0.951250
    14174.344400       0.949941
    14194.464200       0.948623
    14214.641100       0.947297
    14234.875400       0.945965
    14255.167500       0.944626
    14275.517500       0.943280
    14295.925700       0.941929
    14316.392300       0.940572
    14336.917600       0.939210
    14357.501800       0.937843
    14378.145200       0.936472
    14398.848100       0.935097
    14419.610700       0.933719
    14440.433200       0.932338
    14461.316000       0.930954
    14482.259200       0.929567
    14503.263200       0.928179
    14524.328200       0.926790
    14545.454500       0.925400
    14566.642400       0.924009
    14587.892000       0.922618
    14609.203800       0.921226
    14630.577900       0.919836
    14652.014700       0.918446
    14673.514300       0.917058
    14695.077100       0.915672
    14716.703500       0.914287
    14738.393500       0.912905
    14760.147600       0.911526
    14781.966000       0.910150
    14803.849000       0.908777
    14825.796900       0.907409
    14847.809900       0.906044
    14869.888500       0.904685
    14892.032800       0.903330
    14914.243100       0.901981
    14936.519800       0.900637
    14958.863100       0.899299
    14981.273400       0.897967
    15003.750900       0.896643
    15026.296000       0.895325
    15048.909000       0.894014
    15071.590100       0.892711
    15094.339600       0.891416
    15117.158000       0.890129
    15140.045400       0.888850
    15163.002300       0.887580
    15186.028900       0.886320
    15209.125500       0.885068
    15232.292500       0.883826
    15255.530100       0.882594
    15278.838800       0.881373
    15302.218800       0.880161
    15325.670500       0.878960
    15349.194200       0.877770
    15372.790200       0.876592
    15396.458800       0.875424
    15420.200500       0.874268
    15444.015400       0.873124
    15467.904100       0.871992
    15491.866800       0.870872
    15515.903800       0.869764
    15540.015500       0.868669
    15564.202300       0.867587
    15588.464500       0.866518
    15612.802500       0.865461
    15637.216600       0.864418
    15661.707100       0.863389
    15686.274500       0.862373
    15710.919100       0.861370
    15735.641200       0.860382
    15760.441300       0.859407
    15785.319700       0.858446
    15810.276700       0.857500
    15835.312700       0.856568
    15860.428200       0.855650
    15885.623500       0.854746
    15910.899000       0.853857
    15936.255000       0.852982
    15961.691900       0.852123
    15987.210200       0.851277
    16012.810200       0.850447
    16038.492400       0.849631
    16064.257000       0.848830
    16090.104600       0.848043
    16116.035500       0.847271
    16142.050000       0.846514
    16168.148700       0.845772
    16194.332000       0.845044
    16220.600200       0.844331
    16246.953700       0.843633
    16273.393000       0.842949
    16299.918500       0.842280
    16326.530600       0.841625
    16353.229800       0.840984
    16380.016400       0.840358
    16406.890900       0.839745
    16433.853700       0.839147
    16460.905300       0.838563
    16488.046200       0.837992
    16515.276600       0.837435
    16542.597200       0.836891
    16570.008300       0.836361
    16597.510400       0.835844
    16625.103900       0.835340
    16652.789300       0.834849
    16680.567100       0.834370
    16708.437800       0.833904
    16736.401700       0.833449
    16764.459300       0.833007
    16792.611300       0.832576
    16820.857900       0.832157
    16849.199700       0.831749
    16877.637100       0.831352
    16906.170800       0.830965
    16934.801000       0.830589
    16963.528400       0.830223
    16992.353400       0.829866
    17021.276600       0.829519
    17050.298400       0.829181
    17079.419300       0.828852
    17108.639900       0.828531
    17137.960600       0.828218
    17167.382000       0.827912
    17196.904600       0.827614
    17226.528900       0.827323
    17256.255400       0.827038
    17286.084700       0.826760
