124,   124, MVIRI VIS channel from srf_MET5_2006258_2006259_1801-Release_S10EL_10.dat
Number of data points:
806
Wavenumber (cm-1)   Filter response
     8350.730700       0.000000
     8357.710000       0.000000
     8364.701000       0.000000
     8371.703600       0.000002
     8378.718100       0.000004
     8385.744200       0.000009
     8392.782200       0.000017
     8399.832000       0.000028
     8406.893700       0.000043
     8413.967200       0.000062
     8421.052600       0.000086
     8428.150000       0.000116
     8435.259400       0.000151
     8442.380800       0.000192
     8449.514200       0.000240
     8456.659600       0.000296
     8463.817200       0.000359
     8470.986900       0.000429
     8478.168700       0.000509
     8485.362700       0.000596
     8492.569000       0.000693
     8499.787500       0.000799
     8507.018300       0.000915
     8514.261400       0.001041
     8521.516800       0.001178
     8528.784600       0.001325
     8536.064900       0.001483
     8543.357500       0.001652
     8550.662700       0.001832
     8557.980300       0.002024
     8565.310500       0.002229
     8572.653200       0.002445
     8580.008600       0.002674
     8587.376600       0.002916
     8594.757200       0.003171
     8602.150500       0.003438
     8609.556600       0.003720
     8616.975400       0.004014
     8624.407100       0.004323
     8631.851500       0.004645
     8639.308900       0.004982
     8646.779100       0.005332
     8654.262200       0.005698
     8661.758300       0.006078
     8669.267400       0.006473
     8676.789600       0.006882
     8684.324800       0.007307
     8691.873100       0.007747
     8699.434500       0.008203
     8707.009100       0.008674
     8714.596900       0.009161
     8722.198000       0.009664
     8729.812300       0.010183
     8737.439900       0.010718
     8745.080900       0.011270
     8752.735200       0.011837
     8760.403000       0.012422
     8768.084200       0.013023
     8775.778900       0.013640
     8783.487000       0.014275
     8791.208800       0.014927
     8798.944100       0.015596
     8806.693100       0.016282
     8814.455700       0.016986
     8822.232000       0.017707
     8830.022100       0.018446
     8837.825900       0.019202
     8845.643500       0.019977
     8853.475000       0.020769
     8861.320300       0.021580
     8869.179600       0.022408
     8877.052800       0.023255
     8884.940000       0.024120
     8892.841300       0.025004
     8900.756600       0.025907
     8908.686000       0.026828
     8916.629500       0.027768
     8924.587200       0.028727
     8932.559200       0.029705
     8940.545400       0.030702
     8948.545900       0.031719
     8956.560700       0.032754
     8964.589900       0.033809
     8972.633500       0.034884
     8980.691500       0.035978
     8988.764000       0.037093
     8996.851100       0.038226
     9004.952700       0.039380
     9013.068900       0.040554
     9021.199800       0.041748
     9029.345400       0.042963
     9037.505600       0.044197
     9045.680700       0.045453
     9053.870500       0.046728
     9062.075200       0.048024
     9070.294800       0.049342
     9078.529300       0.050679
     9086.778700       0.052038
     9095.043200       0.053418
     9103.322700       0.054819
     9111.617300       0.056241
     9119.927000       0.057684
     9128.251900       0.059149
     9136.592100       0.060635
     9144.947400       0.062143
     9153.318100       0.063673
     9161.704100       0.065224
     9170.105500       0.066797
     9178.522300       0.068392
     9186.954500       0.070009
     9195.402300       0.071648
     9203.865600       0.073309
     9212.344500       0.074992
     9220.839100       0.076698
     9229.349300       0.078426
     9237.875300       0.080177
     9246.417000       0.081950
     9254.974500       0.083746
     9263.547900       0.085564
     9272.137200       0.087406
     9280.742500       0.089270
     9289.363700       0.091157
     9298.000900       0.093067
     9306.654300       0.095000
     9315.323700       0.096956
     9324.009300       0.098936
     9332.711200       0.100939
     9341.429200       0.102964
     9350.163600       0.105014
     9358.914400       0.107086
     9367.681500       0.109183
     9376.465100       0.111302
     9385.265100       0.113446
     9394.081700       0.115612
     9402.914900       0.117803
     9411.764700       0.120017
     9420.631200       0.122255
     9429.514400       0.124516
     9438.414300       0.126802
     9447.331100       0.129111
     9456.264800       0.131444
     9465.215300       0.133801
     9474.182900       0.136182
     9483.167400       0.138587
     9492.169000       0.141015
     9501.187600       0.143468
     9510.223500       0.145944
     9519.276500       0.148445
     9528.346800       0.150969
     9537.434400       0.153518
     9546.539400       0.156090
     9555.661700       0.158686
     9564.801500       0.161306
     9573.958800       0.163950
     9583.133700       0.166618
     9592.326100       0.169310
     9601.536200       0.172026
     9610.764100       0.174765
     9620.009600       0.177529
     9629.273000       0.180316
     9638.554200       0.183127
     9647.853400       0.185961
     9657.170400       0.188819
     9666.505600       0.191701
     9675.858700       0.194607
     9685.230000       0.197535
     9694.619500       0.200488
     9704.027200       0.203463
     9713.453100       0.206462
     9722.897400       0.209485
     9732.360100       0.212530
     9741.841200       0.215598
     9751.340800       0.218689
     9760.859000       0.221804
     9770.395700       0.224941
     9779.951100       0.228100
     9789.525200       0.231283
     9799.118100       0.234488
     9808.729800       0.237715
     9818.360300       0.240965
     9828.009800       0.244236
     9837.678300       0.247530
     9847.365800       0.250846
     9857.072400       0.254183
     9866.798200       0.257542
     9876.543200       0.260922
     9886.307500       0.264324
     9896.091000       0.267748
     9905.894000       0.271192
     9915.716400       0.274657
     9925.558300       0.278143
     9935.419800       0.281649
     9945.300800       0.285176
     9955.201600       0.288723
     9965.122100       0.292290
     9975.062300       0.295877
     9985.022500       0.299484
     9995.002500       0.303111
    10005.002500       0.306756
    10015.022500       0.310421
    10025.062700       0.314104
    10035.122900       0.317807
    10045.203400       0.321527
    10055.304200       0.325267
    10065.425300       0.329024
    10075.566800       0.332799
    10085.728700       0.336591
    10095.911200       0.340401
    10106.114200       0.344229
    10116.337900       0.348072
    10126.582300       0.351933
    10136.847400       0.355810
    10147.133400       0.359703
    10157.440300       0.363612
    10167.768200       0.367537
    10178.117000       0.371477
    10188.487000       0.375432
    10198.878100       0.379402
    10209.290500       0.383387
    10219.724100       0.387386
    10230.179000       0.391398
    10240.655400       0.395425
    10251.153300       0.399465
    10261.672700       0.403518
    10272.213700       0.407583
    10282.776300       0.411662
    10293.360800       0.415752
    10303.967000       0.419854
    10314.595200       0.423968
    10325.245200       0.428093
    10335.917300       0.432230
    10346.611500       0.436376
    10357.327800       0.440533
    10368.066400       0.444700
    10378.827200       0.448876
    10389.610400       0.453062
    10400.416000       0.457257
    10411.244100       0.461460
    10422.094800       0.465672
    10432.968200       0.469891
    10443.864200       0.474119
    10454.783100       0.478353
    10465.724800       0.482594
    10476.689400       0.486841
    10487.677000       0.491095
    10498.687700       0.495354
    10509.721500       0.499619
    10520.778500       0.503889
    10531.858900       0.508163
    10542.962600       0.512442
    10554.089700       0.516724
    10565.240400       0.521010
    10576.414600       0.525300
    10587.612500       0.529591
    10598.834100       0.533886
    10610.079600       0.538182
    10621.348900       0.542480
    10632.642200       0.546779
    10643.959600       0.551079
    10655.301000       0.555379
    10666.666700       0.559679
    10678.056600       0.563979
    10689.470900       0.568278
    10700.909600       0.572576
    10712.372800       0.576872
    10723.860600       0.581166
    10735.373100       0.585458
    10746.910300       0.589747
    10758.472300       0.594032
    10770.059200       0.598315
    10781.671200       0.602593
    10793.308100       0.606866
    10804.970300       0.611135
    10816.657700       0.615399
    10828.370300       0.619656
    10840.108400       0.623908
    10851.871900       0.628153
    10863.661100       0.632392
    10875.475800       0.636623
    10887.316300       0.640846
    10899.182600       0.645062
    10911.074700       0.649269
    10922.992900       0.653466
    10934.937100       0.657654
    10946.907500       0.661833
    10958.904100       0.666001
    10970.927000       0.670159
    10982.976400       0.674306
    10995.052200       0.678441
    11007.154700       0.682565
    11019.283700       0.686676
    11031.439600       0.690775
    11043.622300       0.694860
    11055.832000       0.698932
    11068.068600       0.702991
    11080.332400       0.707035
    11092.623400       0.711064
    11104.941700       0.715078
    11117.287400       0.719077
    11129.660500       0.723060
    11142.061300       0.727027
    11154.489700       0.730977
    11166.945800       0.734910
    11179.429800       0.738826
    11191.941800       0.742724
    11204.481800       0.746603
    11217.049900       0.750464
    11229.646300       0.754306
    11242.270900       0.758129
    11254.924000       0.761932
    11267.605600       0.765715
    11280.315800       0.769477
    11293.054800       0.773219
    11305.822500       0.776939
    11318.619100       0.780638
    11331.444800       0.784315
    11344.299500       0.787970
    11357.183400       0.791602
    11370.096600       0.795211
    11383.039300       0.798796
    11396.011400       0.802358
    11409.013100       0.805896
    11422.044500       0.809410
    11435.105800       0.812899
    11448.196900       0.816363
    11461.318100       0.819801
    11474.469300       0.823214
    11487.650800       0.826601
    11500.862600       0.829961
    11514.104800       0.833295
    11527.377500       0.836602
    11540.680900       0.839881
    11554.015000       0.843133
    11567.380000       0.846357
    11580.775900       0.849553
    11594.202900       0.852721
    11607.661100       0.855859
    11621.150500       0.858969
    11634.671300       0.862050
    11648.223600       0.865101
    11661.807600       0.868122
    11675.423200       0.871113
    11689.070700       0.874073
    11702.750100       0.877003
    11716.461600       0.879902
    11730.205300       0.882770
    11743.981200       0.885607
    11757.789500       0.888412
    11771.630400       0.891186
    11785.503800       0.893927
    11799.410000       0.896636
    11813.349100       0.899313
    11827.321100       0.901956
    11841.326200       0.904567
    11855.364600       0.907145
    11869.436200       0.909690
    11883.541300       0.912201
    11897.680000       0.914679
    11911.852300       0.917123
    11926.058400       0.919532
    11940.298500       0.921908
    11954.572600       0.924249
    11968.880900       0.926556
    11983.223500       0.928828
    11997.600500       0.931066
    12012.012000       0.933269
    12026.458200       0.935436
    12040.939200       0.937568
    12055.455100       0.939665
    12070.006000       0.941727
    12084.592100       0.943753
    12099.213600       0.945744
    12113.870400       0.947699
    12128.562800       0.949618
    12143.290800       0.951501
    12158.054700       0.953349
    12172.854500       0.955160
    12187.690400       0.956935
    12202.562500       0.958674
    12217.471000       0.960377
    12232.415900       0.962044
    12247.397400       0.963674
    12262.415700       0.965268
    12277.470800       0.966825
    12292.563000       0.968346
    12307.692300       0.969831
    12322.858900       0.971280
    12338.062900       0.972691
    12353.304500       0.974067
    12368.583800       0.975406
    12383.900900       0.976709
    12399.256000       0.977975
    12414.649300       0.979205
    12430.080800       0.980399
    12445.550700       0.981556
    12461.059200       0.982677
    12476.606400       0.983762
    12492.192400       0.984811
    12507.817400       0.985823
    12523.481500       0.986800
    12539.185000       0.987741
    12554.927800       0.988646
    12570.710200       0.989515
    12586.532400       0.990348
    12602.394500       0.991146
    12618.296500       0.991909
    12634.238800       0.992636
    12650.221400       0.993328
    12666.244500       0.993985
    12682.308200       0.994606
    12698.412700       0.995193
    12714.558200       0.995746
    12730.744700       0.996263
    12746.972600       0.996746
    12763.241900       0.997196
    12779.552700       0.997610
    12795.905300       0.997992
    12812.299800       0.998339
    12828.736400       0.998653
    12845.215200       0.998933
    12861.736300       0.999180
    12878.300100       0.999395
    12894.906500       0.999576
    12911.555800       0.999725
    12928.248200       0.999842
    12944.983800       0.999926
    12961.762800       0.999979
    12978.585300       1.000000
    12995.451600       0.999990
    13012.361700       0.999948
    13029.316000       0.999875
    13046.314400       0.999772
    13063.357300       0.999639
    13080.444700       0.999475
    13097.576900       0.999281
    13114.754100       0.999058
    13131.976400       0.998805
    13149.243900       0.998524
    13166.556900       0.998213
    13183.915600       0.997875
    13201.320100       0.997507
    13218.770700       0.997113
    13236.267400       0.996690
    13253.810500       0.996240
    13271.400100       0.995764
    13289.036500       0.995260
    13306.719900       0.994731
    13324.450400       0.994175
    13342.228200       0.993594
    13360.053400       0.992987
    13377.926400       0.992356
    13395.847300       0.991700
    13413.816200       0.991019
    13431.833400       0.990315
    13449.899100       0.989587
    13468.013500       0.988836
    13486.176700       0.988062
    13504.388900       0.987265
    13522.650400       0.986447
    13540.961400       0.985606
    13559.322000       0.984744
    13577.732500       0.983862
    13596.193100       0.982958
    13614.703900       0.982035
    13633.265200       0.981091
    13651.877100       0.980128
    13670.540000       0.979146
    13689.253900       0.978145
    13708.019200       0.977126
    13726.836000       0.976089
    13745.704500       0.975035
    13764.624900       0.973963
    13783.597500       0.972875
    13802.622500       0.971770
    13821.700100       0.970650
    13840.830400       0.969514
    13860.013900       0.968363
    13879.250500       0.967197
    13898.540700       0.966017
    13917.884500       0.964823
    13937.282200       0.963616
    13956.734100       0.962396
    13976.240400       0.961163
    13995.801300       0.959918
    14015.417000       0.958662
    14035.087700       0.957394
    14054.813800       0.956115
    14074.595400       0.954825
    14094.432700       0.953526
    14114.326000       0.952217
    14134.275600       0.950899
    14154.281700       0.949571
    14174.344400       0.948236
    14194.464200       0.946892
    14214.641100       0.945541
    14234.875400       0.944183
    14255.167500       0.942818
    14275.517500       0.941447
    14295.925700       0.940070
    14316.392300       0.938688
    14336.917600       0.937300
    14357.501800       0.935908
    14378.145200       0.934512
    14398.848100       0.933111
    14419.610700       0.931708
    14440.433200       0.930301
    14461.316000       0.928892
    14482.259200       0.927481
    14503.263200       0.926067
    14524.328200       0.924653
    14545.454500       0.923237
    14566.642400       0.921821
    14587.892000       0.920405
    14609.203800       0.918989
    14630.577900       0.917573
    14652.014700       0.916159
    14673.514300       0.914746
    14695.077100       0.913334
    14716.703500       0.911925
    14738.393500       0.910518
    14760.147600       0.909114
    14781.966000       0.907713
    14803.849000       0.906316
    14825.796900       0.904922
    14847.809900       0.903533
    14869.888500       0.902149
    14892.032800       0.900769
    14914.243100       0.899395
    14936.519800       0.898027
    14958.863100       0.896664
    14981.273400       0.895308
    15003.750900       0.893959
    15026.296000       0.892616
    15048.909000       0.891281
    15071.590100       0.889953
    15094.339600       0.888633
    15117.158000       0.887321
    15140.045400       0.886018
    15163.002300       0.884724
    15186.028900       0.883439
    15209.125500       0.882163
    15232.292500       0.880896
    15255.530100       0.879640
    15278.838800       0.878393
    15302.218800       0.877157
    15325.670500       0.875931
    15349.194200       0.874717
    15372.790200       0.873513
    15396.458800       0.872321
    15420.200500       0.871140
    15444.015400       0.869972
    15467.904100       0.868815
    15491.866800       0.867670
    15515.903800       0.866537
    15540.015500       0.865417
    15564.202300       0.864310
    15588.464500       0.863216
    15612.802500       0.862135
    15637.216600       0.861067
    15661.707100       0.860012
    15686.274500       0.858971
    15710.919100       0.857943
    15735.641200       0.856930
    15760.441300       0.855930
    15785.319700       0.854944
    15810.276700       0.853972
    15835.312700       0.853014
    15860.428200       0.852071
    15885.623500       0.851142
    15910.899000       0.850228
    15936.255000       0.849327
    15961.691900       0.848442
    15987.210200       0.847571
    16012.810200       0.846715
    16038.492400       0.845873
    16064.257000       0.845046
    16090.104600       0.844233
    16116.035500       0.843436
    16142.050000       0.842653
    16168.148700       0.841884
    16194.332000       0.841130
    16220.600200       0.840391
    16246.953700       0.839666
    16273.393000       0.838956
    16299.918500       0.838260
    16326.530600       0.837578
    16353.229800       0.836911
    16380.016400       0.836258
    16406.890900       0.835619
    16433.853700       0.834993
    16460.905300       0.834382
    16488.046200       0.833784
    16515.276600       0.833200
    16542.597200       0.832629
    16570.008300       0.832072
    16597.510400       0.831527
    16625.103900       0.830996
    16652.789300       0.830477
    16680.567100       0.829970
    16708.437800       0.829476
    16736.401700       0.828994
    16764.459300       0.828523
    16792.611300       0.828065
    16820.857900       0.827617
    16849.199700       0.827181
    16877.637100       0.826755
    16906.170800       0.826341
    16934.801000       0.825936
    16963.528400       0.825541
    16992.353400       0.825156
    17021.276600       0.824780
    17050.298400       0.824413
    17079.419300       0.824055
    17108.639900       0.823705
    17137.960600       0.823363
    17167.382000       0.823028
    17196.904600       0.822701
    17226.528900       0.822380
    17256.255400       0.822066
    17286.084700       0.821758
