70,   70, MVIRI VIS channel from srf_MET7_2006123_2006124_1801-Release_S10EE_10.dat
Number of data points:
793
Wavenumber (cm-1)   Filter response
     8442.380800       0.000000
     8449.514200       0.000000
     8456.659600       0.000004
     8463.817200       0.000055
     8470.986900       0.000163
     8478.168700       0.000326
     8485.362700       0.000543
     8492.569000       0.000812
     8499.787500       0.001131
     8507.018300       0.001499
     8514.261400       0.001916
     8521.516800       0.002378
     8528.784600       0.002885
     8536.064900       0.003436
     8543.357500       0.004030
     8550.662700       0.004665
     8557.980300       0.005340
     8565.310500       0.006054
     8572.653200       0.006807
     8580.008600       0.007596
     8587.376600       0.008422
     8594.757200       0.009283
     8602.150500       0.010178
     8609.556600       0.011106
     8616.975400       0.012068
     8624.407100       0.013061
     8631.851500       0.014085
     8639.308900       0.015140
     8646.779100       0.016224
     8654.262200       0.017337
     8661.758300       0.018480
     8669.267400       0.019650
     8676.789600       0.020847
     8684.324800       0.022071
     8691.873100       0.023321
     8699.434500       0.024597
     8707.009100       0.025899
     8714.596900       0.027225
     8722.198000       0.028576
     8729.812300       0.029952
     8737.439900       0.031351
     8745.080900       0.032773
     8752.735200       0.034219
     8760.403000       0.035688
     8768.084200       0.037179
     8775.778900       0.038692
     8783.487000       0.040228
     8791.208800       0.041786
     8798.944100       0.043366
     8806.693100       0.044967
     8814.455700       0.046589
     8822.232000       0.048233
     8830.022100       0.049897
     8837.825900       0.051583
     8845.643500       0.053290
     8853.475000       0.055018
     8861.320300       0.056766
     8869.179600       0.058535
     8877.052800       0.060324
     8884.940000       0.062134
     8892.841300       0.063965
     8900.756600       0.065816
     8908.686000       0.067687
     8916.629500       0.069579
     8924.587200       0.071492
     8932.559200       0.073425
     8940.545400       0.075378
     8948.545900       0.077352
     8956.560700       0.079347
     8964.589900       0.081362
     8972.633500       0.083398
     8980.691500       0.085455
     8988.764000       0.087532
     8996.851100       0.089630
     9004.952700       0.091749
     9013.068900       0.093889
     9021.199800       0.096050
     9029.345400       0.098233
     9037.505600       0.100436
     9045.680700       0.102661
     9053.870500       0.104907
     9062.075200       0.107174
     9070.294800       0.109463
     9078.529300       0.111774
     9086.778700       0.114106
     9095.043200       0.116461
     9103.322700       0.118837
     9111.617300       0.121235
     9119.927000       0.123655
     9128.251900       0.126097
     9136.592100       0.128562
     9144.947400       0.131048
     9153.318100       0.133558
     9161.704100       0.136090
     9170.105500       0.138644
     9178.522300       0.141221
     9186.954500       0.143821
     9195.402300       0.146444
     9203.865600       0.149090
     9212.344500       0.151758
     9220.839100       0.154450
     9229.349300       0.157165
     9237.875300       0.159903
     9246.417000       0.162664
     9254.974500       0.165449
     9263.547900       0.168257
     9272.137200       0.171089
     9280.742500       0.173944
     9289.363700       0.176822
     9298.000900       0.179724
     9306.654300       0.182650
     9315.323700       0.185599
     9324.009300       0.188572
     9332.711200       0.191568
     9341.429200       0.194588
     9350.163600       0.197632
     9358.914400       0.200699
     9367.681500       0.203791
     9376.465100       0.206905
     9385.265100       0.210044
     9394.081700       0.213206
     9402.914900       0.216391
     9411.764700       0.219601
     9420.631200       0.222833
     9429.514400       0.226089
     9438.414300       0.229369
     9447.331100       0.232672
     9456.264800       0.235998
     9465.215300       0.239348
     9474.182900       0.242721
     9483.167400       0.246117
     9492.169000       0.249535
     9501.187600       0.252977
     9510.223500       0.256442
     9519.276500       0.259929
     9528.346800       0.263439
     9537.434400       0.266972
     9546.539400       0.270527
     9555.661700       0.274104
     9564.801500       0.277703
     9573.958800       0.281324
     9583.133700       0.284967
     9592.326100       0.288632
     9601.536200       0.292318
     9610.764100       0.296025
     9620.009600       0.299754
     9629.273000       0.303504
     9638.554200       0.307274
     9647.853400       0.311065
     9657.170400       0.314876
     9666.505600       0.318708
     9675.858700       0.322560
     9685.230000       0.326431
     9694.619500       0.330322
     9704.027200       0.334232
     9713.453100       0.338161
     9722.897400       0.342109
     9732.360100       0.346076
     9741.841200       0.350061
     9751.340800       0.354063
     9760.859000       0.358084
     9770.395700       0.362123
     9779.951100       0.366178
     9789.525200       0.370251
     9799.118100       0.374340
     9808.729800       0.378445
     9818.360300       0.382567
     9828.009800       0.386704
     9837.678300       0.390857
     9847.365800       0.395025
     9857.072400       0.399208
     9866.798200       0.403405
     9876.543200       0.407616
     9886.307500       0.411841
     9896.091000       0.416080
     9905.894000       0.420331
     9915.716400       0.424596
     9925.558300       0.428873
     9935.419800       0.433162
     9945.300800       0.437463
     9955.201600       0.441774
     9965.122100       0.446097
     9975.062300       0.450430
     9985.022500       0.454774
     9995.002500       0.459128
    10005.002500       0.463491
    10015.022500       0.467862
    10025.062700       0.472242
    10035.122900       0.476631
    10045.203400       0.481027
    10055.304200       0.485431
    10065.425300       0.489842
    10075.566800       0.494259
    10085.728700       0.498682
    10095.911200       0.503111
    10106.114200       0.507545
    10116.337900       0.511984
    10126.582300       0.516428
    10136.847400       0.520875
    10147.133400       0.525326
    10157.440300       0.529780
    10167.768200       0.534237
    10178.117000       0.538696
    10188.487000       0.543156
    10198.878100       0.547619
    10209.290500       0.552081
    10219.724100       0.556545
    10230.179000       0.561008
    10240.655400       0.565470
    10251.153300       0.569932
    10261.672700       0.574392
    10272.213700       0.578851
    10282.776300       0.583307
    10293.360800       0.587760
    10303.967000       0.592210
    10314.595200       0.596656
    10325.245200       0.601098
    10335.917300       0.605535
    10346.611500       0.609967
    10357.327800       0.614394
    10368.066400       0.618814
    10378.827200       0.623228
    10389.610400       0.627635
    10400.416000       0.632034
    10411.244100       0.636425
    10422.094800       0.640808
    10432.968200       0.645182
    10443.864200       0.649547
    10454.783100       0.653902
    10465.724800       0.658246
    10476.689400       0.662580
    10487.677000       0.666903
    10498.687700       0.671214
    10509.721500       0.675512
    10520.778500       0.679798
    10531.858900       0.684071
    10542.962600       0.688331
    10554.089700       0.692576
    10565.240400       0.696807
    10576.414600       0.701023
    10587.612500       0.705224
    10598.834100       0.709409
    10610.079600       0.713577
    10621.348900       0.717729
    10632.642200       0.721864
    10643.959600       0.725981
    10655.301000       0.730080
    10666.666700       0.734161
    10678.056600       0.738222
    10689.470900       0.742265
    10700.909600       0.746287
    10712.372800       0.750290
    10723.860600       0.754271
    10735.373100       0.758232
    10746.910300       0.762171
    10758.472300       0.766088
    10770.059200       0.769983
    10781.671200       0.773856
    10793.308100       0.777705
    10804.970300       0.781531
    10816.657700       0.785332
    10828.370300       0.789110
    10840.108400       0.792863
    10851.871900       0.796590
    10863.661100       0.800293
    10875.475800       0.803969
    10887.316300       0.807619
    10899.182600       0.811243
    10911.074700       0.814839
    10922.992900       0.818409
    10934.937100       0.821950
    10946.907500       0.825464
    10958.904100       0.828949
    10970.927000       0.832406
    10982.976400       0.835833
    10995.052200       0.839231
    11007.154700       0.842600
    11019.283700       0.845938
    11031.439600       0.849246
    11043.622300       0.852524
    11055.832000       0.855770
    11068.068600       0.858985
    11080.332400       0.862169
    11092.623400       0.865321
    11104.941700       0.868440
    11117.287400       0.871527
    11129.660500       0.874582
    11142.061300       0.877603
    11154.489700       0.880591
    11166.945800       0.883546
    11179.429800       0.886467
    11191.941800       0.889354
    11204.481800       0.892207
    11217.049900       0.895025
    11229.646300       0.897808
    11242.270900       0.900557
    11254.924000       0.903270
    11267.605600       0.905948
    11280.315800       0.908591
    11293.054800       0.911198
    11305.822500       0.913768
    11318.619100       0.916303
    11331.444800       0.918802
    11344.299500       0.921263
    11357.183400       0.923688
    11370.096600       0.926077
    11383.039300       0.928428
    11396.011400       0.930742
    11409.013100       0.933019
    11422.044500       0.935259
    11435.105800       0.937461
    11448.196900       0.939625
    11461.318100       0.941752
    11474.469300       0.943840
    11487.650800       0.945891
    11500.862600       0.947904
    11514.104800       0.949878
    11527.377500       0.951814
    11540.680900       0.953712
    11554.015000       0.955572
    11567.380000       0.957393
    11580.775900       0.959175
    11594.202900       0.960919
    11607.661100       0.962624
    11621.150500       0.964291
    11634.671300       0.965919
    11648.223600       0.967508
    11661.807600       0.969058
    11675.423200       0.970570
    11689.070700       0.972043
    11702.750100       0.973477
    11716.461600       0.974873
    11730.205300       0.976230
    11743.981200       0.977548
    11757.789500       0.978828
    11771.630400       0.980069
    11785.503800       0.981271
    11799.410000       0.982435
    11813.349100       0.983560
    11827.321100       0.984647
    11841.326200       0.985696
    11855.364600       0.986707
    11869.436200       0.987679
    11883.541300       0.988613
    11897.680000       0.989510
    11911.852300       0.990368
    11926.058400       0.991189
    11940.298500       0.991972
    11954.572600       0.992718
    11968.880900       0.993426
    11983.223500       0.994097
    11997.600500       0.994731
    12012.012000       0.995328
    12026.458200       0.995888
    12040.939200       0.996411
    12055.455100       0.996898
    12070.006000       0.997349
    12084.592100       0.997764
    12099.213600       0.998143
    12113.870400       0.998486
    12128.562800       0.998793
    12143.290800       0.999065
    12158.054700       0.999302
    12172.854500       0.999505
    12187.690400       0.999672
    12202.562500       0.999805
    12217.471000       0.999904
    12232.415900       0.999969
    12247.397400       1.000000
    12262.415700       0.999998
    12277.470800       0.999962
    12292.563000       0.999894
    12307.692300       0.999792
    12322.858900       0.999659
    12338.062900       0.999493
    12353.304500       0.999295
    12368.583800       0.999066
    12383.900900       0.998806
    12399.256000       0.998514
    12414.649300       0.998192
    12430.080800       0.997840
    12445.550700       0.997457
    12461.059200       0.997045
    12476.606400       0.996603
    12492.192400       0.996132
    12507.817400       0.995633
    12523.481500       0.995105
    12539.185000       0.994549
    12554.927800       0.993965
    12570.710200       0.993354
    12586.532400       0.992716
    12602.394500       0.992051
    12618.296500       0.991360
    12634.238800       0.990643
    12650.221400       0.989901
    12666.244500       0.989133
    12682.308200       0.988340
    12698.412700       0.987523
    12714.558200       0.986682
    12730.744700       0.985818
    12746.972600       0.984930
    12763.241900       0.984019
    12779.552700       0.983086
    12795.905300       0.982130
    12812.299800       0.981153
    12828.736400       0.980155
    12845.215200       0.979136
    12861.736300       0.978096
    12878.300100       0.977037
    12894.906500       0.975957
    12911.555800       0.974859
    12928.248200       0.973742
    12944.983800       0.972606
    12961.762800       0.971453
    12978.585300       0.970282
    12995.451600       0.969095
    13012.361700       0.967890
    13029.316000       0.966669
    13046.314400       0.965433
    13063.357300       0.964182
    13080.444700       0.962915
    13097.576900       0.961634
    13114.754100       0.960339
    13131.976400       0.959031
    13149.243900       0.957710
    13166.556900       0.956376
    13183.915600       0.955029
    13201.320100       0.953671
    13218.770700       0.952302
    13236.267400       0.950922
    13253.810500       0.949532
    13271.400100       0.948131
    13289.036500       0.946722
    13306.719900       0.945303
    13324.450400       0.943875
    13342.228200       0.942440
    13360.053400       0.940997
    13377.926400       0.939546
    13395.847300       0.938089
    13413.816200       0.936626
    13431.833400       0.935156
    13449.899100       0.933682
    13468.013500       0.932202
    13486.176700       0.930718
    13504.388900       0.929229
    13522.650400       0.927737
    13540.961400       0.926242
    13559.322000       0.924745
    13577.732500       0.923245
    13596.193100       0.921743
    13614.703900       0.920239
    13633.265200       0.918735
    13651.877100       0.917230
    13670.540000       0.915725
    13689.253900       0.914220
    13708.019200       0.912717
    13726.836000       0.911214
    13745.704500       0.909713
    13764.624900       0.908214
    13783.597500       0.906717
    13802.622500       0.905224
    13821.700100       0.903733
    13840.830400       0.902246
    13860.013900       0.900764
    13879.250500       0.899286
    13898.540700       0.897812
    13917.884500       0.896345
    13937.282200       0.894882
    13956.734100       0.893426
    13976.240400       0.891977
    13995.801300       0.890534
    14015.417000       0.889098
    14035.087700       0.887670
    14054.813800       0.886250
    14074.595400       0.884839
    14094.432700       0.883436
    14114.326000       0.882042
    14134.275600       0.880658
    14154.281700       0.879283
    14174.344400       0.877919
    14194.464200       0.876565
    14214.641100       0.875222
    14234.875400       0.873890
    14255.167500       0.872570
    14275.517500       0.871261
    14295.925700       0.869964
    14316.392300       0.868680
    14336.917600       0.867409
    14357.501800       0.866150
    14378.145200       0.864905
    14398.848100       0.863673
    14419.610700       0.862456
    14440.433200       0.861252
    14461.316000       0.860063
    14482.259200       0.858888
    14503.263200       0.857729
    14524.328200       0.856585
    14545.454500       0.855456
    14566.642400       0.854342
    14587.892000       0.853245
    14609.203800       0.852164
    14630.577900       0.851099
    14652.014700       0.850051
    14673.514300       0.849019
    14695.077100       0.848004
    14716.703500       0.847007
    14738.393500       0.846026
    14760.147600       0.845064
    14781.966000       0.844119
    14803.849000       0.843191
    14825.796900       0.842282
    14847.809900       0.841391
    14869.888500       0.840518
    14892.032800       0.839664
    14914.243100       0.838828
    14936.519800       0.838010
    14958.863100       0.837211
    14981.273400       0.836432
    15003.750900       0.835671
    15026.296000       0.834929
    15048.909000       0.834206
    15071.590100       0.833502
    15094.339600       0.832817
    15117.158000       0.832152
    15140.045400       0.831506
    15163.002300       0.830879
    15186.028900       0.830271
    15209.125500       0.829683
    15232.292500       0.829114
    15255.530100       0.828565
    15278.838800       0.828035
    15302.218800       0.827524
    15325.670500       0.827032
    15349.194200       0.826560
    15372.790200       0.826107
    15396.458800       0.825673
    15420.200500       0.825258
    15444.015400       0.824862
    15467.904100       0.824484
    15491.866800       0.824126
    15515.903800       0.823787
    15540.015500       0.823466
    15564.202300       0.823163
    15588.464500       0.822879
    15612.802500       0.822613
    15637.216600       0.822365
    15661.707100       0.822135
    15686.274500       0.821922
    15710.919100       0.821728
    15735.641200       0.821550
    15760.441300       0.821390
    15785.319700       0.821247
    15810.276700       0.821120
    15835.312700       0.821010
    15860.428200       0.820916
    15885.623500       0.820838
    15910.899000       0.820776
    15936.255000       0.820730
    15961.691900       0.820699
    15987.210200       0.820683
    16012.810200       0.820681
    16038.492400       0.820694
    16064.257000       0.820721
    16090.104600       0.820762
    16116.035500       0.820816
    16142.050000       0.820883
    16168.148700       0.820963
    16194.332000       0.821055
    16220.600200       0.821159
    16246.953700       0.821275
    16273.393000       0.821402
    16299.918500       0.821540
    16326.530600       0.821689
    16353.229800       0.821848
    16380.016400       0.822016
    16406.890900       0.822193
    16433.853700       0.822379
    16460.905300       0.822574
    16488.046200       0.822776
    16515.276600       0.822986
    16542.597200       0.823202
    16570.008300       0.823425
    16597.510400       0.823654
    16625.103900       0.823889
    16652.789300       0.824128
    16680.567100       0.824372
    16708.437800       0.824619
    16736.401700       0.824870
    16764.459300       0.825124
    16792.611300       0.825380
    16820.857900       0.825637
    16849.199700       0.825896
    16877.637100       0.826155
    16906.170800       0.826415
    16934.801000       0.826673
    16963.528400       0.826931
    16992.353400       0.827186
    17021.276600       0.827439
    17050.298400       0.827689
    17079.419300       0.827936
    17108.639900       0.828178
    17137.960600       0.828415
    17167.382000       0.828646
    17196.904600       0.828871
    17226.528900       0.829089
    17256.255400       0.829300
    17286.084700       0.829502
    17316.017300       0.829695
    17346.053800       0.829879
    17376.194600       0.830052
    17406.440400       0.830214
    17436.791600       0.830364
    17467.248900       0.830502
    17497.812800       0.830627
    17528.483800       0.830738
    17559.262500       0.830834
    17590.149500       0.830914
    17621.145400       0.830979
    17652.250700       0.831027
    17683.466000       0.831057
