63,   63, MVIRI VIS channel from srf_MET7_2005168_2005169_1801-Release_S10EE_10.dat
Number of data points:
793
Wavenumber (cm-1)   Filter response
     8442.380800       0.000000
     8449.514200       0.000000
     8456.659600       0.000004
     8463.817200       0.000055
     8470.986900       0.000162
     8478.168700       0.000325
     8485.362700       0.000540
     8492.569000       0.000808
     8499.787500       0.001125
     8507.018300       0.001492
     8514.261400       0.001906
     8521.516800       0.002366
     8528.784600       0.002871
     8536.064900       0.003419
     8543.357500       0.004010
     8550.662700       0.004642
     8557.980300       0.005314
     8565.310500       0.006024
     8572.653200       0.006773
     8580.008600       0.007559
     8587.376600       0.008380
     8594.757200       0.009237
     8602.150500       0.010128
     8609.556600       0.011052
     8616.975400       0.012009
     8624.407100       0.012997
     8631.851500       0.014016
     8639.308900       0.015066
     8646.779100       0.016146
     8654.262200       0.017254
     8661.758300       0.018390
     8669.267400       0.019555
     8676.789600       0.020746
     8684.324800       0.021965
     8691.873100       0.023209
     8699.434500       0.024480
     8707.009100       0.025775
     8714.596900       0.027096
     8722.198000       0.028441
     8729.812300       0.029809
     8737.439900       0.031202
     8745.080900       0.032618
     8752.735200       0.034057
     8760.403000       0.035520
     8768.084200       0.037004
     8775.778900       0.038511
     8783.487000       0.040040
     8791.208800       0.041591
     8798.944100       0.043164
     8806.693100       0.044758
     8814.455700       0.046373
     8822.232000       0.048010
     8830.022100       0.049667
     8837.825900       0.051346
     8845.643500       0.053045
     8853.475000       0.054765
     8861.320300       0.056506
     8869.179600       0.058267
     8877.052800       0.060049
     8884.940000       0.061852
     8892.841300       0.063674
     8900.756600       0.065518
     8908.686000       0.067381
     8916.629500       0.069265
     8924.587200       0.071170
     8932.559200       0.073095
     8940.545400       0.075041
     8948.545900       0.077007
     8956.560700       0.078993
     8964.589900       0.081000
     8972.633500       0.083028
     8980.691500       0.085076
     8988.764000       0.087145
     8996.851100       0.089235
     9004.952700       0.091346
     9013.068900       0.093477
     9021.199800       0.095630
     9029.345400       0.097804
     9037.505600       0.099999
     9045.680700       0.102215
     9053.870500       0.104452
     9062.075200       0.106711
     9070.294800       0.108991
     9078.529300       0.111293
     9086.778700       0.113617
     9095.043200       0.115962
     9103.322700       0.118329
     9111.617300       0.120718
     9119.927000       0.123129
     9128.251900       0.125562
     9136.592100       0.128018
     9144.947400       0.130496
     9153.318100       0.132996
     9161.704100       0.135518
     9170.105500       0.138064
     9178.522300       0.140632
     9186.954500       0.143222
     9195.402300       0.145836
     9203.865600       0.148472
     9212.344500       0.151131
     9220.839100       0.153814
     9229.349300       0.156519
     9237.875300       0.159248
     9246.417000       0.162000
     9254.974500       0.164775
     9263.547900       0.167573
     9272.137200       0.170395
     9280.742500       0.173240
     9289.363700       0.176109
     9298.000900       0.179002
     9306.654300       0.181917
     9315.323700       0.184857
     9324.009300       0.187820
     9332.711200       0.190807
     9341.429200       0.193817
     9350.163600       0.196851
     9358.914400       0.199908
     9367.681500       0.202990
     9376.465100       0.206095
     9385.265100       0.209223
     9394.081700       0.212375
     9402.914900       0.215551
     9411.764700       0.218750
     9420.631200       0.221973
     9429.514400       0.225219
     9438.414300       0.228489
     9447.331100       0.231781
     9456.264800       0.235098
     9465.215300       0.238438
     9474.182900       0.241800
     9483.167400       0.245186
     9492.169000       0.248595
     9501.187600       0.252027
     9510.223500       0.255482
     9519.276500       0.258959
     9528.346800       0.262459
     9537.434400       0.265982
     9546.539400       0.269526
     9555.661700       0.273094
     9564.801500       0.276683
     9573.958800       0.280294
     9583.133700       0.283928
     9592.326100       0.287582
     9601.536200       0.291258
     9610.764100       0.294956
     9620.009600       0.298675
     9629.273000       0.302415
     9638.554200       0.306175
     9647.853400       0.309957
     9657.170400       0.313758
     9666.505600       0.317580
     9675.858700       0.321422
     9685.230000       0.325284
     9694.619500       0.329165
     9704.027200       0.333065
     9713.453100       0.336985
     9722.897400       0.340924
     9732.360100       0.344881
     9741.841200       0.348857
     9751.340800       0.352850
     9760.859000       0.356862
     9770.395700       0.360891
     9779.951100       0.364937
     9789.525200       0.369001
     9799.118100       0.373081
     9808.729800       0.377177
     9818.360300       0.381290
     9828.009800       0.385418
     9837.678300       0.389563
     9847.365800       0.393722
     9857.072400       0.397896
     9866.798200       0.402085
     9876.543200       0.406287
     9886.307500       0.410504
     9896.091000       0.414735
     9905.894000       0.418978
     9915.716400       0.423234
     9925.558300       0.427503
     9935.419800       0.431784
     9945.300800       0.436077
     9955.201600       0.440381
     9965.122100       0.444696
     9975.062300       0.449021
     9985.022500       0.453358
     9995.002500       0.457704
    10005.002500       0.462059
    10015.022500       0.466424
    10025.062700       0.470797
    10035.122900       0.475178
    10045.203400       0.479568
    10055.304200       0.483965
    10065.425300       0.488369
    10075.566800       0.492779
    10085.728700       0.497196
    10095.911200       0.501619
    10106.114200       0.506047
    10116.337900       0.510480
    10126.582300       0.514917
    10136.847400       0.519359
    10147.133400       0.523804
    10157.440300       0.528253
    10167.768200       0.532704
    10178.117000       0.537157
    10188.487000       0.541613
    10198.878100       0.546070
    10209.290500       0.550528
    10219.724100       0.554986
    10230.179000       0.559445
    10240.655400       0.563903
    10251.153300       0.568361
    10261.672700       0.572817
    10272.213700       0.577271
    10282.776300       0.581723
    10293.360800       0.586173
    10303.967000       0.590619
    10314.595200       0.595062
    10325.245200       0.599501
    10335.917300       0.603935
    10346.611500       0.608364
    10357.327800       0.612788
    10368.066400       0.617206
    10378.827200       0.621617
    10389.610400       0.626022
    10400.416000       0.630419
    10411.244100       0.634809
    10422.094800       0.639190
    10432.968200       0.643562
    10443.864200       0.647926
    10454.783100       0.652279
    10465.724800       0.656623
    10476.689400       0.660956
    10487.677000       0.665278
    10498.687700       0.669588
    10509.721500       0.673886
    10520.778500       0.678172
    10531.858900       0.682445
    10542.962600       0.686705
    10554.089700       0.690951
    10565.240400       0.695183
    10576.414600       0.699399
    10587.612500       0.703601
    10598.834100       0.707787
    10610.079600       0.711957
    10621.348900       0.716111
    10632.642200       0.720247
    10643.959600       0.724367
    10655.301000       0.728468
    10666.666700       0.732551
    10678.056600       0.736615
    10689.470900       0.740660
    10700.909600       0.744686
    10712.372800       0.748691
    10723.860600       0.752676
    10735.373100       0.756640
    10746.910300       0.760583
    10758.472300       0.764504
    10770.059200       0.768404
    10781.671200       0.772280
    10793.308100       0.776134
    10804.970300       0.779964
    10816.657700       0.783771
    10828.370300       0.787554
    10840.108400       0.791312
    10851.871900       0.795045
    10863.661100       0.798753
    10875.475800       0.802435
    10887.316300       0.806091
    10899.182600       0.809721
    10911.074700       0.813325
    10922.992900       0.816901
    10934.937100       0.820449
    10946.907500       0.823970
    10958.904100       0.827463
    10970.927000       0.830927
    10982.976400       0.834362
    10995.052200       0.837768
    11007.154700       0.841145
    11019.283700       0.844491
    11031.439600       0.847808
    11043.622300       0.851094
    11055.832000       0.854349
    11068.068600       0.857573
    11080.332400       0.860766
    11092.623400       0.863928
    11104.941700       0.867057
    11117.287400       0.870154
    11129.660500       0.873218
    11142.061300       0.876250
    11154.489700       0.879249
    11166.945800       0.882214
    11179.429800       0.885146
    11191.941800       0.888044
    11204.481800       0.890908
    11217.049900       0.893737
    11229.646300       0.896532
    11242.270900       0.899292
    11254.924000       0.902018
    11267.605600       0.904708
    11280.315800       0.907363
    11293.054800       0.909982
    11305.822500       0.912565
    11318.619100       0.915113
    11331.444800       0.917624
    11344.299500       0.920099
    11357.183400       0.922538
    11370.096600       0.924940
    11383.039300       0.927305
    11396.011400       0.929633
    11409.013100       0.931924
    11422.044500       0.934177
    11435.105800       0.936394
    11448.196900       0.938572
    11461.318100       0.940714
    11474.469300       0.942817
    11487.650800       0.944883
    11500.862600       0.946910
    11514.104800       0.948900
    11527.377500       0.950852
    11540.680900       0.952765
    11554.015000       0.954640
    11567.380000       0.956477
    11580.775900       0.958275
    11594.202900       0.960035
    11607.661100       0.961757
    11621.150500       0.963440
    11634.671300       0.965085
    11648.223600       0.966690
    11661.807600       0.968258
    11675.423200       0.969786
    11689.070700       0.971277
    11702.750100       0.972728
    11716.461600       0.974141
    11730.205300       0.975516
    11743.981200       0.976851
    11757.789500       0.978149
    11771.630400       0.979407
    11785.503800       0.980628
    11799.410000       0.981810
    11813.349100       0.982954
    11827.321100       0.984059
    11841.326200       0.985126
    11855.364600       0.986155
    11869.436200       0.987146
    11883.541300       0.988099
    11897.680000       0.989014
    11911.852300       0.989892
    11926.058400       0.990732
    11940.298500       0.991534
    11954.572600       0.992299
    11968.880900       0.993026
    11983.223500       0.993717
    11997.600500       0.994370
    12012.012000       0.994986
    12026.458200       0.995566
    12040.939200       0.996110
    12055.455100       0.996616
    12070.006000       0.997087
    12084.592100       0.997522
    12099.213600       0.997921
    12113.870400       0.998284
    12128.562800       0.998611
    12143.290800       0.998904
    12158.054700       0.999161
    12172.854500       0.999384
    12187.690400       0.999572
    12202.562500       0.999725
    12217.471000       0.999844
    12232.415900       0.999930
    12247.397400       0.999982
    12262.415700       1.000000
    12277.470800       0.999985
    12292.563000       0.999937
    12307.692300       0.999857
    12322.858900       0.999744
    12338.062900       0.999599
    12353.304500       0.999423
    12368.583800       0.999215
    12383.900900       0.998975
    12399.256000       0.998705
    12414.649300       0.998404
    12430.080800       0.998072
    12445.550700       0.997711
    12461.059200       0.997320
    12476.606400       0.996899
    12492.192400       0.996450
    12507.817400       0.995972
    12523.481500       0.995465
    12539.185000       0.994930
    12554.927800       0.994368
    12570.710200       0.993778
    12586.532400       0.993161
    12602.394500       0.992518
    12618.296500       0.991848
    12634.238800       0.991152
    12650.221400       0.990431
    12666.244500       0.989685
    12682.308200       0.988914
    12698.412700       0.988118
    12714.558200       0.987298
    12730.744700       0.986455
    12746.972600       0.985588
    12763.241900       0.984699
    12779.552700       0.983787
    12795.905300       0.982853
    12812.299800       0.981897
    12828.736400       0.980920
    12845.215200       0.979923
    12861.736300       0.978904
    12878.300100       0.977866
    12894.906500       0.976808
    12911.555800       0.975731
    12928.248200       0.974635
    12944.983800       0.973521
    12961.762800       0.972389
    12978.585300       0.971239
    12995.451600       0.970073
    13012.361700       0.968889
    13029.316000       0.967690
    13046.314400       0.966475
    13063.357300       0.965244
    13080.444700       0.963999
    13097.576900       0.962739
    13114.754100       0.961465
    13131.976400       0.960178
    13149.243900       0.958878
    13166.556900       0.957564
    13183.915600       0.956239
    13201.320100       0.954902
    13218.770700       0.953554
    13236.267400       0.952195
    13253.810500       0.950825
    13271.400100       0.949446
    13289.036500       0.948057
    13306.719900       0.946658
    13324.450400       0.945252
    13342.228200       0.943837
    13360.053400       0.942414
    13377.926400       0.940985
    13395.847300       0.939548
    13413.816200       0.938105
    13431.833400       0.936657
    13449.899100       0.935202
    13468.013500       0.933743
    13486.176700       0.932280
    13504.388900       0.930812
    13522.650400       0.929340
    13540.961400       0.927866
    13559.322000       0.926388
    13577.732500       0.924909
    13596.193100       0.923427
    13614.703900       0.921944
    13633.265200       0.920460
    13651.877100       0.918975
    13670.540000       0.917491
    13689.253900       0.916006
    13708.019200       0.914523
    13726.836000       0.913040
    13745.704500       0.911559
    13764.624900       0.910080
    13783.597500       0.908604
    13802.622500       0.907131
    13821.700100       0.905660
    13840.830400       0.904194
    13860.013900       0.902731
    13879.250500       0.901273
    13898.540700       0.899820
    13917.884500       0.898372
    13937.282200       0.896930
    13956.734100       0.895494
    13976.240400       0.894064
    13995.801300       0.892641
    14015.417000       0.891226
    14035.087700       0.889818
    14054.813800       0.888418
    14074.595400       0.887027
    14094.432700       0.885644
    14114.326000       0.884270
    14134.275600       0.882906
    14154.281700       0.881551
    14174.344400       0.880207
    14194.464200       0.878873
    14214.641100       0.877550
    14234.875400       0.876238
    14255.167500       0.874938
    14275.517500       0.873650
    14295.925700       0.872373
    14316.392300       0.871109
    14336.917600       0.869858
    14357.501800       0.868619
    14378.145200       0.867395
    14398.848100       0.866183
    14419.610700       0.864986
    14440.433200       0.863803
    14461.316000       0.862634
    14482.259200       0.861480
    14503.263200       0.860341
    14524.328200       0.859217
    14545.454500       0.858108
    14566.642400       0.857016
    14587.892000       0.855939
    14609.203800       0.854878
    14630.577900       0.853834
    14652.014700       0.852806
    14673.514300       0.851796
    14695.077100       0.850802
    14716.703500       0.849825
    14738.393500       0.848866
    14760.147600       0.847924
    14781.966000       0.847000
    14803.849000       0.846094
    14825.796900       0.845206
    14847.809900       0.844336
    14869.888500       0.843485
    14892.032800       0.842652
    14914.243100       0.841837
    14936.519800       0.841041
    14958.863100       0.840264
    14981.273400       0.839506
    15003.750900       0.838767
    15026.296000       0.838047
    15048.909000       0.837346
    15071.590100       0.836664
    15094.339600       0.836002
    15117.158000       0.835359
    15140.045400       0.834735
    15163.002300       0.834131
    15186.028900       0.833546
    15209.125500       0.832980
    15232.292500       0.832434
    15255.530100       0.831907
    15278.838800       0.831400
    15302.218800       0.830913
    15325.670500       0.830444
    15349.194200       0.829995
    15372.790200       0.829565
    15396.458800       0.829155
    15420.200500       0.828763
    15444.015400       0.828391
    15467.904100       0.828038
    15491.866800       0.827703
    15515.903800       0.827388
    15540.015500       0.827091
    15564.202300       0.826813
    15588.464500       0.826553
    15612.802500       0.826312
    15637.216600       0.826089
    15661.707100       0.825883
    15686.274500       0.825696
    15710.919100       0.825526
    15735.641200       0.825374
    15760.441300       0.825239
    15785.319700       0.825122
    15810.276700       0.825021
    15835.312700       0.824936
    15860.428200       0.824868
    15885.623500       0.824817
    15910.899000       0.824781
    15936.255000       0.824761
    15961.691900       0.824756
    15987.210200       0.824766
    16012.810200       0.824792
    16038.492400       0.824831
    16064.257000       0.824885
    16090.104600       0.824953
    16116.035500       0.825034
    16142.050000       0.825129
    16168.148700       0.825236
    16194.332000       0.825356
    16220.600200       0.825489
    16246.953700       0.825632
    16273.393000       0.825788
    16299.918500       0.825954
    16326.530600       0.826131
    16353.229800       0.826318
    16380.016400       0.826515
    16406.890900       0.826721
    16433.853700       0.826936
    16460.905300       0.827159
    16488.046200       0.827391
    16515.276600       0.827629
    16542.597200       0.827875
    16570.008300       0.828128
    16597.510400       0.828386
    16625.103900       0.828650
    16652.789300       0.828919
    16680.567100       0.829193
    16708.437800       0.829471
    16736.401700       0.829752
    16764.459300       0.830036
    16792.611300       0.830322
    16820.857900       0.830610
    16849.199700       0.830899
    16877.637100       0.831189
    16906.170800       0.831479
    16934.801000       0.831768
    16963.528400       0.832057
    16992.353400       0.832343
    17021.276600       0.832627
    17050.298400       0.832908
    17079.419300       0.833186
    17108.639900       0.833459
    17137.960600       0.833727
    17167.382000       0.833990
    17196.904600       0.834247
    17226.528900       0.834496
    17256.255400       0.834738
    17286.084700       0.834972
    17316.017300       0.835196
    17346.053800       0.835412
    17376.194600       0.835616
    17406.440400       0.835810
    17436.791600       0.835992
    17467.248900       0.836161
    17497.812800       0.836317
    17528.483800       0.836460
    17559.262500       0.836587
    17590.149500       0.836699
    17621.145400       0.836795
    17652.250700       0.836875
    17683.466000       0.836936
