11,    channel 11 SRF extracted from SRF_FY4B_AGRI.zip (FY4B_AGRI_SRF_CH11_Pub.txt)
Number of data points:
2157
Wavenumber (cm-1)   Filter response
     1250.000000       0.000600
     1250.078100       0.000700
     1250.156300       0.000700
     1250.234400       0.000700
     1250.312600       0.000700
     1250.390700       0.000700
     1250.468900       0.000700
     1250.547100       0.000700
     1250.625300       0.000700
     1250.703500       0.000700
     1250.781700       0.000700
     1250.860000       0.000700
     1250.938200       0.000700
     1251.016500       0.000700
     1251.094700       0.000700
     1251.173000       0.000700
     1251.251300       0.000700
     1251.329500       0.000700
     1251.407800       0.000700
     1251.486100       0.000700
     1251.564500       0.000700
     1251.642800       0.000700
     1251.721100       0.000700
     1251.799500       0.000700
     1251.877800       0.000700
     1251.956200       0.000700
     1252.034600       0.000700
     1252.112900       0.000700
     1252.191300       0.000700
     1252.269700       0.000700
     1252.348200       0.000800
     1252.426600       0.000800
     1252.505000       0.000800
     1252.583500       0.000800
     1252.661900       0.000800
     1252.740400       0.000800
     1252.818800       0.000800
     1252.897300       0.000800
     1252.975800       0.000800
     1253.054300       0.000800
     1253.132800       0.000800
     1253.211400       0.000800
     1253.289900       0.000800
     1253.368400       0.000800
     1253.447000       0.000800
     1253.525500       0.000800
     1253.604100       0.000800
     1253.682700       0.000800
     1253.761300       0.000800
     1253.839900       0.000800
     1253.918500       0.000800
     1253.997100       0.000900
     1254.075700       0.000900
     1254.154400       0.000900
     1254.233000       0.000900
     1254.311700       0.000900
     1254.390400       0.000900
     1254.469000       0.000900
     1254.547700       0.000900
     1254.626400       0.000900
     1254.705100       0.000900
     1254.783900       0.000900
     1254.862600       0.000900
     1254.941300       0.000900
     1255.020100       0.001000
     1255.098800       0.001000
     1255.177600       0.001000
     1255.256400       0.001000
     1255.335200       0.001000
     1255.414000       0.001000
     1255.492800       0.001000
     1255.571600       0.001000
     1255.650400       0.001000
     1255.729300       0.001000
     1255.808100       0.001000
     1255.887000       0.001000
     1255.965800       0.001100
     1256.044700       0.001100
     1256.123600       0.001100
     1256.202500       0.001100
     1256.281400       0.001100
     1256.360300       0.001100
     1256.439300       0.001100
     1256.518200       0.001100
     1256.597100       0.001100
     1256.676100       0.001100
     1256.755100       0.001100
     1256.834000       0.001100
     1256.913000       0.001200
     1256.992000       0.001200
     1257.071000       0.001200
     1257.150000       0.001200
     1257.229100       0.001200
     1257.308100       0.001200
     1257.387100       0.001200
     1257.466200       0.001200
     1257.545300       0.001200
     1257.624300       0.001200
     1257.703400       0.001200
     1257.782500       0.001200
     1257.861600       0.001200
     1257.940800       0.001200
     1258.019900       0.001300
     1258.099000       0.001300
     1258.178200       0.001300
     1258.257300       0.001300
     1258.336500       0.001300
     1258.415700       0.001300
     1258.494800       0.001300
     1258.574000       0.001300
     1258.653200       0.001300
     1258.732500       0.001300
     1258.811700       0.001300
     1258.890900       0.001300
     1258.970200       0.001300
     1259.049400       0.001300
     1259.128700       0.001300
     1259.208000       0.001400
     1259.287200       0.001400
     1259.366500       0.001400
     1259.445800       0.001400
     1259.525200       0.001400
     1259.604500       0.001400
     1259.683800       0.001400
     1259.763200       0.001400
     1259.842500       0.001400
     1259.921900       0.001400
     1260.001300       0.001400
     1260.080600       0.001400
     1260.160000       0.001400
     1260.239400       0.001400
     1260.318900       0.001500
     1260.398300       0.001500
     1260.477700       0.001500
     1260.557200       0.001500
     1260.636600       0.001500
     1260.716100       0.001500
     1260.795600       0.001500
     1260.875000       0.001500
     1260.954500       0.001500
     1261.034000       0.001500
     1261.113600       0.001600
     1261.193100       0.001600
     1261.272600       0.001600
     1261.352200       0.001600
     1261.431700       0.001600
     1261.511300       0.001600
     1261.590900       0.001600
     1261.670500       0.001600
     1261.750000       0.001700
     1261.829700       0.001700
     1261.909300       0.001700
     1261.988900       0.001700
     1262.068500       0.001700
     1262.148200       0.001700
     1262.227800       0.001700
     1262.307500       0.001800
     1262.387200       0.001800
     1262.466900       0.001800
     1262.546600       0.001800
     1262.626300       0.001800
     1262.706000       0.001800
     1262.785700       0.001900
     1262.865400       0.001900
     1262.945200       0.001900
     1263.024900       0.001900
     1263.104700       0.001900
     1263.184500       0.001900
     1263.264300       0.002000
     1263.344100       0.002000
     1263.423900       0.002000
     1263.503700       0.002000
     1263.583500       0.002000
     1263.663400       0.002000
     1263.743200       0.002100
     1263.823100       0.002100
     1263.902900       0.002100
     1263.982800       0.002100
     1264.062700       0.002100
     1264.142600       0.002200
     1264.222500       0.002200
     1264.302400       0.002200
     1264.382300       0.002200
     1264.462300       0.002200
     1264.542200       0.002200
     1264.622200       0.002300
     1264.702200       0.002300
     1264.782100       0.002300
     1264.862100       0.002300
     1264.942100       0.002300
     1265.022100       0.002300
     1265.102200       0.002400
     1265.182200       0.002400
     1265.262200       0.002400
     1265.342300       0.002400
     1265.422300       0.002400
     1265.502400       0.002400
     1265.582500       0.002500
     1265.662600       0.002500
     1265.742700       0.002500
     1265.822800       0.002500
     1265.902900       0.002500
     1265.983000       0.002500
     1266.063200       0.002600
     1266.143300       0.002600
     1266.223500       0.002600
     1266.303700       0.002600
     1266.383800       0.002600
     1266.464000       0.002600
     1266.544200       0.002700
     1266.624400       0.002700
     1266.704700       0.002700
     1266.784900       0.002700
     1266.865100       0.002700
     1266.945400       0.002700
     1267.025700       0.002800
     1267.105900       0.002800
     1267.186200       0.002800
     1267.266500       0.002800
     1267.346800       0.002800
     1267.427100       0.002900
     1267.507400       0.002900
     1267.587800       0.002900
     1267.668100       0.002900
     1267.748500       0.002900
     1267.828800       0.003000
     1267.909200       0.003000
     1267.989600       0.003000
     1268.070000       0.003000
     1268.150400       0.003000
     1268.230800       0.003100
     1268.311200       0.003100
     1268.391700       0.003100
     1268.472100       0.003100
     1268.552600       0.003100
     1268.633000       0.003200
     1268.713500       0.003200
     1268.794000       0.003200
     1268.874500       0.003200
     1268.955000       0.003300
     1269.035500       0.003300
     1269.116100       0.003300
     1269.196600       0.003400
     1269.277100       0.003400
     1269.357700       0.003400
     1269.438300       0.003400
     1269.518900       0.003500
     1269.599400       0.003500
     1269.680000       0.003500
     1269.760700       0.003600
     1269.841300       0.003600
     1269.921900       0.003600
     1270.002500       0.003600
     1270.083200       0.003700
     1270.163900       0.003700
     1270.244500       0.003700
     1270.325200       0.003800
     1270.405900       0.003800
     1270.486600       0.003800
     1270.567300       0.003900
     1270.648000       0.003900
     1270.728800       0.004000
     1270.809500       0.004000
     1270.890300       0.004000
     1270.971000       0.004100
     1271.051800       0.004100
     1271.132600       0.004100
     1271.213400       0.004200
     1271.294200       0.004200
     1271.375000       0.004200
     1271.455800       0.004300
     1271.536700       0.004300
     1271.617500       0.004400
     1271.698400       0.004400
     1271.779200       0.004400
     1271.860100       0.004500
     1271.941000       0.004500
     1272.021900       0.004500
     1272.102800       0.004600
     1272.183700       0.004600
     1272.264600       0.004700
     1272.345600       0.004700
     1272.426500       0.004700
     1272.507500       0.004800
     1272.588400       0.004800
     1272.669400       0.004900
     1272.750400       0.004900
     1272.831400       0.004900
     1272.912400       0.005000
     1272.993400       0.005000
     1273.074500       0.005000
     1273.155500       0.005100
     1273.236600       0.005100
     1273.317600       0.005200
     1273.398700       0.005200
     1273.479800       0.005200
     1273.560900       0.005300
     1273.642000       0.005300
     1273.723100       0.005400
     1273.804200       0.005400
     1273.885400       0.005400
     1273.966500       0.005500
     1274.047600       0.005500
     1274.128800       0.005600
     1274.210000       0.005600
     1274.291200       0.005600
     1274.372400       0.005700
     1274.453600       0.005700
     1274.534800       0.005800
     1274.616000       0.005800
     1274.697300       0.005800
     1274.778500       0.005900
     1274.859800       0.005900
     1274.941000       0.006000
     1275.022300       0.006000
     1275.103600       0.006100
     1275.184900       0.006100
     1275.266200       0.006200
     1275.347500       0.006200
     1275.428900       0.006300
     1275.510200       0.006300
     1275.591600       0.006300
     1275.672900       0.006400
     1275.754300       0.006400
     1275.835700       0.006500
     1275.917100       0.006500
     1275.998500       0.006600
     1276.079900       0.006700
     1276.161300       0.006700
     1276.242700       0.006800
     1276.324200       0.006800
     1276.405600       0.006900
     1276.487100       0.006900
     1276.568600       0.007000
     1276.650100       0.007000
     1276.731600       0.007100
     1276.813100       0.007200
     1276.894600       0.007200
     1276.976100       0.007300
     1277.057700       0.007400
     1277.139200       0.007400
     1277.220800       0.007500
     1277.302300       0.007500
     1277.383900       0.007600
     1277.465500       0.007700
     1277.547100       0.007700
     1277.628700       0.007800
     1277.710300       0.007900
     1277.792000       0.008000
     1277.873600       0.008000
     1277.955300       0.008100
     1278.036900       0.008200
     1278.118600       0.008200
     1278.200300       0.008300
     1278.282000       0.008400
     1278.363700       0.008500
     1278.445400       0.008600
     1278.527100       0.008600
     1278.608900       0.008700
     1278.690600       0.008800
     1278.772400       0.008900
     1278.854100       0.008900
     1278.935900       0.009000
     1279.017700       0.009100
     1279.099500       0.009200
     1279.181300       0.009300
     1279.263100       0.009400
     1279.345000       0.009400
     1279.426800       0.009500
     1279.508700       0.009600
     1279.590500       0.009700
     1279.672400       0.009800
     1279.754300       0.009900
     1279.836200       0.010000
     1279.918100       0.010100
     1280.000000       0.010100
     1280.081900       0.010200
     1280.163900       0.010300
     1280.245800       0.010400
     1280.327800       0.010500
     1280.409700       0.010600
     1280.491700       0.010700
     1280.573700       0.010800
     1280.655700       0.010900
     1280.737700       0.011000
     1280.819700       0.011100
     1280.901800       0.011200
     1280.983800       0.011300
     1281.065800       0.011400
     1281.147900       0.011500
     1281.230000       0.011600
     1281.312100       0.011700
     1281.394200       0.011800
     1281.476300       0.011900
     1281.558400       0.012000
     1281.640500       0.012100
     1281.722600       0.012200
     1281.804800       0.012300
     1281.886900       0.012400
     1281.969100       0.012500
     1282.051300       0.012600
     1282.133500       0.012700
     1282.215700       0.012800
     1282.297900       0.012900
     1282.380100       0.013100
     1282.462300       0.013200
     1282.544600       0.013300
     1282.626800       0.013400
     1282.709100       0.013500
     1282.791400       0.013600
     1282.873600       0.013800
     1282.955900       0.013900
     1283.038200       0.014000
     1283.120500       0.014100
     1283.202900       0.014300
     1283.285200       0.014400
     1283.367600       0.014500
     1283.449900       0.014700
     1283.532300       0.014800
     1283.614700       0.014900
     1283.697000       0.015100
     1283.779400       0.015200
     1283.861900       0.015400
     1283.944300       0.015500
     1284.026700       0.015600
     1284.109100       0.015800
     1284.191600       0.015900
     1284.274100       0.016100
     1284.356500       0.016300
     1284.439000       0.016400
     1284.521500       0.016600
     1284.604000       0.016700
     1284.686500       0.016900
     1284.769100       0.017100
     1284.851600       0.017200
     1284.934100       0.017400
     1285.016700       0.017600
     1285.099300       0.017800
     1285.181900       0.017900
     1285.264400       0.018100
     1285.347000       0.018300
     1285.429700       0.018500
     1285.512300       0.018700
     1285.594900       0.018900
     1285.677600       0.019000
     1285.760200       0.019200
     1285.842900       0.019400
     1285.925500       0.019600
     1286.008200       0.019800
     1286.090900       0.020000
     1286.173600       0.020200
     1286.256400       0.020400
     1286.339100       0.020700
     1286.421800       0.020900
     1286.504600       0.021100
     1286.587300       0.021300
     1286.670100       0.021500
     1286.752900       0.021700
     1286.835700       0.022000
     1286.918500       0.022200
     1287.001300       0.022400
     1287.084100       0.022600
     1287.166900       0.022900
     1287.249800       0.023100
     1287.332600       0.023400
     1287.415500       0.023600
     1287.498400       0.023800
     1287.581300       0.024100
     1287.664200       0.024300
     1287.747100       0.024600
     1287.830000       0.024800
     1287.912900       0.025100
     1287.995900       0.025300
     1288.078800       0.025600
     1288.161800       0.025900
     1288.244800       0.026100
     1288.327800       0.026400
     1288.410700       0.026700
     1288.493800       0.026900
     1288.576800       0.027200
     1288.659800       0.027500
     1288.742800       0.027800
     1288.825900       0.028000
     1288.908900       0.028300
     1288.992000       0.028600
     1289.075100       0.028900
     1289.158200       0.029200
     1289.241300       0.029500
     1289.324400       0.029800
     1289.407500       0.030100
     1289.490700       0.030400
     1289.573800       0.030700
     1289.657000       0.031000
     1289.740100       0.031400
     1289.823300       0.031700
     1289.906500       0.032000
     1289.989700       0.032300
     1290.072900       0.032700
     1290.156100       0.033000
     1290.239300       0.033400
     1290.322600       0.033700
     1290.405800       0.034000
     1290.489100       0.034400
     1290.572400       0.034800
     1290.655700       0.035100
     1290.738900       0.035500
     1290.822300       0.035900
     1290.905600       0.036200
     1290.988900       0.036600
     1291.072200       0.037000
     1291.155600       0.037400
     1291.238900       0.037800
     1291.322300       0.038200
     1291.405700       0.038600
     1291.489100       0.039000
     1291.572500       0.039400
     1291.655900       0.039800
     1291.739300       0.040300
     1291.822800       0.040700
     1291.906200       0.041100
     1291.989700       0.041600
     1292.073100       0.042000
     1292.156600       0.042500
     1292.240100       0.043000
     1292.323600       0.043400
     1292.407100       0.043900
     1292.490600       0.044400
     1292.574200       0.044900
     1292.657700       0.045300
     1292.741300       0.045800
     1292.824800       0.046300
     1292.908400       0.046900
     1292.992000       0.047400
     1293.075600       0.047900
     1293.159200       0.048400
     1293.242800       0.049000
     1293.326400       0.049500
     1293.410100       0.050100
     1293.493700       0.050600
     1293.577400       0.051200
     1293.661100       0.051700
     1293.744700       0.052300
     1293.828400       0.052900
     1293.912100       0.053500
     1293.995900       0.054100
     1294.079600       0.054700
     1294.163300       0.055300
     1294.247100       0.055900
     1294.330800       0.056600
     1294.414600       0.057200
     1294.498400       0.057900
     1294.582200       0.058500
     1294.666000       0.059200
     1294.749800       0.059800
     1294.833600       0.060500
     1294.917400       0.061200
     1295.001300       0.061900
     1295.085200       0.062600
     1295.169000       0.063300
     1295.252900       0.064000
     1295.336800       0.064800
     1295.420700       0.065500
     1295.504600       0.066300
     1295.588500       0.067000
     1295.672500       0.067800
     1295.756400       0.068500
     1295.840400       0.069300
     1295.924300       0.070100
     1296.008300       0.070900
     1296.092300       0.071700
     1296.176300       0.072500
     1296.260300       0.073400
     1296.344300       0.074200
     1296.428300       0.075100
     1296.512400       0.075900
     1296.596400       0.076800
     1296.680500       0.077700
     1296.764600       0.078600
     1296.848700       0.079500
     1296.932800       0.080400
     1297.016900       0.081300
     1297.101000       0.082200
     1297.185100       0.083200
     1297.269200       0.084200
     1297.353400       0.085100
     1297.437600       0.086100
     1297.521700       0.087100
     1297.605900       0.088100
     1297.690100       0.089200
     1297.774300       0.090200
     1297.858500       0.091300
     1297.942800       0.092300
     1298.027000       0.093400
     1298.111200       0.094500
     1298.195500       0.095600
     1298.279800       0.096700
     1298.364100       0.097900
     1298.448400       0.099000
     1298.532700       0.100200
     1298.617000       0.101400
     1298.701300       0.102600
     1298.785600       0.103800
     1298.870000       0.105100
     1298.954300       0.106300
     1299.038700       0.107600
     1299.123100       0.108900
     1299.207500       0.110200
     1299.291900       0.111500
     1299.376300       0.112800
     1299.460700       0.114200
     1299.545200       0.115500
     1299.629600       0.116900
     1299.714100       0.118300
     1299.798500       0.119800
     1299.883000       0.121200
     1299.967500       0.122700
     1300.052000       0.124100
     1300.136500       0.125600
     1300.221000       0.127200
     1300.305600       0.128700
