44,   44, MVIRI VIS channel from srf_MET2_1987213_1987214_1801-Release_S10EL_10.dat
Number of data points:
730
Wavenumber (cm-1)   Filter response
     8916.629500       0.000000
     8924.587200       0.000000
     8932.559200       0.000002
     8940.545400       0.000011
     8948.545900       0.000032
     8956.560700       0.000069
     8964.589900       0.000127
     8972.633500       0.000208
     8980.691500       0.000319
     8988.764000       0.000462
     8996.851100       0.000641
     9004.952700       0.000860
     9013.068900       0.001122
     9021.199800       0.001430
     9029.345400       0.001788
     9037.505600       0.002197
     9045.680700       0.002662
     9053.870500       0.003184
     9062.075200       0.003766
     9070.294800       0.004410
     9078.529300       0.005120
     9086.778700       0.005895
     9095.043200       0.006740
     9103.322700       0.007655
     9111.617300       0.008643
     9119.927000       0.009705
     9128.251900       0.010842
     9136.592100       0.012056
     9144.947400       0.013348
     9153.318100       0.014720
     9161.704100       0.016172
     9170.105500       0.017706
     9178.522300       0.019322
     9186.954500       0.021021
     9195.402300       0.022805
     9203.865600       0.024673
     9212.344500       0.026626
     9220.839100       0.028665
     9229.349300       0.030790
     9237.875300       0.033002
     9246.417000       0.035299
     9254.974500       0.037684
     9263.547900       0.040156
     9272.137200       0.042714
     9280.742500       0.045359
     9289.363700       0.048091
     9298.000900       0.050910
     9306.654300       0.053814
     9315.323700       0.056805
     9324.009300       0.059881
     9332.711200       0.063043
     9341.429200       0.066289
     9350.163600       0.069620
     9358.914400       0.073034
     9367.681500       0.076531
     9376.465100       0.080111
     9385.265100       0.083772
     9394.081700       0.087515
     9402.914900       0.091338
     9411.764700       0.095240
     9420.631200       0.099220
     9429.514400       0.103278
     9438.414300       0.107413
     9447.331100       0.111623
     9456.264800       0.115908
     9465.215300       0.120267
     9474.182900       0.124698
     9483.167400       0.129200
     9492.169000       0.133773
     9501.187600       0.138415
     9510.223500       0.143126
     9519.276500       0.147902
     9528.346800       0.152745
     9537.434400       0.157652
     9546.539400       0.162622
     9555.661700       0.167654
     9564.801500       0.172746
     9573.958800       0.177898
     9583.133700       0.183108
     9592.326100       0.188374
     9601.536200       0.193695
     9610.764100       0.199070
     9620.009600       0.204498
     9629.273000       0.209977
     9638.554200       0.215505
     9647.853400       0.221082
     9657.170400       0.226706
     9666.505600       0.232375
     9675.858700       0.238089
     9685.230000       0.243844
     9694.619500       0.249642
     9704.027200       0.255478
     9713.453100       0.261354
     9722.897400       0.267267
     9732.360100       0.273214
     9741.841200       0.279196
     9751.340800       0.285210
     9760.859000       0.291256
     9770.395700       0.297332
     9779.951100       0.303435
     9789.525200       0.309566
     9799.118100       0.315723
     9808.729800       0.321902
     9818.360300       0.328106
     9828.009800       0.334329
     9837.678300       0.340574
     9847.365800       0.346836
     9857.072400       0.353115
     9866.798200       0.359411
     9876.543200       0.365720
     9886.307500       0.372043
     9896.091000       0.378377
     9905.894000       0.384721
     9915.716400       0.391075
     9925.558300       0.397435
     9935.419800       0.403803
     9945.300800       0.410175
     9955.201600       0.416550
     9965.122100       0.422929
     9975.062300       0.429308
     9985.022500       0.435687
     9995.002500       0.442066
    10005.002500       0.448441
    10015.022500       0.454812
    10025.062700       0.461179
    10035.122900       0.467539
    10045.203400       0.473892
    10055.304200       0.480237
    10065.425300       0.486571
    10075.566800       0.492895
    10085.728700       0.499207
    10095.911200       0.505506
    10106.114200       0.511791
    10116.337900       0.518060
    10126.582300       0.524314
    10136.847400       0.530549
    10147.133400       0.536767
    10157.440300       0.542966
    10167.768200       0.549143
    10178.117000       0.555300
    10188.487000       0.561434
    10198.878100       0.567546
    10209.290500       0.573633
    10219.724100       0.579694
    10230.179000       0.585730
    10240.655400       0.591739
    10251.153300       0.597721
    10261.672700       0.603673
    10272.213700       0.609597
    10282.776300       0.615490
    10293.360800       0.621352
    10303.967000       0.627182
    10314.595200       0.632980
    10325.245200       0.638744
    10335.917300       0.644475
    10346.611500       0.650171
    10357.327800       0.655831
    10368.066400       0.661455
    10378.827200       0.667042
    10389.610400       0.672592
    10400.416000       0.678103
    10411.244100       0.683576
    10422.094800       0.689010
    10432.968200       0.694404
    10443.864200       0.699757
    10454.783100       0.705070
    10465.724800       0.710340
    10476.689400       0.715569
    10487.677000       0.720756
    10498.687700       0.725899
    10509.721500       0.730998
    10520.778500       0.736054
    10531.858900       0.741065
    10542.962600       0.746032
    10554.089700       0.750953
    10565.240400       0.755829
    10576.414600       0.760659
    10587.612500       0.765442
    10598.834100       0.770179
    10610.079600       0.774868
    10621.348900       0.779510
    10632.642200       0.784104
    10643.959600       0.788651
    10655.301000       0.793149
    10666.666700       0.797599
    10678.056600       0.802000
    10689.470900       0.806352
    10700.909600       0.810655
    10712.372800       0.814909
    10723.860600       0.819112
    10735.373100       0.823266
    10746.910300       0.827371
    10758.472300       0.831425
    10770.059200       0.835429
    10781.671200       0.839382
    10793.308100       0.843285
    10804.970300       0.847137
    10816.657700       0.850939
    10828.370300       0.854690
    10840.108400       0.858390
    10851.871900       0.862039
    10863.661100       0.865638
    10875.475800       0.869185
    10887.316300       0.872681
    10899.182600       0.876126
    10911.074700       0.879521
    10922.992900       0.882864
    10934.937100       0.886156
    10946.907500       0.889398
    10958.904100       0.892588
    10970.927000       0.895728
    10982.976400       0.898817
    10995.052200       0.901855
    11007.154700       0.904842
    11019.283700       0.907779
    11031.439600       0.910666
    11043.622300       0.913502
    11055.832000       0.916288
    11068.068600       0.919023
    11080.332400       0.921709
    11092.623400       0.924345
    11104.941700       0.926931
    11117.287400       0.929467
    11129.660500       0.931954
    11142.061300       0.934392
    11154.489700       0.936781
    11166.945800       0.939121
    11179.429800       0.941412
    11191.941800       0.943655
    11204.481800       0.945850
    11217.049900       0.947996
    11229.646300       0.950094
    11242.270900       0.952145
    11254.924000       0.954149
    11267.605600       0.956105
    11280.315800       0.958014
    11293.054800       0.959877
    11305.822500       0.961693
    11318.619100       0.963462
    11331.444800       0.965186
    11344.299500       0.966864
    11357.183400       0.968497
    11370.096600       0.970085
    11383.039300       0.971627
    11396.011400       0.973125
    11409.013100       0.974579
    11422.044500       0.975988
    11435.105800       0.977354
    11448.196900       0.978677
    11461.318100       0.979956
    11474.469300       0.981192
    11487.650800       0.982386
    11500.862600       0.983537
    11514.104800       0.984647
    11527.377500       0.985715
    11540.680900       0.986741
    11554.015000       0.987727
    11567.380000       0.988671
    11580.775900       0.989576
    11594.202900       0.990440
    11607.661100       0.991264
    11621.150500       0.992049
    11634.671300       0.992795
    11648.223600       0.993502
    11661.807600       0.994171
    11675.423200       0.994801
    11689.070700       0.995394
    11702.750100       0.995949
    11716.461600       0.996467
    11730.205300       0.996948
    11743.981200       0.997393
    11757.789500       0.997801
    11771.630400       0.998174
    11785.503800       0.998511
    11799.410000       0.998812
    11813.349100       0.999079
    11827.321100       0.999312
    11841.326200       0.999510
    11855.364600       0.999675
    11869.436200       0.999805
    11883.541300       0.999903
    11897.680000       0.999968
    11911.852300       1.000000
    11926.058400       1.000000
    11940.298500       0.999968
    11954.572600       0.999904
    11968.880900       0.999809
    11983.223500       0.999684
    11997.600500       0.999527
    12012.012000       0.999340
    12026.458200       0.999124
    12040.939200       0.998877
    12055.455100       0.998601
    12070.006000       0.998296
    12084.592100       0.997963
    12099.213600       0.997600
    12113.870400       0.997210
    12128.562800       0.996792
    12143.290800       0.996346
    12158.054700       0.995873
    12172.854500       0.995374
    12187.690400       0.994847
    12202.562500       0.994294
    12217.471000       0.993715
    12232.415900       0.993110
    12247.397400       0.992480
    12262.415700       0.991825
    12277.470800       0.991144
    12292.563000       0.990439
    12307.692300       0.989710
    12322.858900       0.988956
    12338.062900       0.988179
    12353.304500       0.987377
    12368.583800       0.986553
    12383.900900       0.985706
    12399.256000       0.984836
    12414.649300       0.983943
    12430.080800       0.983028
    12445.550700       0.982091
    12461.059200       0.981132
    12476.606400       0.980152
    12492.192400       0.979150
    12507.817400       0.978127
    12523.481500       0.977084
    12539.185000       0.976020
    12554.927800       0.974935
    12570.710200       0.973830
    12586.532400       0.972706
    12602.394500       0.971562
    12618.296500       0.970398
    12634.238800       0.969215
    12650.221400       0.968013
    12666.244500       0.966792
    12682.308200       0.965553
    12698.412700       0.964295
    12714.558200       0.963019
    12730.744700       0.961724
    12746.972600       0.960412
    12763.241900       0.959083
    12779.552700       0.957736
    12795.905300       0.956371
    12812.299800       0.954990
    12828.736400       0.953591
    12845.215200       0.952176
    12861.736300       0.950744
    12878.300100       0.949296
    12894.906500       0.947832
    12911.555800       0.946352
    12928.248200       0.944855
    12944.983800       0.943343
    12961.762800       0.941816
    12978.585300       0.940273
    12995.451600       0.938714
    13012.361700       0.937141
    13029.316000       0.935552
    13046.314400       0.933949
    13063.357300       0.932331
    13080.444700       0.930699
    13097.576900       0.929052
    13114.754100       0.927390
    13131.976400       0.925715
    13149.243900       0.924026
    13166.556900       0.922322
    13183.915600       0.920605
    13201.320100       0.918874
    13218.770700       0.917130
    13236.267400       0.915372
    13253.810500       0.913601
    13271.400100       0.911817
    13289.036500       0.910020
    13306.719900       0.908210
    13324.450400       0.906386
    13342.228200       0.904550
    13360.053400       0.902702
    13377.926400       0.900841
    13395.847300       0.898967
    13413.816200       0.897081
    13431.833400       0.895182
    13449.899100       0.893272
    13468.013500       0.891349
    13486.176700       0.889415
    13504.388900       0.887468
    13522.650400       0.885510
    13540.961400       0.883540
    13559.322000       0.881558
    13577.732500       0.879565
    13596.193100       0.877560
    13614.703900       0.875544
    13633.265200       0.873516
    13651.877100       0.871477
    13670.540000       0.869427
    13689.253900       0.867366
    13708.019200       0.865294
    13726.836000       0.863210
    13745.704500       0.861116
    13764.624900       0.859011
    13783.597500       0.856896
    13802.622500       0.854769
    13821.700100       0.852632
    13840.830400       0.850485
    13860.013900       0.848327
    13879.250500       0.846158
    13898.540700       0.843980
    13917.884500       0.841791
    13937.282200       0.839591
    13956.734100       0.837382
    13976.240400       0.835162
    13995.801300       0.832933
    14015.417000       0.830693
    14035.087700       0.828444
    14054.813800       0.826184
    14074.595400       0.823915
    14094.432700       0.821636
    14114.326000       0.819348
    14134.275600       0.817050
    14154.281700       0.814742
    14174.344400       0.812425
    14194.464200       0.810099
    14214.641100       0.807763
    14234.875400       0.805418
    14255.167500       0.803063
    14275.517500       0.800700
    14295.925700       0.798327
    14316.392300       0.795946
    14336.917600       0.793555
    14357.501800       0.791156
    14378.145200       0.788747
    14398.848100       0.786330
    14419.610700       0.783905
    14440.433200       0.781470
    14461.316000       0.779027
    14482.259200       0.776576
    14503.263200       0.774116
    14524.328200       0.771648
    14545.454500       0.769171
    14566.642400       0.766686
    14587.892000       0.764193
    14609.203800       0.761692
    14630.577900       0.759183
    14652.014700       0.756667
    14673.514300       0.754142
    14695.077100       0.751609
    14716.703500       0.749069
    14738.393500       0.746521
    14760.147600       0.743966
    14781.966000       0.741403
    14803.849000       0.738833
    14825.796900       0.736255
    14847.809900       0.733671
    14869.888500       0.731079
    14892.032800       0.728480
    14914.243100       0.725874
    14936.519800       0.723262
    14958.863100       0.720642
    14981.273400       0.718016
    15003.750900       0.715384
    15026.296000       0.712744
    15048.909000       0.710099
    15071.590100       0.707447
    15094.339600       0.704789
    15117.158000       0.702125
    15140.045400       0.699455
    15163.002300       0.696779
    15186.028900       0.694097
    15209.125500       0.691410
    15232.292500       0.688716
    15255.530100       0.686018
    15278.838800       0.683314
    15302.218800       0.680605
    15325.670500       0.677890
    15349.194200       0.675171
    15372.790200       0.672447
    15396.458800       0.669718
    15420.200500       0.666984
    15444.015400       0.664245
    15467.904100       0.661502
    15491.866800       0.658755
    15515.903800       0.656004
    15540.015500       0.653248
    15564.202300       0.650489
    15588.464500       0.647725
    15612.802500       0.644958
    15637.216600       0.642188
    15661.707100       0.639414
    15686.274500       0.636636
    15710.919100       0.633856
    15735.641200       0.631072
    15760.441300       0.628285
    15785.319700       0.625496
    15810.276700       0.622704
    15835.312700       0.619909
    15860.428200       0.617112
    15885.623500       0.614312
    15910.899000       0.611511
    15936.255000       0.608708
    15961.691900       0.605902
    15987.210200       0.603095
    16012.810200       0.600287
    16038.492400       0.597477
    16064.257000       0.594666
    16090.104600       0.591853
    16116.035500       0.589040
    16142.050000       0.586226
    16168.148700       0.583411
    16194.332000       0.580595
    16220.600200       0.577780
    16246.953700       0.574963
    16273.393000       0.572147
    16299.918500       0.569331
    16326.530600       0.566515
    16353.229800       0.563700
    16380.016400       0.560885
    16406.890900       0.558070
    16433.853700       0.555256
    16460.905300       0.552444
    16488.046200       0.549632
    16515.276600       0.546822
    16542.597200       0.544013
    16570.008300       0.541205
    16597.510400       0.538399
    16625.103900       0.535595
    16652.789300       0.532793
    16680.567100       0.529994
    16708.437800       0.527196
    16736.401700       0.524401
    16764.459300       0.521608
    16792.611300       0.518819
    16820.857900       0.516032
    16849.199700       0.513248
    16877.637100       0.510467
    16906.170800       0.507689
    16934.801000       0.504915
    16963.528400       0.502145
    16992.353400       0.499378
    17021.276600       0.496615
    17050.298400       0.493856
    17079.419300       0.491101
    17108.639900       0.488351
    17137.960600       0.485605
    17167.382000       0.482863
    17196.904600       0.480126
    17226.528900       0.477394
    17256.255400       0.474667
    17286.084700       0.471945
    17316.017300       0.469228
    17346.053800       0.466516
    17376.194600       0.463810
    17406.440400       0.461109
    17436.791600       0.458414
    17467.248900       0.455725
    17497.812800       0.453042
    17528.483800       0.450364
    17559.262500       0.447693
    17590.149500       0.445028
    17621.145400       0.442369
    17652.250700       0.439717
    17683.466000       0.437071
    17714.791900       0.434432
    17746.228900       0.431799
    17777.777800       0.429174
    17809.439000       0.426555
    17841.213200       0.423943
    17873.101000       0.421339
    17905.103000       0.418741
    17937.219700       0.416151
    17969.451900       0.413568
    18001.800200       0.410992
    18034.265100       0.408424
    18066.847300       0.405863
    18099.547500       0.403310
    18132.366300       0.400764
    18165.304300       0.398226
    18198.362100       0.395696
    18231.540600       0.393174
    18264.840200       0.390659
    18298.261700       0.388153
    18331.805700       0.385654
    18365.472900       0.383163
    18399.264000       0.380680
    18433.179700       0.378205
    18467.220700       0.375738
    18501.387600       0.373279
    18535.681200       0.370828
    18570.102100       0.368386
    18604.651200       0.365951
    18639.329000       0.363524
    18674.136300       0.361106
    18709.073900       0.358695
    18744.142500       0.356293
    18779.342700       0.353898
    18814.675400       0.351512
    18850.141400       0.349133
    18885.741300       0.346763
    18921.475900       0.344401
    18957.346000       0.342046
    18993.352300       0.339699
    19029.495700       0.337360
    19065.776900       0.335029
    19102.196800       0.332706
    19138.756000       0.330390
    19175.455400       0.328082
    19212.295900       0.325782
    19249.278200       0.323489
    19286.403100       0.321203
    19323.671500       0.318924
    19361.084200       0.316653
    19398.642100       0.314390
    19436.346000       0.312133
    19474.196700       0.309883
    19512.195100       0.307640
    19550.342100       0.305404
    19588.638600       0.303174
    19627.085400       0.300951
    19665.683400       0.298735
    19704.433500       0.296524
    19743.336600       0.294320
    19782.393700       0.292122
    19821.605600       0.289930
    19860.973200       0.287744
    19900.497500       0.285564
