72,   72, MVIRI VIS channel from srf_MET5_2000078_2000079_1801-Release_S10EL_10.dat
Number of data points:
806
Wavenumber (cm-1)   Filter response
     8350.730700       0.000000
     8357.710000       0.000000
     8364.701000       0.000000
     8371.703600       0.000002
     8378.718100       0.000004
     8385.744200       0.000009
     8392.782200       0.000017
     8399.832000       0.000027
     8406.893700       0.000041
     8413.967200       0.000060
     8421.052600       0.000083
     8428.150000       0.000112
     8435.259400       0.000146
     8442.380800       0.000186
     8449.514200       0.000233
     8456.659600       0.000286
     8463.817200       0.000347
     8470.986900       0.000416
     8478.168700       0.000492
     8485.362700       0.000577
     8492.569000       0.000671
     8499.787500       0.000774
     8507.018300       0.000886
     8514.261400       0.001008
     8521.516800       0.001141
     8528.784600       0.001283
     8536.064900       0.001436
     8543.357500       0.001600
     8550.662700       0.001775
     8557.980300       0.001961
     8565.310500       0.002159
     8572.653200       0.002369
     8580.008600       0.002591
     8587.376600       0.002825
     8594.757200       0.003072
     8602.150500       0.003332
     8609.556600       0.003605
     8616.975400       0.003890
     8624.407100       0.004189
     8631.851500       0.004502
     8639.308900       0.004829
     8646.779100       0.005169
     8654.262200       0.005523
     8661.758300       0.005892
     8669.267400       0.006275
     8676.789600       0.006673
     8684.324800       0.007085
     8691.873100       0.007512
     8699.434500       0.007954
     8707.009100       0.008412
     8714.596900       0.008885
     8722.198000       0.009373
     8729.812300       0.009877
     8737.439900       0.010396
     8745.080900       0.010932
     8752.735200       0.011483
     8760.403000       0.012050
     8768.084200       0.012634
     8775.778900       0.013234
     8783.487000       0.013851
     8791.208800       0.014484
     8798.944100       0.015134
     8806.693100       0.015801
     8814.455700       0.016485
     8822.232000       0.017185
     8830.022100       0.017903
     8837.825900       0.018639
     8845.643500       0.019392
     8853.475000       0.020162
     8861.320300       0.020950
     8869.179600       0.021756
     8877.052800       0.022579
     8884.940000       0.023421
     8892.841300       0.024280
     8900.756600       0.025158
     8908.686000       0.026054
     8916.629500       0.026969
     8924.587200       0.027902
     8932.559200       0.028853
     8940.545400       0.029823
     8948.545900       0.030813
     8956.560700       0.031821
     8964.589900       0.032848
     8972.633500       0.033894
     8980.691500       0.034959
     8988.764000       0.036044
     8996.851100       0.037148
     9004.952700       0.038271
     9013.068900       0.039414
     9021.199800       0.040577
     9029.345400       0.041760
     9037.505600       0.042963
     9045.680700       0.044186
     9053.870500       0.045428
     9062.075200       0.046691
     9070.294800       0.047975
     9078.529300       0.049278
     9086.778700       0.050603
     9095.043200       0.051948
     9103.322700       0.053313
     9111.617300       0.054699
     9119.927000       0.056106
     9128.251900       0.057535
     9136.592100       0.058984
     9144.947400       0.060454
     9153.318100       0.061946
     9161.704100       0.063459
     9170.105500       0.064993
     9178.522300       0.066549
     9186.954500       0.068127
     9195.402300       0.069726
     9203.865600       0.071347
     9212.344500       0.072990
     9220.839100       0.074655
     9229.349300       0.076342
     9237.875300       0.078051
     9246.417000       0.079782
     9254.974500       0.081535
     9263.547900       0.083311
     9272.137200       0.085109
     9280.742500       0.086930
     9289.363700       0.088773
     9298.000900       0.090639
     9306.654300       0.092527
     9315.323700       0.094439
     9324.009300       0.096373
     9332.711200       0.098330
     9341.429200       0.100310
     9350.163600       0.102313
     9358.914400       0.104339
     9367.681500       0.106388
     9376.465100       0.108461
     9385.265100       0.110556
     9394.081700       0.112675
     9402.914900       0.114817
     9411.764700       0.116983
     9420.631200       0.119172
     9429.514400       0.121384
     9438.414300       0.123620
     9447.331100       0.125879
     9456.264800       0.128163
     9465.215300       0.130469
     9474.182900       0.132799
     9483.167400       0.135153
     9492.169000       0.137531
     9501.187600       0.139932
     9510.223500       0.142357
     9519.276500       0.144805
     9528.346800       0.147277
     9537.434400       0.149774
     9546.539400       0.152293
     9555.661700       0.154837
     9564.801500       0.157404
     9573.958800       0.159994
     9583.133700       0.162609
     9592.326100       0.165247
     9601.536200       0.167909
     9610.764100       0.170594
     9620.009600       0.173304
     9629.273000       0.176036
     9638.554200       0.178793
     9647.853400       0.181572
     9657.170400       0.184376
     9666.505600       0.187202
     9675.858700       0.190053
     9685.230000       0.192926
     9694.619500       0.195823
     9704.027200       0.198743
     9713.453100       0.201686
     9722.897400       0.204653
     9732.360100       0.207642
     9741.841200       0.210654
     9751.340800       0.213689
     9760.859000       0.216748
     9770.395700       0.219829
     9779.951100       0.222932
     9789.525200       0.226058
     9799.118100       0.229207
     9808.729800       0.232377
     9818.360300       0.235571
     9828.009800       0.238786
     9837.678300       0.242023
     9847.365800       0.245282
     9857.072400       0.248563
     9866.798200       0.251866
     9876.543200       0.255190
     9886.307500       0.258536
     9896.091000       0.261903
     9905.894000       0.265290
     9915.716400       0.268700
     9925.558300       0.272129
     9935.419800       0.275580
     9945.300800       0.279051
     9955.201600       0.282542
     9965.122100       0.286054
     9975.062300       0.289585
     9985.022500       0.293136
     9995.002500       0.296708
    10005.002500       0.300298
    10015.022500       0.303908
    10025.062700       0.307537
    10035.122900       0.311184
    10045.203400       0.314851
    10055.304200       0.318536
    10065.425300       0.322239
    10075.566800       0.325960
    10085.728700       0.329699
    10095.911200       0.333456
    10106.114200       0.337230
    10116.337900       0.341021
    10126.582300       0.344829
    10136.847400       0.348654
    10147.133400       0.352496
    10157.440300       0.356353
    10167.768200       0.360227
    10178.117000       0.364116
    10188.487000       0.368020
    10198.878100       0.371940
    10209.290500       0.375875
    10219.724100       0.379824
    10230.179000       0.383788
    10240.655400       0.387766
    10251.153300       0.391757
    10261.672700       0.395762
    10272.213700       0.399780
    10282.776300       0.403811
    10293.360800       0.407855
    10303.967000       0.411912
    10314.595200       0.415980
    10325.245200       0.420060
    10335.917300       0.424151
    10346.611500       0.428254
    10357.327800       0.432367
    10368.066400       0.436490
    10378.827200       0.440624
    10389.610400       0.444768
    10400.416000       0.448921
    10411.244100       0.453084
    10422.094800       0.457255
    10432.968200       0.461434
    10443.864200       0.465622
    10454.783100       0.469818
    10465.724800       0.474021
    10476.689400       0.478231
    10487.677000       0.482448
    10498.687700       0.486671
    10509.721500       0.490900
    10520.778500       0.495135
    10531.858900       0.499375
    10542.962600       0.503621
    10554.089700       0.507871
    10565.240400       0.512125
    10576.414600       0.516382
    10587.612500       0.520644
    10598.834100       0.524908
    10610.079600       0.529175
    10621.348900       0.533445
    10632.642200       0.537716
    10643.959600       0.541989
    10655.301000       0.546263
    10666.666700       0.550538
    10678.056600       0.554813
    10689.470900       0.559088
    10700.909600       0.563363
    10712.372800       0.567637
    10723.860600       0.571910
    10735.373100       0.576182
    10746.910300       0.580451
    10758.472300       0.584718
    10770.059200       0.588983
    10781.671200       0.593244
    10793.308100       0.597501
    10804.970300       0.601755
    10816.657700       0.606004
    10828.370300       0.610249
    10840.108400       0.614488
    10851.871900       0.618721
    10863.661100       0.622949
    10875.475800       0.627171
    10887.316300       0.631385
    10899.182600       0.635592
    10911.074700       0.639792
    10922.992900       0.643984
    10934.937100       0.648167
    10946.907500       0.652342
    10958.904100       0.656507
    10970.927000       0.660663
    10982.976400       0.664808
    10995.052200       0.668944
    11007.154700       0.673068
    11019.283700       0.677181
    11031.439600       0.681283
    11043.622300       0.685372
    11055.832000       0.689449
    11068.068600       0.693513
    11080.332400       0.697564
    11092.623400       0.701601
    11104.941700       0.705624
    11117.287400       0.709633
    11129.660500       0.713627
    11142.061300       0.717606
    11154.489700       0.721569
    11166.945800       0.725516
    11179.429800       0.729447
    11191.941800       0.733361
    11204.481800       0.737258
    11217.049900       0.741137
    11229.646300       0.744999
    11242.270900       0.748842
    11254.924000       0.752667
    11267.605600       0.756472
    11280.315800       0.760258
    11293.054800       0.764024
    11305.822500       0.767770
    11318.619100       0.771496
    11331.444800       0.775201
    11344.299500       0.778885
    11357.183400       0.782546
    11370.096600       0.786187
    11383.039300       0.789805
    11396.011400       0.793400
    11409.013100       0.796972
    11422.044500       0.800521
    11435.105800       0.804046
    11448.196900       0.807547
    11461.318100       0.811024
    11474.469300       0.814477
    11487.650800       0.817904
    11500.862600       0.821306
    11514.104800       0.824683
    11527.377500       0.828034
    11540.680900       0.831358
    11554.015000       0.834656
    11567.380000       0.837927
    11580.775900       0.841171
    11594.202900       0.844388
    11607.661100       0.847576
    11621.150500       0.850737
    11634.671300       0.853870
    11648.223600       0.856974
    11661.807600       0.860049
    11675.423200       0.863096
    11689.070700       0.866113
    11702.750100       0.869100
    11716.461600       0.872057
    11730.205300       0.874985
    11743.981200       0.877882
    11757.789500       0.880748
    11771.630400       0.883584
    11785.503800       0.886388
    11799.410000       0.889161
    11813.349100       0.891903
    11827.321100       0.894613
    11841.326200       0.897291
    11855.364600       0.899937
    11869.436200       0.902551
    11883.541300       0.905132
    11897.680000       0.907681
    11911.852300       0.910197
    11926.058400       0.912679
    11940.298500       0.915128
    11954.572600       0.917544
    11968.880900       0.919927
    11983.223500       0.922275
    11997.600500       0.924590
    12012.012000       0.926871
    12026.458200       0.929117
    12040.939200       0.931329
    12055.455100       0.933507
    12070.006000       0.935651
    12084.592100       0.937759
    12099.213600       0.939833
    12113.870400       0.941872
    12128.562800       0.943876
    12143.290800       0.945845
    12158.054700       0.947779
    12172.854500       0.949677
    12187.690400       0.951540
    12202.562500       0.953368
    12217.471000       0.955161
    12232.415900       0.956917
    12247.397400       0.958639
    12262.415700       0.960324
    12277.470800       0.961974
    12292.563000       0.963589
    12307.692300       0.965167
    12322.858900       0.966710
    12338.062900       0.968217
    12353.304500       0.969689
    12368.583800       0.971124
    12383.900900       0.972524
    12399.256000       0.973888
    12414.649300       0.975217
    12430.080800       0.976510
    12445.550700       0.977767
    12461.059200       0.978988
    12476.606400       0.980174
    12492.192400       0.981324
    12507.817400       0.982439
    12523.481500       0.983518
    12539.185000       0.984562
    12554.927800       0.985570
    12570.710200       0.986544
    12586.532400       0.987482
    12602.394500       0.988385
    12618.296500       0.989253
    12634.238800       0.990086
    12650.221400       0.990885
    12666.244500       0.991649
    12682.308200       0.992378
    12698.412700       0.993073
    12714.558200       0.993734
    12730.744700       0.994360
    12746.972600       0.994952
    12763.241900       0.995511
    12779.552700       0.996036
    12795.905300       0.996527
    12812.299800       0.996985
    12828.736400       0.997410
    12845.215200       0.997802
    12861.736300       0.998161
    12878.300100       0.998487
    12894.906500       0.998781
    12911.555800       0.999043
    12928.248200       0.999272
    12944.983800       0.999470
    12961.762800       0.999636
    12978.585300       0.999771
    12995.451600       0.999874
    13012.361700       0.999947
    13029.316000       0.999989
    13046.314400       1.000000
    13063.357300       0.999981
    13080.444700       0.999932
    13097.576900       0.999854
    13114.754100       0.999746
    13131.976400       0.999609
    13149.243900       0.999443
    13166.556900       0.999248
    13183.915600       0.999025
    13201.320100       0.998774
    13218.770700       0.998496
    13236.267400       0.998189
    13253.810500       0.997856
    13271.400100       0.997496
    13289.036500       0.997109
    13306.719900       0.996696
    13324.450400       0.996257
    13342.228200       0.995793
    13360.053400       0.995303
    13377.926400       0.994788
    13395.847300       0.994249
    13413.816200       0.993685
    13431.833400       0.993098
    13449.899100       0.992487
    13468.013500       0.991852
    13486.176700       0.991195
    13504.388900       0.990516
    13522.650400       0.989814
    13540.961400       0.989090
    13559.322000       0.988345
    13577.732500       0.987579
    13596.193100       0.986792
    13614.703900       0.985985
    13633.265200       0.985158
    13651.877100       0.984312
    13670.540000       0.983446
    13689.253900       0.982562
    13708.019200       0.981659
    13726.836000       0.980738
    13745.704500       0.979800
    13764.624900       0.978844
    13783.597500       0.977872
    13802.622500       0.976883
    13821.700100       0.975878
    13840.830400       0.974858
    13860.013900       0.973822
    13879.250500       0.972772
    13898.540700       0.971707
    13917.884500       0.970628
    13937.282200       0.969536
    13956.734100       0.968431
    13976.240400       0.967312
    13995.801300       0.966182
    14015.417000       0.965040
    14035.087700       0.963886
    14054.813800       0.962721
    14074.595400       0.961546
    14094.432700       0.960360
    14114.326000       0.959165
    14134.275600       0.957960
    14154.281700       0.956746
    14174.344400       0.955523
    14194.464200       0.954293
    14214.641100       0.953055
    14234.875400       0.951809
    14255.167500       0.950557
    14275.517500       0.949298
    14295.925700       0.948033
    14316.392300       0.946763
    14336.917600       0.945487
    14357.501800       0.944207
    14378.145200       0.942922
    14398.848100       0.941633
    14419.610700       0.940341
    14440.433200       0.939046
    14461.316000       0.937748
    14482.259200       0.936447
    14503.263200       0.935145
    14524.328200       0.933841
    14545.454500       0.932536
    14566.642400       0.931230
    14587.892000       0.929924
    14609.203800       0.928618
    14630.577900       0.927312
    14652.014700       0.926008
    14673.514300       0.924704
    14695.077100       0.923402
    14716.703500       0.922103
    14738.393500       0.920805
    14760.147600       0.919511
    14781.966000       0.918219
    14803.849000       0.916931
    14825.796900       0.915647
    14847.809900       0.914367
    14869.888500       0.913091
    14892.032800       0.911821
    14914.243100       0.910555
    14936.519800       0.909296
    14958.863100       0.908042
    14981.273400       0.906794
    15003.750900       0.905553
    15026.296000       0.904320
    15048.909000       0.903093
    15071.590100       0.901874
    15094.339600       0.900663
    15117.158000       0.899459
    15140.045400       0.898265
    15163.002300       0.897079
    15186.028900       0.895902
    15209.125500       0.894735
    15232.292500       0.893577
    15255.530100       0.892429
    15278.838800       0.891292
    15302.218800       0.890164
    15325.670500       0.889048
    15349.194200       0.887942
    15372.790200       0.886848
    15396.458800       0.885765
    15420.200500       0.884693
    15444.015400       0.883634
    15467.904100       0.882586
    15491.866800       0.881551
    15515.903800       0.880528
    15540.015500       0.879518
    15564.202300       0.878521
    15588.464500       0.877537
    15612.802500       0.876566
    15637.216600       0.875609
    15661.707100       0.874665
    15686.274500       0.873734
    15710.919100       0.872818
    15735.641200       0.871915
    15760.441300       0.871027
    15785.319700       0.870153
    15810.276700       0.869293
    15835.312700       0.868447
    15860.428200       0.867616
    15885.623500       0.866800
    15910.899000       0.865998
    15936.255000       0.865211
    15961.691900       0.864439
    15987.210200       0.863682
    16012.810200       0.862939
    16038.492400       0.862212
    16064.257000       0.861499
    16090.104600       0.860802
    16116.035500       0.860119
    16142.050000       0.859452
    16168.148700       0.858799
    16194.332000       0.858161
    16220.600200       0.857538
    16246.953700       0.856930
    16273.393000       0.856337
    16299.918500       0.855759
    16326.530600       0.855195
    16353.229800       0.854646
    16380.016400       0.854111
    16406.890900       0.853591
    16433.853700       0.853085
    16460.905300       0.852594
    16488.046200       0.852116
    16515.276600       0.851652
    16542.597200       0.851203
    16570.008300       0.850766
    16597.510400       0.850343
    16625.103900       0.849934
    16652.789300       0.849537
    16680.567100       0.849154
    16708.437800       0.848783
    16736.401700       0.848425
    16764.459300       0.848078
    16792.611300       0.847744
    16820.857900       0.847422
    16849.199700       0.847111
    16877.637100       0.846811
    16906.170800       0.846522
    16934.801000       0.846244
    16963.528400       0.845976
    16992.353400       0.845718
    17021.276600       0.845470
    17050.298400       0.845231
    17079.419300       0.845001
    17108.639900       0.844780
    17137.960600       0.844567
    17167.382000       0.844362
    17196.904600       0.844165
    17226.528900       0.843975
    17256.255400       0.843792
    17286.084700       0.843615
