   3  ,noaa_10_hirs_03.flt
Number of data points:
76
Wavenumber (cm-1)   Filter response
      661.080000       0.000000
      662.790000       0.002316
      664.600000       0.003816
      666.530000       0.005897
      668.450000       0.007107
      670.090000       0.009785
      671.350000       0.013376
      672.760000       0.017462
      673.910000       0.026307
      675.050000       0.037507
      676.080000       0.052304
      676.640000       0.068548
      677.230000       0.082533
      677.770000       0.097489
      678.420000       0.115580
      678.810000       0.138080
      679.460000       0.162000
      680.240000       0.188870
      680.700000       0.216640
      681.200000       0.241710
      681.620000       0.266240
      681.930000       0.289610
      682.360000       0.318500
      682.650000       0.340790
      683.130000       0.366570
      683.520000       0.393500
      683.970000       0.422860
      684.260000       0.460690
      684.720000       0.497930
      685.130000       0.534210
      685.490000       0.571570
      686.030000       0.614900
      686.350000       0.657540
      686.670000       0.704550
      686.980000       0.739620
      687.420000       0.785940
      687.920000       0.831990
      688.360000       0.866660
      688.690000       0.902280
      689.120000       0.937440
      690.240000       0.981010
      691.130000       1.000000
      691.750000       0.998210
      692.280000       0.990160
      692.860000       0.978310
      693.560000       0.965140
      694.140000       0.953140
      694.740000       0.934650
      695.420000       0.915850
      695.760000       0.889030
      696.310000       0.856440
      696.560000       0.812720
      696.890000       0.766860
      697.370000       0.705200
      697.730000       0.657950
      698.090000       0.606160
      698.530000       0.548200
      698.910000       0.487350
      699.200000       0.428470
      699.740000       0.378500
      700.260000       0.317720
      700.730000       0.258420
      701.180000       0.208090
      701.770000       0.163860
      702.220000       0.123830
      702.930000       0.097627
      703.650000       0.071095
      704.820000       0.052583
      705.900000       0.038909
      706.810000       0.027495
      708.670000       0.025534
      710.250000       0.019909
      712.190000       0.018471
      713.550000       0.014040
      715.210000       0.008750
      717.030000       0.000000
