11,   11, MVIRI VIS channel from srf_MET3_1990078_1990079_1801-Release_S10EE_10.dat
Number of data points:
743
Wavenumber (cm-1)   Filter response
     8814.455700       0.000000
     8822.232000       0.000000
     8830.022100       0.000706
     8837.825900       0.002962
     8845.643500       0.005237
     8853.475000       0.007531
     8861.320300       0.009842
     8869.179600       0.012169
     8877.052800       0.014512
     8884.940000       0.016868
     8892.841300       0.019237
     8900.756600       0.021619
     8908.686000       0.024012
     8916.629500       0.026415
     8924.587200       0.028828
     8932.559200       0.031250
     8940.545400       0.033681
     8948.545900       0.036119
     8956.560700       0.038564
     8964.589900       0.041016
     8972.633500       0.043474
     8980.691500       0.045938
     8988.764000       0.048408
     8996.851100       0.050881
     9004.952700       0.053360
     9013.068900       0.055843
     9021.199800       0.058330
     9029.345400       0.060820
     9037.505600       0.063314
     9045.680700       0.065811
     9053.870500       0.068312
     9062.075200       0.070816
     9070.294800       0.073322
     9078.529300       0.075832
     9086.778700       0.078344
     9095.043200       0.080859
     9103.322700       0.083377
     9111.617300       0.085898
     9119.927000       0.088422
     9128.251900       0.090948
     9136.592100       0.093478
     9144.947400       0.096011
     9153.318100       0.098547
     9161.704100       0.101086
     9170.105500       0.103629
     9178.522300       0.106176
     9186.954500       0.108726
     9195.402300       0.111281
     9203.865600       0.113839
     9212.344500       0.116402
     9220.839100       0.118970
     9229.349300       0.121543
     9237.875300       0.124120
     9246.417000       0.126703
     9254.974500       0.129292
     9263.547900       0.131887
     9272.137200       0.134487
     9280.742500       0.137094
     9289.363700       0.139708
     9298.000900       0.142329
     9306.654300       0.144957
     9315.323700       0.147592
     9324.009300       0.150236
     9332.711200       0.152887
     9341.429200       0.155547
     9350.163600       0.158216
     9358.914400       0.160894
     9367.681500       0.163581
     9376.465100       0.166278
     9385.265100       0.168985
     9394.081700       0.171702
     9402.914900       0.174429
     9411.764700       0.177168
     9420.631200       0.179917
     9429.514400       0.182678
     9438.414300       0.185451
     9447.331100       0.188236
     9456.264800       0.191033
     9465.215300       0.193843
     9474.182900       0.196666
     9483.167400       0.199502
     9492.169000       0.202351
     9501.187600       0.205214
     9510.223500       0.208091
     9519.276500       0.210982
     9528.346800       0.213888
     9537.434400       0.216808
     9546.539400       0.219743
     9555.661700       0.222694
     9564.801500       0.225659
     9573.958800       0.228641
     9583.133700       0.231638
     9592.326100       0.234652
     9601.536200       0.237681
     9610.764100       0.240727
     9620.009600       0.243790
     9629.273000       0.246869
     9638.554200       0.249965
     9647.853400       0.253079
     9657.170400       0.256209
     9666.505600       0.259358
     9675.858700       0.262524
     9685.230000       0.265707
     9694.619500       0.268908
     9704.027200       0.272126
     9713.453100       0.275364
     9722.897400       0.278619
     9732.360100       0.281892
     9741.841200       0.285183
     9751.340800       0.288493
     9760.859000       0.291821
     9770.395700       0.295167
     9779.951100       0.298532
     9789.525200       0.301915
     9799.118100       0.305317
     9808.729800       0.308737
     9818.360300       0.312176
     9828.009800       0.315633
     9837.678300       0.319109
     9847.365800       0.322603
     9857.072400       0.326116
     9866.798200       0.329647
     9876.543200       0.333196
     9886.307500       0.336763
     9896.091000       0.340349
     9905.894000       0.343952
     9915.716400       0.347574
     9925.558300       0.351213
     9935.419800       0.354871
     9945.300800       0.358546
     9955.201600       0.362238
     9965.122100       0.365948
     9975.062300       0.369675
     9985.022500       0.373420
     9995.002500       0.377181
    10005.002500       0.380959
    10015.022500       0.384754
    10025.062700       0.388565
    10035.122900       0.392392
    10045.203400       0.396235
    10055.304200       0.400094
    10065.425300       0.403969
    10075.566800       0.407859
    10085.728700       0.411764
    10095.911200       0.415684
    10106.114200       0.419619
    10116.337900       0.423568
    10126.582300       0.427531
    10136.847400       0.431509
    10147.133400       0.435499
    10157.440300       0.439503
    10167.768200       0.443520
    10178.117000       0.447550
    10188.487000       0.451592
    10198.878100       0.455646
    10209.290500       0.459712
    10219.724100       0.463790
    10230.179000       0.467878
    10240.655400       0.471978
    10251.153300       0.476088
    10261.672700       0.480207
    10272.213700       0.484337
    10282.776300       0.488476
    10293.360800       0.492624
    10303.967000       0.496781
    10314.595200       0.500946
    10325.245200       0.505118
    10335.917300       0.509299
    10346.611500       0.513486
    10357.327800       0.517681
    10368.066400       0.521881
    10378.827200       0.526088
    10389.610400       0.530300
    10400.416000       0.534517
    10411.244100       0.538739
    10422.094800       0.542965
    10432.968200       0.547195
    10443.864200       0.551429
    10454.783100       0.555665
    10465.724800       0.559904
    10476.689400       0.564145
    10487.677000       0.568389
    10498.687700       0.572633
    10509.721500       0.576878
    10520.778500       0.581123
    10531.858900       0.585369
    10542.962600       0.589614
    10554.089700       0.593858
    10565.240400       0.598100
    10576.414600       0.602341
    10587.612500       0.606580
    10598.834100       0.610816
    10610.079600       0.615048
    10621.348900       0.619277
    10632.642200       0.623502
    10643.959600       0.627722
    10655.301000       0.631937
    10666.666700       0.636147
    10678.056600       0.640350
    10689.470900       0.644548
    10700.909600       0.648738
    10712.372800       0.652921
    10723.860600       0.657096
    10735.373100       0.661263
    10746.910300       0.665421
    10758.472300       0.669570
    10770.059200       0.673710
    10781.671200       0.677839
    10793.308100       0.681957
    10804.970300       0.686065
    10816.657700       0.690161
    10828.370300       0.694245
    10840.108400       0.698317
    10851.871900       0.702376
    10863.661100       0.706422
    10875.475800       0.710454
    10887.316300       0.714472
    10899.182600       0.718475
    10911.074700       0.722463
    10922.992900       0.726435
    10934.937100       0.730392
    10946.907500       0.734332
    10958.904100       0.738256
    10970.927000       0.742162
    10982.976400       0.746051
    10995.052200       0.749921
    11007.154700       0.753773
    11019.283700       0.757606
    11031.439600       0.761420
    11043.622300       0.765214
    11055.832000       0.768987
    11068.068600       0.772741
    11080.332400       0.776473
    11092.623400       0.780184
    11104.941700       0.783873
    11117.287400       0.787540
    11129.660500       0.791184
    11142.061300       0.794806
    11154.489700       0.798404
    11166.945800       0.801979
    11179.429800       0.805529
    11191.941800       0.809056
    11204.481800       0.812557
    11217.049900       0.816034
    11229.646300       0.819484
    11242.270900       0.822910
    11254.924000       0.826309
    11267.605600       0.829681
    11280.315800       0.833027
    11293.054800       0.836345
    11305.822500       0.839636
    11318.619100       0.842900
    11331.444800       0.846135
    11344.299500       0.849342
    11357.183400       0.852520
    11370.096600       0.855669
    11383.039300       0.858789
    11396.011400       0.861879
    11409.013100       0.864939
    11422.044500       0.867970
    11435.105800       0.870970
    11448.196900       0.873939
    11461.318100       0.876877
    11474.469300       0.879784
    11487.650800       0.882660
    11500.862600       0.885504
    11514.104800       0.888316
    11527.377500       0.891096
    11540.680900       0.893844
    11554.015000       0.896559
    11567.380000       0.899242
    11580.775900       0.901891
    11594.202900       0.904507
    11607.661100       0.907090
    11621.150500       0.909640
    11634.671300       0.912155
    11648.223600       0.914637
    11661.807600       0.917084
    11675.423200       0.919498
    11689.070700       0.921877
    11702.750100       0.924221
    11716.461600       0.926530
    11730.205300       0.928805
    11743.981200       0.931045
    11757.789500       0.933250
    11771.630400       0.935419
    11785.503800       0.937553
    11799.410000       0.939652
    11813.349100       0.941715
    11827.321100       0.943742
    11841.326200       0.945734
    11855.364600       0.947690
    11869.436200       0.949610
    11883.541300       0.951494
    11897.680000       0.953341
    11911.852300       0.955153
    11926.058400       0.956928
    11940.298500       0.958668
    11954.572600       0.960371
    11968.880900       0.962038
    11983.223500       0.963668
    11997.600500       0.965262
    12012.012000       0.966819
    12026.458200       0.968341
    12040.939200       0.969825
    12055.455100       0.971274
    12070.006000       0.972686
    12084.592100       0.974061
    12099.213600       0.975400
    12113.870400       0.976703
    12128.562800       0.977970
    12143.290800       0.979200
    12158.054700       0.980394
    12172.854500       0.981551
    12187.690400       0.982673
    12202.562500       0.983758
    12217.471000       0.984807
    12232.415900       0.985820
    12247.397400       0.986797
    12262.415700       0.987739
    12277.470800       0.988644
    12292.563000       0.989514
    12307.692300       0.990348
    12322.858900       0.991147
    12338.062900       0.991910
    12353.304500       0.992638
    12368.583800       0.993331
    12383.900900       0.993989
    12399.256000       0.994611
    12414.649300       0.995199
    12430.080800       0.995752
    12445.550700       0.996271
    12461.059200       0.996755
    12476.606400       0.997205
    12492.192400       0.997620
    12507.817400       0.998002
    12523.481500       0.998349
    12539.185000       0.998663
    12554.927800       0.998944
    12570.710200       0.999191
    12586.532400       0.999404
    12602.394500       0.999585
    12618.296500       0.999733
    12634.238800       0.999848
    12650.221400       0.999931
    12666.244500       0.999982
    12682.308200       1.000000
    12698.412700       0.999986
    12714.558200       0.999941
    12730.744700       0.999865
    12746.972600       0.999757
    12763.241900       0.999617
    12779.552700       0.999447
    12795.905300       0.999247
    12812.299800       0.999016
    12828.736400       0.998755
    12845.215200       0.998463
    12861.736300       0.998142
    12878.300100       0.997792
    12894.906500       0.997412
    12911.555800       0.997003
    12928.248200       0.996566
    12944.983800       0.996100
    12961.762800       0.995605
    12978.585300       0.995083
    12995.451600       0.994532
    13012.361700       0.993954
    13029.316000       0.993349
    13046.314400       0.992717
    13063.357300       0.992058
    13080.444700       0.991372
    13097.576900       0.990660
    13114.754100       0.989922
    13131.976400       0.989158
    13149.243900       0.988369
    13166.556900       0.987554
    13183.915600       0.986715
    13201.320100       0.985850
    13218.770700       0.984962
    13236.267400       0.984049
    13253.810500       0.983112
    13271.400100       0.982152
    13289.036500       0.981168
    13306.719900       0.980162
    13324.450400       0.979132
    13342.228200       0.978080
    13360.053400       0.977006
    13377.926400       0.975910
    13395.847300       0.974792
    13413.816200       0.973653
    13431.833400       0.972492
    13449.899100       0.971311
    13468.013500       0.970109
    13486.176700       0.968887
    13504.388900       0.967645
    13522.650400       0.966383
    13540.961400       0.965102
    13559.322000       0.963802
    13577.732500       0.962482
    13596.193100       0.961144
    13614.703900       0.959788
    13633.265200       0.958413
    13651.877100       0.957021
    13670.540000       0.955612
    13689.253900       0.954184
    13708.019200       0.952741
    13726.836000       0.951280
    13745.704500       0.949803
    13764.624900       0.948310
    13783.597500       0.946800
    13802.622500       0.945276
    13821.700100       0.943736
    13840.830400       0.942180
    13860.013900       0.940610
    13879.250500       0.939026
    13898.540700       0.937427
    13917.884500       0.935814
    13937.282200       0.934187
    13956.734100       0.932547
    13976.240400       0.930893
    13995.801300       0.929226
    14015.417000       0.927547
    14035.087700       0.925855
    14054.813800       0.924151
    14074.595400       0.922434
    14094.432700       0.920706
    14114.326000       0.918967
    14134.275600       0.917216
    14154.281700       0.915454
    14174.344400       0.913681
    14194.464200       0.911897
    14214.641100       0.910103
    14234.875400       0.908299
    14255.167500       0.906485
    14275.517500       0.904661
    14295.925700       0.902828
    14316.392300       0.900985
    14336.917600       0.899133
    14357.501800       0.897273
    14378.145200       0.895404
    14398.848100       0.893526
    14419.610700       0.891640
    14440.433200       0.889746
    14461.316000       0.887844
    14482.259200       0.885934
    14503.263200       0.884017
    14524.328200       0.882093
    14545.454500       0.880161
    14566.642400       0.878223
    14587.892000       0.876278
    14609.203800       0.874326
    14630.577900       0.872368
    14652.014700       0.870403
    14673.514300       0.868433
    14695.077100       0.866456
    14716.703500       0.864474
    14738.393500       0.862486
    14760.147600       0.860493
    14781.966000       0.858494
    14803.849000       0.856490
    14825.796900       0.854482
    14847.809900       0.852468
    14869.888500       0.850449
    14892.032800       0.848426
    14914.243100       0.846398
    14936.519800       0.844366
    14958.863100       0.842330
    14981.273400       0.840290
    15003.750900       0.838245
    15026.296000       0.836196
    15048.909000       0.834144
    15071.590100       0.832088
    15094.339600       0.830029
    15117.158000       0.827965
    15140.045400       0.825899
    15163.002300       0.823829
    15186.028900       0.821755
    15209.125500       0.819679
    15232.292500       0.817599
    15255.530100       0.815517
    15278.838800       0.813431
    15302.218800       0.811343
    15325.670500       0.809251
    15349.194200       0.807157
    15372.790200       0.805060
    15396.458800       0.802961
    15420.200500       0.800858
    15444.015400       0.798753
    15467.904100       0.796646
    15491.866800       0.794536
    15515.903800       0.792424
    15540.015500       0.790309
    15564.202300       0.788192
    15588.464500       0.786072
    15612.802500       0.783950
    15637.216600       0.781826
    15661.707100       0.779699
    15686.274500       0.777570
    15710.919100       0.775439
    15735.641200       0.773305
    15760.441300       0.771169
    15785.319700       0.769031
    15810.276700       0.766890
    15835.312700       0.764747
    15860.428200       0.762602
    15885.623500       0.760454
    15910.899000       0.758304
    15936.255000       0.756151
    15961.691900       0.753996
    15987.210200       0.751839
    16012.810200       0.749679
    16038.492400       0.747517
    16064.257000       0.745352
    16090.104600       0.743184
    16116.035500       0.741014
    16142.050000       0.738841
    16168.148700       0.736666
    16194.332000       0.734488
    16220.600200       0.732307
    16246.953700       0.730123
    16273.393000       0.727936
    16299.918500       0.725746
    16326.530600       0.723553
    16353.229800       0.721358
    16380.016400       0.719158
    16406.890900       0.716956
    16433.853700       0.714751
    16460.905300       0.712542
    16488.046200       0.710329
    16515.276600       0.708114
    16542.597200       0.705894
    16570.008300       0.703671
    16597.510400       0.701444
    16625.103900       0.699214
    16652.789300       0.696979
    16680.567100       0.694741
    16708.437800       0.692498
    16736.401700       0.690252
    16764.459300       0.688001
    16792.611300       0.685746
    16820.857900       0.683486
    16849.199700       0.681222
    16877.637100       0.678953
    16906.170800       0.676680
    16934.801000       0.674402
    16963.528400       0.672119
    16992.353400       0.669831
    17021.276600       0.667538
    17050.298400       0.665240
    17079.419300       0.662936
    17108.639900       0.660628
    17137.960600       0.658314
    17167.382000       0.655994
    17196.904600       0.653668
    17226.528900       0.651337
    17256.255400       0.649001
    17286.084700       0.646658
    17316.017300       0.644309
    17346.053800       0.641954
    17376.194600       0.639593
    17406.440400       0.637226
    17436.791600       0.634852
    17467.248900       0.632471
    17497.812800       0.630085
    17528.483800       0.627691
    17559.262500       0.625291
    17590.149500       0.622883
    17621.145400       0.620469
    17652.250700       0.618048
    17683.466000       0.615620
    17714.791900       0.613184
    17746.228900       0.610741
    17777.777800       0.608291
    17809.439000       0.605833
    17841.213200       0.603368
    17873.101000       0.600895
    17905.103000       0.598414
    17937.219700       0.595926
    17969.451900       0.593429
    18001.800200       0.590925
    18034.265100       0.588413
    18066.847300       0.585892
    18099.547500       0.583364
    18132.366300       0.580827
    18165.304300       0.578282
    18198.362100       0.575728
    18231.540600       0.573166
    18264.840200       0.570596
    18298.261700       0.568017
    18331.805700       0.565430
    18365.472900       0.562834
    18399.264000       0.560229
    18433.179700       0.557616
    18467.220700       0.554994
    18501.387600       0.552363
    18535.681200       0.549723
    18570.102100       0.547075
    18604.651200       0.544418
    18639.329000       0.541751
    18674.136300       0.539076
    18709.073900       0.536392
    18744.142500       0.533699
    18779.342700       0.530997
    18814.675400       0.528286
    18850.141400       0.525566
    18885.741300       0.522837
    18921.475900       0.520099
    18957.346000       0.517353
    18993.352300       0.514597
    19029.495700       0.511832
    19065.776900       0.509059
    19102.196800       0.506276
    19138.756000       0.503485
    19175.455400       0.500685
    19212.295900       0.497876
    19249.278200       0.495059
    19286.403100       0.492232
    19323.671500       0.489397
    19361.084200       0.486554
    19398.642100       0.483702
