13, channel 13 SRF extracted from AHI-9_SpectralResponsivity_Data.xlsx (release Oct 2013)
Number of data points:
981
Wavenumber (cm-1)   Filter response
      912.000000       0.000581
      912.100000       0.000583
      912.200000       0.000587
      912.300000       0.000590
      912.400000       0.000595
      912.500000       0.000599
      912.600000       0.000605
      912.700000       0.000611
      912.800000       0.000618
      912.900000       0.000626
      913.000000       0.000634
      913.100000       0.000642
      913.200000       0.000651
      913.300000       0.000660
      913.400000       0.000669
      913.500000       0.000679
      913.600000       0.000687
      913.700000       0.000696
      913.800000       0.000705
      913.900000       0.000713
      914.000000       0.000721
      914.100000       0.000729
      914.200000       0.000737
      914.300000       0.000745
      914.400000       0.000753
      914.500000       0.000761
      914.600000       0.000771
      914.700000       0.000781
      914.800000       0.000792
      914.900000       0.000805
      915.000000       0.000818
      915.100000       0.000834
      915.200000       0.000850
      915.300000       0.000868
      915.400000       0.000887
      915.500000       0.000907
      915.600000       0.000928
      915.700000       0.000950
      915.800000       0.000970
      915.900000       0.000965
      916.000000       0.000971
      916.100000       0.001006
      916.200000       0.001300
      916.300000       0.001379
      916.400000       0.001396
      916.500000       0.001412
      916.600000       0.001428
      916.700000       0.001442
      916.800000       0.001454
      916.900000       0.001466
      917.000000       0.001478
      917.100000       0.001489
      917.200000       0.001499
      917.300000       0.001510
      917.400000       0.001522
      917.500000       0.001534
      917.600000       0.001548
      917.700000       0.001563
      917.800000       0.001580
      917.900000       0.001599
      918.000000       0.001620
      918.100000       0.001643
      918.200000       0.001667
      918.300000       0.001694
      918.400000       0.001722
      918.500000       0.001752
      918.600000       0.001784
      918.700000       0.001816
      918.800000       0.001850
      918.900000       0.001885
      919.000000       0.001921
      919.100000       0.001958
      919.200000       0.001995
      919.300000       0.002033
      919.400000       0.002071
      919.500000       0.002110
      919.600000       0.002150
      919.700000       0.002190
      919.800000       0.002230
      919.900000       0.002271
      920.000000       0.002312
      920.100000       0.002354
      920.200000       0.002395
      920.300000       0.002438
      920.400000       0.002480
      920.500000       0.002523
      920.600000       0.002567
      920.700000       0.002610
      920.800000       0.002654
      920.900000       0.002698
      921.000000       0.002742
      921.100000       0.002787
      921.200000       0.002833
      921.300000       0.002879
      921.400000       0.002926
      921.500000       0.002974
      921.600000       0.003023
      921.700000       0.003073
      921.800000       0.003125
      921.900000       0.003178
      922.000000       0.003234
      922.100000       0.003291
      922.200000       0.003350
      922.300000       0.003411
      922.400000       0.003474
      922.500000       0.003539
      922.600000       0.003606
      922.700000       0.003675
      922.800000       0.003746
      922.900000       0.003819
      923.000000       0.003893
      923.100000       0.003968
      923.200000       0.004045
      923.300000       0.004124
      923.400000       0.004203
      923.500000       0.004284
      923.600000       0.004367
      923.700000       0.004450
      923.800000       0.004536
      923.900000       0.004623
      924.000000       0.004712
      924.100000       0.004803
      924.200000       0.004896
      924.300000       0.004991
      924.400000       0.005090
      924.500000       0.005191
      924.600000       0.005295
      924.700000       0.005402
      924.800000       0.005512
      924.900000       0.005626
      925.000000       0.005742
      925.100000       0.005862
      925.200000       0.005985
      925.300000       0.006112
      925.400000       0.006243
      925.500000       0.006377
      925.600000       0.006515
      925.700000       0.006657
      925.800000       0.006802
      925.900000       0.006953
      926.000000       0.007107
      926.100000       0.007267
      926.200000       0.007432
      926.300000       0.007603
      926.400000       0.007779
      926.500000       0.007962
      926.600000       0.008151
      926.700000       0.008347
      926.800000       0.008552
      926.900000       0.008763
      927.000000       0.008983
      927.100000       0.009211
      927.200000       0.009447
      927.300000       0.009691
      927.400000       0.009944
      927.500000       0.010205
      927.600000       0.010474
      927.700000       0.010749
      927.800000       0.011032
      927.900000       0.011322
      928.000000       0.011619
      928.100000       0.011924
      928.200000       0.012238
      928.300000       0.012559
      928.400000       0.012888
      928.500000       0.013225
      928.600000       0.013572
      928.700000       0.013928
      928.800000       0.014293
      928.900000       0.014668
      929.000000       0.015053
      929.100000       0.015448
      929.200000       0.015854
      929.300000       0.016270
      929.400000       0.016697
      929.500000       0.017137
      929.600000       0.017589
      929.700000       0.018053
      929.800000       0.018531
      929.900000       0.019022
      930.000000       0.019526
      930.100000       0.020043
      930.200000       0.020574
      930.300000       0.021129
      930.400000       0.021707
      930.500000       0.022302
      930.600000       0.022914
      930.700000       0.023544
      930.800000       0.024192
      930.900000       0.024859
      931.000000       0.025545
      931.100000       0.026251
      931.200000       0.026977
      931.300000       0.027725
      931.400000       0.028494
      931.500000       0.029284
      931.600000       0.030094
      931.700000       0.030928
      931.800000       0.031818
      931.900000       0.032743
      932.000000       0.033697
      932.100000       0.034681
      932.200000       0.035696
      932.300000       0.036743
      932.400000       0.037824
      932.500000       0.038938
      932.600000       0.040088
      932.700000       0.041269
      932.800000       0.042471
      932.900000       0.043700
      933.000000       0.044968
      933.100000       0.046275
      933.200000       0.047621
      933.300000       0.049007
      933.400000       0.050432
      933.500000       0.051920
      933.600000       0.053510
      933.700000       0.055167
      933.800000       0.056878
      933.900000       0.058645
      934.000000       0.060470
      934.100000       0.062365
      934.200000       0.064349
      934.300000       0.066409
      934.400000       0.068538
      934.500000       0.070735
      934.600000       0.072999
      934.700000       0.075291
      934.800000       0.077649
      934.900000       0.080078
      935.000000       0.082565
      935.100000       0.085085
      935.200000       0.087656
      935.300000       0.090296
      935.400000       0.093011
      935.500000       0.095804
      935.600000       0.098678
      935.700000       0.101629
      935.800000       0.104690
      935.900000       0.107872
      936.000000       0.111145
      936.100000       0.114532
      936.200000       0.118073
      936.300000       0.121725
      936.400000       0.125518
      936.500000       0.129479
      936.600000       0.133565
      936.700000       0.137785
      936.800000       0.142139
      936.900000       0.146608
      937.000000       0.151198
      937.100000       0.155901
      937.200000       0.160704
      937.300000       0.165614
      937.400000       0.170599
      937.500000       0.175679
      937.600000       0.180842
      937.700000       0.186090
      937.800000       0.191430
      937.900000       0.196863
      938.000000       0.202377
      938.100000       0.208003
      938.200000       0.213742
      938.300000       0.219591
      938.400000       0.225557
      938.500000       0.231652
      938.600000       0.237884
      938.700000       0.244255
      938.800000       0.250751
      938.900000       0.257402
      939.000000       0.264199
      939.100000       0.271142
      939.200000       0.278243
      939.300000       0.285483
      939.400000       0.292857
      939.500000       0.300350
      939.600000       0.307937
      939.700000       0.315634
      939.800000       0.323433
      939.900000       0.331299
      940.000000       0.339256
      940.100000       0.347262
      940.200000       0.355266
      940.300000       0.363320
      940.400000       0.371364
      940.500000       0.379420
      940.600000       0.387486
      940.700000       0.395551
      940.800000       0.403624
      940.900000       0.411725
      941.000000       0.419817
      941.100000       0.427932
      941.200000       0.436069
      941.300000       0.444193
      941.400000       0.452336
      941.500000       0.460508
      941.600000       0.468674
      941.700000       0.476904
      941.800000       0.485144
      941.900000       0.493347
      942.000000       0.501592
      942.100000       0.509838
      942.200000       0.518048
      942.300000       0.526282
      942.400000       0.534466
      942.500000       0.542598
      942.600000       0.550733
      942.700000       0.558771
      942.800000       0.566732
      942.900000       0.574656
      943.000000       0.582455
      943.100000       0.590175
      943.200000       0.597799
      943.300000       0.605314
      943.400000       0.612725
      943.500000       0.620006
      943.600000       0.627172
      943.700000       0.634223
      943.800000       0.641117
      943.900000       0.647910
      944.000000       0.654587
      944.100000       0.661104
      944.200000       0.667542
      944.300000       0.673840
      944.400000       0.680010
      944.500000       0.686100
      944.600000       0.692079
      944.700000       0.697974
      944.800000       0.703797
      944.900000       0.709532
      945.000000       0.715243
      945.100000       0.720919
      945.200000       0.726562
      945.300000       0.732307
      945.400000       0.737985
      945.500000       0.743570
      945.600000       0.748870
      945.700000       0.753930
      945.800000       0.758589
      945.900000       0.763014
      946.000000       0.767105
      946.100000       0.770933
      946.200000       0.774634
      946.300000       0.778155
      946.400000       0.781550
      946.500000       0.784810
      946.600000       0.787742
      946.700000       0.790165
      946.800000       0.792505
      946.900000       0.794766
      947.000000       0.796949
      947.100000       0.799065
      947.200000       0.801117
      947.300000       0.803099
      947.400000       0.805005
      947.500000       0.806837
      947.600000       0.808573
      947.700000       0.810217
      947.800000       0.811780
      947.900000       0.813254
      948.000000       0.814648
      948.100000       0.815964
      948.200000       0.817209
      948.300000       0.818385
      948.400000       0.819493
      948.500000       0.820543
      948.600000       0.821540
      948.700000       0.822491
      948.800000       0.823399
      948.900000       0.824248
      949.000000       0.825052
      949.100000       0.825810
      949.200000       0.826533
      949.300000       0.827227
      949.400000       0.827893
      949.500000       0.828542
      949.600000       0.829175
      949.700000       0.829799
      949.800000       0.830410
      949.900000       0.831021
      950.000000       0.831639
      950.100000       0.832290
      950.200000       0.832955
      950.300000       0.833645
      950.400000       0.834378
      950.500000       0.835162
      950.600000       0.836008
      950.700000       0.836896
      950.800000       0.837799
      950.900000       0.838713
      951.000000       0.839630
      951.100000       0.840538
      951.200000       0.841451
      951.300000       0.842365
      951.400000       0.843234
      951.500000       0.844053
      951.600000       0.844823
      951.700000       0.845548
      951.800000       0.846231
      951.900000       0.846876
      952.000000       0.847495
      952.100000       0.848104
      952.200000       0.848722
      952.300000       0.849370
      952.400000       0.850073
      952.500000       0.850850
      952.600000       0.851710
      952.700000       0.852667
      952.800000       0.853718
      952.900000       0.854856
      953.000000       0.856074
      953.100000       0.857356
      953.200000       0.858689
      953.300000       0.860048
      953.400000       0.861425
      953.500000       0.862792
      953.600000       0.864137
      953.700000       0.865449
      953.800000       0.866723
      953.900000       0.867953
      954.000000       0.869149
      954.100000       0.870310
      954.200000       0.871255
      954.300000       0.871777
      954.400000       0.872209
      954.500000       0.872656
      954.600000       0.873123
      954.700000       0.873623
      954.800000       0.874173
      954.900000       0.874778
      955.000000       0.875440
      955.100000       0.876146
      955.200000       0.876903
      955.300000       0.877711
      955.400000       0.878558
      955.500000       0.879437
      955.600000       0.880355
      955.700000       0.881298
      955.800000       0.882275
      955.900000       0.883269
      956.000000       0.884274
      956.100000       0.885302
      956.200000       0.886336
      956.300000       0.887394
      956.400000       0.888446
      956.500000       0.889501
      956.600000       0.890552
      956.700000       0.891597
      956.800000       0.892630
      956.900000       0.893648
      957.000000       0.894651
      957.100000       0.895635
      957.200000       0.896598
      957.300000       0.897543
      957.400000       0.898480
      957.500000       0.899406
      957.600000       0.900339
      957.700000       0.901294
      957.800000       0.902264
      957.900000       0.903308
      958.000000       0.904418
      958.100000       0.905603
      958.200000       0.906868
      958.300000       0.908216
      958.400000       0.909644
      958.500000       0.911160
      958.600000       0.912731
      958.700000       0.914390
      958.800000       0.916116
      958.900000       0.917884
      959.000000       0.919679
      959.100000       0.921472
      959.200000       0.923257
      959.300000       0.925007
      959.400000       0.926708
      959.500000       0.928348
      959.600000       0.929912
      959.700000       0.931394
      959.800000       0.932802
      959.900000       0.934147
      960.000000       0.935449
      960.100000       0.936717
      960.200000       0.937987
      960.300000       0.939270
      960.400000       0.940566
      960.500000       0.941899
      960.600000       0.943306
      960.700000       0.944789
      960.800000       0.946392
      960.900000       0.948067
      961.000000       0.949802
      961.100000       0.951583
      961.200000       0.953401
      961.300000       0.955234
      961.400000       0.957048
      961.500000       0.958809
      961.600000       0.960486
      961.700000       0.962070
      961.800000       0.963529
      961.900000       0.964841
      962.000000       0.966010
      962.100000       0.967050
      962.200000       0.967966
      962.300000       0.968781
      962.400000       0.969510
      962.500000       0.970165
      962.600000       0.970825
      962.700000       0.972087
      962.800000       0.974977
      962.900000       0.979422
      963.000000       0.984418
      963.100000       0.989033
      963.200000       0.992533
      963.300000       0.994669
      963.400000       0.995460
      963.500000       0.995600
      963.600000       0.996400
      963.700000       0.997825
      963.800000       0.999202
      963.900000       0.999907
      964.000000       0.999812
      964.100000       0.998868
      964.200000       0.997305
      964.300000       0.995507
      964.400000       0.993330
      964.500000       0.990352
      964.600000       0.986662
      964.700000       0.981365
      964.800000       0.974859
      964.900000       0.967978
      965.000000       0.961372
      965.100000       0.955956
      965.200000       0.952169
      965.300000       0.948944
      965.400000       0.945852
      965.500000       0.942811
      965.600000       0.939769
      965.700000       0.936697
      965.800000       0.933598
      965.900000       0.930476
      966.000000       0.927335
      966.100000       0.924174
      966.200000       0.920962
      966.300000       0.917734
      966.400000       0.914514
      966.500000       0.911298
      966.600000       0.908085
      966.700000       0.904884
      966.800000       0.901711
      966.900000       0.898550
      967.000000       0.895411
      967.100000       0.892316
      967.200000       0.889272
      967.300000       0.886275
      967.400000       0.883317
      967.500000       0.880414
      967.600000       0.877545
      967.700000       0.874702
      967.800000       0.871886
      967.900000       0.869091
      968.000000       0.866310
      968.100000       0.863545
      968.200000       0.860796
      968.300000       0.858062
      968.400000       0.855339
      968.500000       0.852632
      968.600000       0.849946
      968.700000       0.847284
      968.800000       0.844652
      968.900000       0.842054
      969.000000       0.839503
      969.100000       0.836992
      969.200000       0.834530
      969.300000       0.832125
      969.400000       0.829774
      969.500000       0.827481
      969.600000       0.825247
      969.700000       0.823070
      969.800000       0.820920
      969.900000       0.818748
      970.000000       0.816521
      970.100000       0.814209
      970.200000       0.811821
      970.300000       0.809381
      970.400000       0.806923
      970.500000       0.804469
      970.600000       0.802022
      970.700000       0.799598
      970.800000       0.797210
      970.900000       0.794868
      971.000000       0.792559
      971.100000       0.790282
      971.200000       0.788063
      971.300000       0.785924
      971.400000       0.783857
      971.500000       0.781845
      971.600000       0.779908
      971.700000       0.778059
      971.800000       0.776310
      971.900000       0.774667
      972.000000       0.773101
      972.100000       0.771571
      972.200000       0.770052
      972.300000       0.768538
      972.400000       0.767022
      972.500000       0.765494
      972.600000       0.763941
      972.700000       0.762322
      972.800000       0.760696
      972.900000       0.759256
      973.000000       0.758002
      973.100000       0.756926
      973.200000       0.756020
      973.300000       0.755275
      973.400000       0.754697
      973.500000       0.754265
      973.600000       0.753975
      973.700000       0.753864
      973.800000       0.753889
      973.900000       0.754054
