   2  ,noaa_15_hirs_02.flt
Number of data points:
108
Wavenumber (cm-1)   Filter response
      664.000000       0.000000
      666.300000       0.022251
      668.100000       0.056201
      668.300000       0.067290
      668.900000       0.078677
      669.100000       0.088361
      669.300000       0.097243
      669.500000       0.105120
      669.700000       0.119840
      669.900000       0.133580
      670.100000       0.143020
      670.300000       0.153510
      670.500000       0.176080
      670.700000       0.200720
      670.900000       0.221460
      671.100000       0.241950
      671.300000       0.269570
      671.500000       0.300690
      671.700000       0.330800
      671.900000       0.357670
      672.100000       0.385160
      672.300000       0.416050
      672.500000       0.453470
      672.700000       0.488780
      672.900000       0.523780
      673.100000       0.557470
      673.300000       0.590130
      673.500000       0.619740
      673.700000       0.649990
      673.900000       0.679310
      674.100000       0.707540
      674.300000       0.736400
      674.500000       0.762990
      674.700000       0.782280
      674.900000       0.800090
      675.100000       0.823010
      675.300000       0.849610
      675.500000       0.865440
      675.700000       0.871420
      675.900000       0.877880
      676.100000       0.890060
      676.300000       0.897940
      676.500000       0.901960
      676.700000       0.908250
      676.900000       0.918060
      677.100000       0.926100
      677.300000       0.929910
      677.500000       0.931890
      677.700000       0.934490
      677.900000       0.937250
      678.100000       0.939860
      678.300000       0.941700
      678.500000       0.943070
      678.700000       0.942730
      678.900000       0.946910
      679.100000       0.954880
      679.300000       0.965260
      679.500000       0.973630
      679.700000       0.979510
      679.900000       0.982870
      680.100000       0.983370
      680.300000       0.980650
      680.500000       0.973560
      680.700000       0.975450
      680.900000       0.988980
      681.100000       1.000000
      681.300000       0.998860
      681.500000       0.987400
      681.700000       0.979790
      681.900000       0.975410
      682.100000       0.972150
      682.300000       0.962890
      682.500000       0.947580
      682.700000       0.927430
      682.900000       0.902670
      683.100000       0.876430
      683.300000       0.845170
      683.500000       0.802940
      683.700000       0.755040
      683.900000       0.708080
      684.100000       0.664440
      684.300000       0.618190
      684.500000       0.575280
      684.700000       0.532150
      684.900000       0.484170
      685.100000       0.436640
      685.300000       0.390930
      685.500000       0.349820
      685.700000       0.307120
      685.900000       0.269040
      686.100000       0.232350
      686.300000       0.204020
      686.500000       0.184450
      686.700000       0.172630
      686.900000       0.157210
      687.100000       0.137150
      687.300000       0.121400
      687.500000       0.111770
      687.700000       0.096262
      687.900000       0.078024
      688.700000       0.057761
      688.900000       0.051073
      689.500000       0.044002
      689.700000       0.042468
      689.900000       0.033322
      690.100000       0.024318
      690.300000       0.020550
      693.400000       0.000000
