11 , goes_10_sounder_11.flt
Number of data points:
1289
Wavenumber (cm-1)   Filter response
     1368.700000       0.004586
     1368.800000       0.004906
     1368.900000       0.005198
     1369.000000       0.005484
     1369.100000       0.005761
     1369.200000       0.006030
     1369.300000       0.006288
     1369.400000       0.006536
     1369.500000       0.006773
     1369.600000       0.006996
     1369.700000       0.007209
     1369.800000       0.007422
     1369.900000       0.007619
     1370.000000       0.007787
     1370.100000       0.007932
     1370.200000       0.008060
     1370.300000       0.008169
     1370.400000       0.008260
     1370.500000       0.008336
     1370.600000       0.008398
     1370.700000       0.008449
     1370.800000       0.008490
     1370.900000       0.008526
     1371.000000       0.008559
     1371.100000       0.008589
     1371.200000       0.008616
     1371.300000       0.008644
     1371.400000       0.008677
     1371.500000       0.008716
     1371.600000       0.008763
     1371.700000       0.008821
     1371.800000       0.008892
     1371.900000       0.008977
     1372.000000       0.009079
     1372.100000       0.009212
     1372.200000       0.009374
     1372.300000       0.009557
     1372.400000       0.009758
     1372.500000       0.009990
     1372.600000       0.010251
     1372.700000       0.010540
     1372.800000       0.010856
     1372.900000       0.011197
     1373.000000       0.011563
     1373.100000       0.011948
     1373.200000       0.012368
     1373.300000       0.012841
     1373.400000       0.013336
     1373.500000       0.013819
     1373.600000       0.014307
     1373.700000       0.014816
     1373.800000       0.015341
     1373.900000       0.015880
     1374.000000       0.016432
     1374.100000       0.016996
     1374.200000       0.017571
     1374.300000       0.018153
     1374.400000       0.018789
     1374.500000       0.019469
     1374.600000       0.020146
     1374.700000       0.020797
     1374.800000       0.021469
     1374.900000       0.022167
     1375.000000       0.022888
     1375.100000       0.023637
     1375.200000       0.024417
     1375.300000       0.025235
     1375.400000       0.026081
     1375.500000       0.026979
     1375.600000       0.027985
     1375.700000       0.029049
     1375.800000       0.030098
     1375.900000       0.031146
     1376.000000       0.032243
     1376.100000       0.033378
     1376.200000       0.034549
     1376.300000       0.035758
     1376.400000       0.037002
     1376.500000       0.038277
     1376.600000       0.039564
     1376.700000       0.040948
     1376.800000       0.042438
     1376.900000       0.043915
     1377.000000       0.045290
     1377.100000       0.046655
     1377.200000       0.048051
     1377.300000       0.049483
     1377.400000       0.050972
     1377.500000       0.052538
     1377.600000       0.054216
     1377.700000       0.056022
     1377.800000       0.058016
     1377.900000       0.060353
     1378.000000       0.063011
     1378.100000       0.065814
     1378.200000       0.068533
     1378.300000       0.071018
     1378.400000       0.072977
     1378.500000       0.074419
     1378.600000       0.075740
     1378.700000       0.077381
     1378.800000       0.079728
     1378.900000       0.082587
     1379.000000       0.085700
     1379.100000       0.089002
     1379.200000       0.092338
     1379.300000       0.095536
     1379.400000       0.098700
     1379.500000       0.101930
     1379.600000       0.105193
     1379.700000       0.108493
     1379.800000       0.111827
     1379.900000       0.115198
     1380.000000       0.118600
     1380.100000       0.122013
     1380.200000       0.125693
     1380.300000       0.129586
     1380.400000       0.133405
     1380.500000       0.137038
     1380.600000       0.140742
     1380.700000       0.144533
     1380.800000       0.148404
     1380.900000       0.152354
     1381.000000       0.156383
     1381.100000       0.160512
     1381.200000       0.164680
     1381.300000       0.169003
     1381.400000       0.173720
     1381.500000       0.178585
     1381.600000       0.183262
     1381.700000       0.187832
     1381.800000       0.192533
     1381.900000       0.197302
     1382.000000       0.202153
     1382.100000       0.207109
     1382.200000       0.212200
     1382.300000       0.217434
     1382.400000       0.222746
     1382.500000       0.228504
     1382.600000       0.234798
     1382.700000       0.241234
     1382.800000       0.247499
     1382.900000       0.253932
     1383.000000       0.260643
     1383.100000       0.267567
     1383.200000       0.274718
     1383.300000       0.282095
     1383.400000       0.289715
     1383.500000       0.297507
     1383.600000       0.305532
     1383.700000       0.314350
     1383.800000       0.323625
     1383.900000       0.332654
     1384.000000       0.341352
     1384.100000       0.350242
     1384.200000       0.359237
     1384.300000       0.368314
     1384.400000       0.377463
     1384.500000       0.386708
     1384.600000       0.396091
     1384.700000       0.405470
     1384.800000       0.415302
     1384.900000       0.425945
     1385.000000       0.436756
     1385.100000       0.447070
     1385.200000       0.457331
     1385.300000       0.467904
     1385.400000       0.478622
     1385.500000       0.489476
     1385.600000       0.500396
     1385.700000       0.511359
     1385.800000       0.522281
     1385.900000       0.533032
     1386.000000       0.544331
     1386.100000       0.555928
     1386.200000       0.566941
     1386.300000       0.577032
     1386.400000       0.586896
     1386.500000       0.596507
     1386.600000       0.605797
     1386.700000       0.614866
     1386.800000       0.623818
     1386.900000       0.632776
     1387.000000       0.641730
     1387.100000       0.651040
     1387.200000       0.661393
     1387.300000       0.672418
     1387.400000       0.683310
     1387.500000       0.694149
     1387.600000       0.705322
     1387.700000       0.716556
     1387.800000       0.727708
     1387.900000       0.738597
     1388.000000       0.749088
     1388.100000       0.759020
     1388.200000       0.768199
     1388.300000       0.777264
     1388.400000       0.786316
     1388.500000       0.794699
     1388.600000       0.802108
     1388.700000       0.809161
     1388.800000       0.816107
     1388.900000       0.822920
     1389.000000       0.829670
     1389.100000       0.836334
     1389.200000       0.842929
     1389.300000       0.849384
     1389.400000       0.855708
     1389.500000       0.862347
     1389.600000       0.868938
     1389.700000       0.874955
     1389.800000       0.880402
     1389.900000       0.885693
     1390.000000       0.890819
     1390.100000       0.895796
     1390.200000       0.900671
     1390.300000       0.905479
     1390.400000       0.910248
     1390.500000       0.914959
     1390.600000       0.919737
     1390.700000       0.924639
     1390.800000       0.929384
     1390.900000       0.933761
     1391.000000       0.937876
     1391.100000       0.941793
     1391.200000       0.945434
     1391.300000       0.948799
     1391.400000       0.951919
     1391.500000       0.954840
     1391.600000       0.957586
     1391.700000       0.960173
     1391.800000       0.962764
     1391.900000       0.965340
     1392.000000       0.967788
     1392.100000       0.970078
     1392.200000       0.972344
     1392.300000       0.974574
     1392.400000       0.976738
     1392.500000       0.978845
     1392.600000       0.980890
     1392.700000       0.982873
     1392.800000       0.984778
     1392.900000       0.986637
     1393.000000       0.988529
     1393.100000       0.990347
     1393.200000       0.991983
     1393.300000       0.993455
     1393.400000       0.994811
     1393.500000       0.996012
     1393.600000       0.997055
     1393.700000       0.997939
     1393.800000       0.998664
     1393.900000       0.999229
     1394.000000       0.999628
     1394.100000       0.999885
     1394.200000       1.000000
     1394.300000       0.999949
     1394.400000       0.999738
     1394.500000       0.999393
     1394.600000       0.998924
     1394.700000       0.998337
     1394.800000       0.997650
     1394.900000       0.996883
     1395.000000       0.996060
     1395.100000       0.995202
     1395.200000       0.994329
     1395.300000       0.993460
     1395.400000       0.992611
     1395.500000       0.991796
     1395.600000       0.991030
     1395.700000       0.990304
     1395.800000       0.989609
     1395.900000       0.988936
     1396.000000       0.988273
     1396.100000       0.987610
     1396.200000       0.986938
     1396.300000       0.986243
     1396.400000       0.985520
     1396.500000       0.984763
     1396.600000       0.983976
     1396.700000       0.983170
     1396.800000       0.982357
     1396.900000       0.981556
     1397.000000       0.980777
     1397.100000       0.980034
     1397.200000       0.979340
     1397.300000       0.978705
     1397.400000       0.978146
     1397.500000       0.977660
     1397.600000       0.977242
     1397.700000       0.976882
     1397.800000       0.976563
     1397.900000       0.976270
     1398.000000       0.976001
     1398.100000       0.975741
     1398.200000       0.975480
     1398.300000       0.975202
     1398.400000       0.974911
     1398.500000       0.974609
     1398.600000       0.974298
     1398.700000       0.973983
     1398.800000       0.973668
     1398.900000       0.973352
     1399.000000       0.973032
     1399.100000       0.972715
     1399.200000       0.972409
     1399.300000       0.972107
     1399.400000       0.971808
     1399.500000       0.971503
     1399.600000       0.971186
     1399.700000       0.970852
     1399.800000       0.970495
     1399.900000       0.970107
     1400.000000       0.969687
     1400.100000       0.969231
     1400.200000       0.968724
     1400.300000       0.968172
     1400.400000       0.967587
     1400.500000       0.966972
     1400.600000       0.966334
     1400.700000       0.965679
     1400.800000       0.965012
     1400.900000       0.964343
     1401.000000       0.963676
     1401.100000       0.963013
     1401.200000       0.962356
     1401.300000       0.961705
     1401.400000       0.961066
     1401.500000       0.960440
     1401.600000       0.959828
     1401.700000       0.959229
     1401.800000       0.958642
     1401.900000       0.958062
     1402.000000       0.957487
     1402.100000       0.956911
     1402.200000       0.956333
     1402.300000       0.955744
     1402.400000       0.955138
     1402.500000       0.954540
     1402.600000       0.953957
     1402.700000       0.953393
     1402.800000       0.952855
     1402.900000       0.952352
     1403.000000       0.951888
     1403.100000       0.951469
     1403.200000       0.951100
     1403.300000       0.950769
     1403.400000       0.950468
     1403.500000       0.950167
     1403.600000       0.949855
     1403.700000       0.949550
     1403.800000       0.949233
     1403.900000       0.948909
     1404.000000       0.948585
     1404.100000       0.948271
     1404.200000       0.947987
     1404.300000       0.947749
     1404.400000       0.947578
     1404.500000       0.947496
     1404.600000       0.947514
     1404.700000       0.947596
     1404.800000       0.947762
     1404.900000       0.947998
     1405.000000       0.948265
     1405.100000       0.948542
     1405.200000       0.948806
     1405.300000       0.949035
     1405.400000       0.949202
     1405.500000       0.949295
     1405.600000       0.949321
     1405.700000       0.949306
     1405.800000       0.949247
     1405.900000       0.949147
     1406.000000       0.949084
     1406.100000       0.949046
     1406.200000       0.949043
     1406.300000       0.949098
     1406.400000       0.949221
     1406.500000       0.949394
     1406.600000       0.949601
     1406.700000       0.949824
     1406.800000       0.950050
     1406.900000       0.950269
     1407.000000       0.950423
     1407.100000       0.950537
     1407.200000       0.950633
     1407.300000       0.950657
     1407.400000       0.950623
     1407.500000       0.950543
     1407.600000       0.950423
     1407.700000       0.950273
     1407.800000       0.950101
     1407.900000       0.949915
     1408.000000       0.949730
     1408.100000       0.949540
     1408.200000       0.949310
     1408.300000       0.949128
     1408.400000       0.948970
     1408.500000       0.948806
     1408.600000       0.948645
     1408.700000       0.948481
     1408.800000       0.948313
     1408.900000       0.948139
     1409.000000       0.947956
     1409.100000       0.947763
     1409.200000       0.947574
     1409.300000       0.947351
     1409.400000       0.947113
     1409.500000       0.946931
     1409.600000       0.946758
     1409.700000       0.946600
     1409.800000       0.946466
     1409.900000       0.946356
     1410.000000       0.946275
     1410.100000       0.946219
     1410.200000       0.946178
     1410.300000       0.946150
     1410.400000       0.946127
     1410.500000       0.946063
     1410.600000       0.946009
     1410.700000       0.945965
     1410.800000       0.945890
     1410.900000       0.945789
     1411.000000       0.945667
     1411.100000       0.945528
     1411.200000       0.945381
     1411.300000       0.945233
     1411.400000       0.945083
     1411.500000       0.944949
     1411.600000       0.944817
     1411.700000       0.944683
     1411.800000       0.944607
     1411.900000       0.944555
     1412.000000       0.944511
     1412.100000       0.944478
     1412.200000       0.944446
     1412.300000       0.944406
     1412.400000       0.944354
     1412.500000       0.944282
     1412.600000       0.944182
     1412.700000       0.944050
     1412.800000       0.943864
     1412.900000       0.943654
     1413.000000       0.943449
     1413.100000       0.943226
     1413.200000       0.942994
     1413.300000       0.942760
     1413.400000       0.942532
     1413.500000       0.942320
     1413.600000       0.942127
     1413.700000       0.941947
     1413.800000       0.941779
     1413.900000       0.941612
     1414.000000       0.941416
     1414.100000       0.941235
     1414.200000       0.941055
     1414.300000       0.940857
     1414.400000       0.940645
     1414.500000       0.940415
     1414.600000       0.940178
     1414.700000       0.939941
     1414.800000       0.939710
     1414.900000       0.939493
     1415.000000       0.939290
     1415.100000       0.939092
     1415.200000       0.938901
     1415.300000       0.938739
     1415.400000       0.938589
     1415.500000       0.938440
     1415.600000       0.938288
     1415.700000       0.938123
     1415.800000       0.937951
     1415.900000       0.937776
     1416.000000       0.937602
     1416.100000       0.937429
     1416.200000       0.937265
     1416.300000       0.937147
     1416.400000       0.937046
     1416.500000       0.936963
     1416.600000       0.936926
     1416.700000       0.936929
     1416.800000       0.936966
     1416.900000       0.937038
     1417.000000       0.937143
     1417.100000       0.937280
     1417.200000       0.937447
     1417.300000       0.937617
     1417.400000       0.937816
     1417.500000       0.938069
     1417.600000       0.938252
     1417.700000       0.938415
     1417.800000       0.938574
     1417.900000       0.938711
     1418.000000       0.938828
     1418.100000       0.938923
     1418.200000       0.938996
     1418.300000       0.939057
     1418.400000       0.939105
     1418.500000       0.939130
     1418.600000       0.939215
     1418.700000       0.939297
     1418.800000       0.939315
     1418.900000       0.939350
     1419.000000       0.939392
     1419.100000       0.939435
     1419.200000       0.939483
     1419.300000       0.939535
     1419.400000       0.939590
     1419.500000       0.939649
     1419.600000       0.939699
     1419.700000       0.939760
     1419.800000       0.939887
     1419.900000       0.939958
     1420.000000       0.940006
     1420.100000       0.940072
     1420.200000       0.940144
     1420.300000       0.940232
     1420.400000       0.940338
     1420.500000       0.940467
     1420.600000       0.940623
     1420.700000       0.940812
     1420.800000       0.941020
     1420.900000       0.941301
     1421.000000       0.941634
     1421.100000       0.941917
     1421.200000       0.942219
     1421.300000       0.942535
     1421.400000       0.942853
     1421.500000       0.943172
     1421.600000       0.943487
     1421.700000       0.943794
     1421.800000       0.944103
     1421.900000       0.944409
     1422.000000       0.944721
     1422.100000       0.945106
     1422.200000       0.945481
     1422.300000       0.945836
     1422.400000       0.946227
     1422.500000       0.946639
     1422.600000       0.947072
     1422.700000       0.947525
     1422.800000       0.947988
     1422.900000       0.948461
     1423.000000       0.948943
     1423.100000       0.949414
     1423.200000       0.949901
     1423.300000       0.950428
     1423.400000       0.950897
     1423.500000       0.951355
     1423.600000       0.951822
     1423.700000       0.952290
     1423.800000       0.952766
     1423.900000       0.953249
     1424.000000       0.953741
     1424.100000       0.954246
     1424.200000       0.954759
     1424.300000       0.955268
     1424.400000       0.955811
     1424.500000       0.956345
     1424.600000       0.956827
     1424.700000       0.957296
     1424.800000       0.957741
     1424.900000       0.958153
     1425.000000       0.958534
     1425.100000       0.958883
     1425.200000       0.959199
     1425.300000       0.959483
     1425.400000       0.959734
     1425.500000       0.959962
     1425.600000       0.960198
     1425.700000       0.960388
     1425.800000       0.960548
     1425.900000       0.960700
     1426.000000       0.960838
     1426.100000       0.960969
     1426.200000       0.961093
     1426.300000       0.961207
     1426.400000       0.961306
     1426.500000       0.961384
     1426.600000       0.961438
     1426.700000       0.961466
     1426.800000       0.961458
     1426.900000       0.961398
     1427.000000       0.961288
     1427.100000       0.961124
     1427.200000       0.960909
     1427.300000       0.960643
     1427.400000       0.960329
     1427.500000       0.959971
     1427.600000       0.959566
     1427.700000       0.959119
     1427.800000       0.958632
     1427.900000       0.958066
     1428.000000       0.957469
     1428.100000       0.956852
     1428.200000       0.956186
     1428.300000       0.955483
     1428.400000       0.954748
     1428.500000       0.953990
     1428.600000       0.953214
     1428.700000       0.952427
     1428.800000       0.951635
     1428.900000       0.950854
     1429.000000       0.950068
     1429.100000       0.949264
     1429.200000       0.948531
     1429.300000       0.947830
     1429.400000       0.947150
     1429.500000       0.946502
     1429.600000       0.945883
     1429.700000       0.945292
     1429.800000       0.944724
     1429.900000       0.944177
     1430.000000       0.943648
     1430.100000       0.943138
     1430.200000       0.942646
     1430.300000       0.942176
     1430.400000       0.941730
     1430.500000       0.941307
     1430.600000       0.940909
     1430.700000       0.940533
     1430.800000       0.940181
