35,   35, MVIRI VIS channel from srf_MET4_1993303_1993304_1801-Release_S10EL_10.dat
Number of data points:
752
Wavenumber (cm-1)   Filter response
     8745.080900       0.000000
     8752.735200       0.000000
     8760.403000       0.000001
     8768.084200       0.000060
     8775.778900       0.000202
     8783.487000       0.000425
     8791.208800       0.000728
     8798.944100       0.001107
     8806.693100       0.001560
     8814.455700       0.002085
     8822.232000       0.002679
     8830.022100       0.003342
     8837.825900       0.004070
     8845.643500       0.004862
     8853.475000       0.005715
     8861.320300       0.006628
     8869.179600       0.007600
     8877.052800       0.008627
     8884.940000       0.009709
     8892.841300       0.010844
     8900.756600       0.012031
     8908.686000       0.013267
     8916.629500       0.014551
     8924.587200       0.015883
     8932.559200       0.017259
     8940.545400       0.018680
     8948.545900       0.020144
     8956.560700       0.021650
     8964.589900       0.023196
     8972.633500       0.024780
     8980.691500       0.026403
     8988.764000       0.028064
     8996.851100       0.029760
     9004.952700       0.031490
     9013.068900       0.033255
     9021.199800       0.035053
     9029.345400       0.036884
     9037.505600       0.038745
     9045.680700       0.040637
     9053.870500       0.042559
     9062.075200       0.044509
     9070.294800       0.046488
     9078.529300       0.048494
     9086.778700       0.050528
     9095.043200       0.052587
     9103.322700       0.054672
     9111.617300       0.056782
     9119.927000       0.058916
     9128.251900       0.061074
     9136.592100       0.063256
     9144.947400       0.065461
     9153.318100       0.067688
     9161.704100       0.069937
     9170.105500       0.072208
     9178.522300       0.074500
     9186.954500       0.076813
     9195.402300       0.079147
     9203.865600       0.081500
     9212.344500       0.083874
     9220.839100       0.086267
     9229.349300       0.088680
     9237.875300       0.091111
     9246.417000       0.093562
     9254.974500       0.096031
     9263.547900       0.098518
     9272.137200       0.101024
     9280.742500       0.103548
     9289.363700       0.106089
     9298.000900       0.108648
     9306.654300       0.111225
     9315.323700       0.113819
     9324.009300       0.116430
     9332.711200       0.119059
     9341.429200       0.121704
     9350.163600       0.124367
     9358.914400       0.127046
     9367.681500       0.129742
     9376.465100       0.132456
     9385.265100       0.135185
     9394.081700       0.137932
     9402.914900       0.140694
     9411.764700       0.143474
     9420.631200       0.146270
     9429.514400       0.149082
     9438.414300       0.151912
     9447.331100       0.154757
     9456.264800       0.157619
     9465.215300       0.160498
     9474.182900       0.163393
     9483.167400       0.166304
     9492.169000       0.169232
     9501.187600       0.172177
     9510.223500       0.175138
     9519.276500       0.178115
     9528.346800       0.181109
     9537.434400       0.184120
     9546.539400       0.187147
     9555.661700       0.190190
     9564.801500       0.193251
     9573.958800       0.196328
     9583.133700       0.199422
     9592.326100       0.202532
     9601.536200       0.205659
     9610.764100       0.208802
     9620.009600       0.211963
     9629.273000       0.215140
     9638.554200       0.218334
     9647.853400       0.221545
     9657.170400       0.224773
     9666.505600       0.228017
     9675.858700       0.231279
     9685.230000       0.234557
     9694.619500       0.237852
     9704.027200       0.241164
     9713.453100       0.244493
     9722.897400       0.247839
     9732.360100       0.251201
     9741.841200       0.254581
     9751.340800       0.257977
     9760.859000       0.261390
     9770.395700       0.264820
     9779.951100       0.268267
     9789.525200       0.271730
     9799.118100       0.275211
     9808.729800       0.278707
     9818.360300       0.282221
     9828.009800       0.285751
     9837.678300       0.289298
     9847.365800       0.292862
     9857.072400       0.296442
     9866.798200       0.300038
     9876.543200       0.303650
     9886.307500       0.307280
     9896.091000       0.310925
     9905.894000       0.314586
     9915.716400       0.318263
     9925.558300       0.321957
     9935.419800       0.325666
     9945.300800       0.329391
     9955.201600       0.333131
     9965.122100       0.336888
     9975.062300       0.340659
     9985.022500       0.344446
     9995.002500       0.348248
    10005.002500       0.352065
    10015.022500       0.355897
    10025.062700       0.359744
    10035.122900       0.363606
    10045.203400       0.367481
    10055.304200       0.371372
    10065.425300       0.375276
    10075.566800       0.379194
    10085.728700       0.383127
    10095.911200       0.387072
    10106.114200       0.391032
    10116.337900       0.395004
    10126.582300       0.398989
    10136.847400       0.402987
    10147.133400       0.406998
    10157.440300       0.411022
    10167.768200       0.415057
    10178.117000       0.419104
    10188.487000       0.423163
    10198.878100       0.427234
    10209.290500       0.431316
    10219.724100       0.435409
    10230.179000       0.439512
    10240.655400       0.443626
    10251.153300       0.447751
    10261.672700       0.451885
    10272.213700       0.456029
    10282.776300       0.460182
    10293.360800       0.464344
    10303.967000       0.468516
    10314.595200       0.472695
    10325.245200       0.476883
    10335.917300       0.481079
    10346.611500       0.485283
    10357.327800       0.489494
    10368.066400       0.493712
    10378.827200       0.497936
    10389.610400       0.502167
    10400.416000       0.506404
    10411.244100       0.510647
    10422.094800       0.514894
    10432.968200       0.519147
    10443.864200       0.523405
    10454.783100       0.527667
    10465.724800       0.531933
    10476.689400       0.536202
    10487.677000       0.540475
    10498.687700       0.544751
    10509.721500       0.549029
    10520.778500       0.553309
    10531.858900       0.557591
    10542.962600       0.561874
    10554.089700       0.566159
    10565.240400       0.570444
    10576.414600       0.574729
    10587.612500       0.579014
    10598.834100       0.583299
    10610.079600       0.587582
    10621.348900       0.591864
    10632.642200       0.596144
    10643.959600       0.600423
    10655.301000       0.604699
    10666.666700       0.608971
    10678.056600       0.613241
    10689.470900       0.617506
    10700.909600       0.621768
    10712.372800       0.626024
    10723.860600       0.630276
    10735.373100       0.634522
    10746.910300       0.638763
    10758.472300       0.642997
    10770.059200       0.647224
    10781.671200       0.651444
    10793.308100       0.655656
    10804.970300       0.659861
    10816.657700       0.664057
    10828.370300       0.668245
    10840.108400       0.672423
    10851.871900       0.676591
    10863.661100       0.680749
    10875.475800       0.684897
    10887.316300       0.689033
    10899.182600       0.693158
    10911.074700       0.697272
    10922.992900       0.701373
    10934.937100       0.705461
    10946.907500       0.709536
    10958.904100       0.713597
    10970.927000       0.717645
    10982.976400       0.721678
    10995.052200       0.725696
    11007.154700       0.729699
    11019.283700       0.733686
    11031.439600       0.737657
    11043.622300       0.741611
    11055.832000       0.745549
    11068.068600       0.749469
    11080.332400       0.753371
    11092.623400       0.757255
    11104.941700       0.761120
    11117.287400       0.764966
    11129.660500       0.768793
    11142.061300       0.772599
    11154.489700       0.776386
    11166.945800       0.780151
    11179.429800       0.783896
    11191.941800       0.787619
    11204.481800       0.791320
    11217.049900       0.794998
    11229.646300       0.798654
    11242.270900       0.802287
    11254.924000       0.805896
    11267.605600       0.809482
    11280.315800       0.813043
    11293.054800       0.816579
    11305.822500       0.820090
    11318.619100       0.823576
    11331.444800       0.827036
    11344.299500       0.830470
    11357.183400       0.833878
    11370.096600       0.837258
    11383.039300       0.840611
    11396.011400       0.843937
    11409.013100       0.847234
    11422.044500       0.850504
    11435.105800       0.853745
    11448.196900       0.856956
    11461.318100       0.860138
    11474.469300       0.863291
    11487.650800       0.866414
    11500.862600       0.869506
    11514.104800       0.872568
    11527.377500       0.875599
    11540.680900       0.878598
    11554.015000       0.881566
    11567.380000       0.884502
    11580.775900       0.887406
    11594.202900       0.890278
    11607.661100       0.893117
    11621.150500       0.895923
    11634.671300       0.898695
    11648.223600       0.901434
    11661.807600       0.904139
    11675.423200       0.906811
    11689.070700       0.909447
    11702.750100       0.912050
    11716.461600       0.914617
    11730.205300       0.917149
    11743.981200       0.919647
    11757.789500       0.922108
    11771.630400       0.924534
    11785.503800       0.926924
    11799.410000       0.929277
    11813.349100       0.931595
    11827.321100       0.933876
    11841.326200       0.936120
    11855.364600       0.938327
    11869.436200       0.940497
    11883.541300       0.942629
    11897.680000       0.944724
    11911.852300       0.946782
    11926.058400       0.948802
    11940.298500       0.950783
    11954.572600       0.952727
    11968.880900       0.954632
    11983.223500       0.956499
    11997.600500       0.958328
    12012.012000       0.960118
    12026.458200       0.961869
    12040.939200       0.963582
    12055.455100       0.965255
    12070.006000       0.966890
    12084.592100       0.968485
    12099.213600       0.970041
    12113.870400       0.971558
    12128.562800       0.973035
    12143.290800       0.974474
    12158.054700       0.975872
    12172.854500       0.977231
    12187.690400       0.978551
    12202.562500       0.979831
    12217.471000       0.981071
    12232.415900       0.982272
    12247.397400       0.983433
    12262.415700       0.984554
    12277.470800       0.985636
    12292.563000       0.986678
    12307.692300       0.987680
    12322.858900       0.988642
    12338.062900       0.989565
    12353.304500       0.990449
    12368.583800       0.991293
    12383.900900       0.992097
    12399.256000       0.992862
    12414.649300       0.993587
    12430.080800       0.994273
    12445.550700       0.994919
    12461.059200       0.995527
    12476.606400       0.996095
    12492.192400       0.996624
    12507.817400       0.997115
    12523.481500       0.997566
    12539.185000       0.997979
    12554.927800       0.998352
    12570.710200       0.998688
    12586.532400       0.998985
    12602.394500       0.999244
    12618.296500       0.999464
    12634.238800       0.999647
    12650.221400       0.999791
    12666.244500       0.999898
    12682.308200       0.999968
    12698.412700       1.000000
    12714.558200       0.999995
    12730.744700       0.999953
    12746.972600       0.999874
    12763.241900       0.999758
    12779.552700       0.999606
    12795.905300       0.999418
    12812.299800       0.999194
    12828.736400       0.998934
    12845.215200       0.998638
    12861.736300       0.998307
    12878.300100       0.997941
    12894.906500       0.997540
    12911.555800       0.997105
    12928.248200       0.996635
    12944.983800       0.996131
    12961.762800       0.995593
    12978.585300       0.995021
    12995.451600       0.994416
    13012.361700       0.993778
    13029.316000       0.993107
    13046.314400       0.992404
    13063.357300       0.991669
    13080.444700       0.990901
    13097.576900       0.990102
    13114.754100       0.989272
    13131.976400       0.988411
    13149.243900       0.987519
    13166.556900       0.986597
    13183.915600       0.985645
    13201.320100       0.984663
    13218.770700       0.983651
    13236.267400       0.982611
    13253.810500       0.981542
    13271.400100       0.980445
    13289.036500       0.979319
    13306.719900       0.978167
    13324.450400       0.976986
    13342.228200       0.975779
    13360.053400       0.974546
    13377.926400       0.973286
    13395.847300       0.972000
    13413.816200       0.970690
    13431.833400       0.969354
    13449.899100       0.967993
    13468.013500       0.966608
    13486.176700       0.965200
    13504.388900       0.963768
    13522.650400       0.962313
    13540.961400       0.960835
    13559.322000       0.959335
    13577.732500       0.957813
    13596.193100       0.956270
    13614.703900       0.954705
    13633.265200       0.953121
    13651.877100       0.951516
    13670.540000       0.949891
    13689.253900       0.948247
    13708.019200       0.946584
    13726.836000       0.944902
    13745.704500       0.943203
    13764.624900       0.941485
    13783.597500       0.939751
    13802.622500       0.938000
    13821.700100       0.936233
    13840.830400       0.934450
    13860.013900       0.932651
    13879.250500       0.930837
    13898.540700       0.929009
    13917.884500       0.927167
    13937.282200       0.925311
    13956.734100       0.923442
    13976.240400       0.921560
    13995.801300       0.919666
    14015.417000       0.917760
    14035.087700       0.915843
    14054.813800       0.913914
    14074.595400       0.911975
    14094.432700       0.910027
    14114.326000       0.908068
    14134.275600       0.906100
    14154.281700       0.904124
    14174.344400       0.902139
    14194.464200       0.900147
    14214.641100       0.898147
    14234.875400       0.896141
    14255.167500       0.894128
    14275.517500       0.892109
    14295.925700       0.890084
    14316.392300       0.888054
    14336.917600       0.886020
    14357.501800       0.883981
    14378.145200       0.881939
    14398.848100       0.879893
    14419.610700       0.877844
    14440.433200       0.875793
    14461.316000       0.873740
    14482.259200       0.871686
    14503.263200       0.869630
    14524.328200       0.867573
    14545.454500       0.865517
    14566.642400       0.863460
    14587.892000       0.861404
    14609.203800       0.859349
    14630.577900       0.857295
    14652.014700       0.855243
    14673.514300       0.853194
    14695.077100       0.851147
    14716.703500       0.849103
    14738.393500       0.847063
    14760.147600       0.845026
    14781.966000       0.842994
    14803.849000       0.840967
    14825.796900       0.838944
    14847.809900       0.836927
    14869.888500       0.834916
    14892.032800       0.832911
    14914.243100       0.830913
    14936.519800       0.828922
    14958.863100       0.826938
    14981.273400       0.824961
    15003.750900       0.822993
    15026.296000       0.821034
    15048.909000       0.819083
    15071.590100       0.817141
    15094.339600       0.815208
    15117.158000       0.813286
    15140.045400       0.811373
    15163.002300       0.809472
    15186.028900       0.807580
    15209.125500       0.805700
    15232.292500       0.803832
    15255.530100       0.801975
    15278.838800       0.800130
    15302.218800       0.798298
    15325.670500       0.796478
    15349.194200       0.794671
    15372.790200       0.792877
    15396.458800       0.791097
    15420.200500       0.789330
    15444.015400       0.787578
    15467.904100       0.785840
    15491.866800       0.784116
    15515.903800       0.782407
    15540.015500       0.780712
    15564.202300       0.779033
    15588.464500       0.777370
    15612.802500       0.775722
    15637.216600       0.774090
    15661.707100       0.772474
    15686.274500       0.770874
    15710.919100       0.769291
    15735.641200       0.767724
    15760.441300       0.766174
    15785.319700       0.764641
    15810.276700       0.763125
    15835.312700       0.761626
    15860.428200       0.760145
    15885.623500       0.758681
    15910.899000       0.757235
    15936.255000       0.755806
    15961.691900       0.754396
    15987.210200       0.753003
    16012.810200       0.751628
    16038.492400       0.750272
    16064.257000       0.748934
    16090.104600       0.747614
    16116.035500       0.746313
    16142.050000       0.745030
    16168.148700       0.743765
    16194.332000       0.742519
    16220.600200       0.741291
    16246.953700       0.740082
    16273.393000       0.738892
    16299.918500       0.737720
    16326.530600       0.736567
    16353.229800       0.735432
    16380.016400       0.734316
    16406.890900       0.733218
    16433.853700       0.732139
    16460.905300       0.731078
    16488.046200       0.730036
    16515.276600       0.729011
    16542.597200       0.728005
    16570.008300       0.727017
    16597.510400       0.726048
    16625.103900       0.725096
    16652.789300       0.724161
    16680.567100       0.723245
    16708.437800       0.722346
    16736.401700       0.721464
    16764.459300       0.720600
    16792.611300       0.719753
    16820.857900       0.718923
    16849.199700       0.718109
    16877.637100       0.717312
    16906.170800       0.716532
    16934.801000       0.715767
    16963.528400       0.715019
    16992.353400       0.714286
    17021.276600       0.713569
    17050.298400       0.712867
    17079.419300       0.712180
    17108.639900       0.711507
    17137.960600       0.710850
    17167.382000       0.710206
    17196.904600       0.709576
    17226.528900       0.708960
    17256.255400       0.708357
    17286.084700       0.707767
    17316.017300       0.707190
    17346.053800       0.706625
    17376.194600       0.706072
    17406.440400       0.705530
    17436.791600       0.705000
    17467.248900       0.704481
    17497.812800       0.703972
    17528.483800       0.703473
    17559.262500       0.702984
    17590.149500       0.702505
    17621.145400       0.702034
    17652.250700       0.701571
    17683.466000       0.701117
    17714.791900       0.700670
    17746.228900       0.700230
    17777.777800       0.699797
    17809.439000       0.699371
    17841.213200       0.698949
    17873.101000       0.698533
    17905.103000       0.698122
    17937.219700       0.697715
    17969.451900       0.697312
    18001.800200       0.696912
    18034.265100       0.696515
    18066.847300       0.696120
    18099.547500       0.695726
    18132.366300       0.695334
    18165.304300       0.694942
    18198.362100       0.694550
    18231.540600       0.694157
    18264.840200       0.693764
    18298.261700       0.693368
    18331.805700       0.692970
    18365.472900       0.692569
    18399.264000       0.692165
    18433.179700       0.691756
    18467.220700       0.691342
    18501.387600       0.690923
    18535.681200       0.690498
    18570.102100       0.690066
    18604.651200       0.689627
    18639.329000       0.689180
    18674.136300       0.688724
    18709.073900       0.688259
    18744.142500       0.687784
    18779.342700       0.687298
    18814.675400       0.686801
    18850.141400       0.686292
    18885.741300       0.685770
    18921.475900       0.685235
    18957.346000       0.684686
    18993.352300       0.684122
    19029.495700       0.683543
    19065.776900       0.682947
