115,   115, MVIRI VIS channel from srf_MET5_2005213_2005214_1801-Release_S10EL_10.dat
Number of data points:
806
Wavenumber (cm-1)   Filter response
     8350.730700       0.000000
     8357.710000       0.000000
     8364.701000       0.000000
     8371.703600       0.000002
     8378.718100       0.000004
     8385.744200       0.000009
     8392.782200       0.000017
     8399.832000       0.000028
     8406.893700       0.000043
     8413.967200       0.000062
     8421.052600       0.000086
     8428.150000       0.000115
     8435.259400       0.000150
     8442.380800       0.000191
     8449.514200       0.000239
     8456.659600       0.000294
     8463.817200       0.000357
     8470.986900       0.000427
     8478.168700       0.000506
     8485.362700       0.000593
     8492.569000       0.000689
     8499.787500       0.000795
     8507.018300       0.000910
     8514.261400       0.001036
     8521.516800       0.001171
     8528.784600       0.001317
     8536.064900       0.001474
     8543.357500       0.001643
     8550.662700       0.001822
     8557.980300       0.002013
     8565.310500       0.002217
     8572.653200       0.002432
     8580.008600       0.002660
     8587.376600       0.002900
     8594.757200       0.003154
     8602.150500       0.003420
     8609.556600       0.003700
     8616.975400       0.003993
     8624.407100       0.004300
     8631.851500       0.004620
     8639.308900       0.004955
     8646.779100       0.005304
     8654.262200       0.005667
     8661.758300       0.006045
     8669.267400       0.006438
     8676.789600       0.006846
     8684.324800       0.007268
     8691.873100       0.007706
     8699.434500       0.008160
     8707.009100       0.008629
     8714.596900       0.009113
     8722.198000       0.009613
     8729.812300       0.010130
     8737.439900       0.010662
     8745.080900       0.011211
     8752.735200       0.011775
     8760.403000       0.012357
     8768.084200       0.012955
     8775.778900       0.013570
     8783.487000       0.014201
     8791.208800       0.014850
     8798.944100       0.015515
     8806.693100       0.016198
     8814.455700       0.016899
     8822.232000       0.017616
     8830.022100       0.018351
     8837.825900       0.019104
     8845.643500       0.019875
     8853.475000       0.020664
     8861.320300       0.021470
     8869.179600       0.022295
     8877.052800       0.023138
     8884.940000       0.023999
     8892.841300       0.024878
     8900.756600       0.025777
     8908.686000       0.026693
     8916.629500       0.027629
     8924.587200       0.028584
     8932.559200       0.029557
     8940.545400       0.030549
     8948.545900       0.031561
     8956.560700       0.032592
     8964.589900       0.033642
     8972.633500       0.034712
     8980.691500       0.035801
     8988.764000       0.036910
     8996.851100       0.038039
     9004.952700       0.039188
     9013.068900       0.040356
     9021.199800       0.041545
     9029.345400       0.042754
     9037.505600       0.043983
     9045.680700       0.045232
     9053.870500       0.046502
     9062.075200       0.047793
     9070.294800       0.049104
     9078.529300       0.050436
     9086.778700       0.051789
     9095.043200       0.053163
     9103.322700       0.054557
     9111.617300       0.055973
     9119.927000       0.057410
     9128.251900       0.058869
     9136.592100       0.060348
     9144.947400       0.061850
     9153.318100       0.063373
     9161.704100       0.064917
     9170.105500       0.066484
     9178.522300       0.068072
     9186.954500       0.069682
     9195.402300       0.071314
     9203.865600       0.072968
     9212.344500       0.074645
     9220.839100       0.076343
     9229.349300       0.078064
     9237.875300       0.079808
     9246.417000       0.081573
     9254.974500       0.083362
     9263.547900       0.085173
     9272.137200       0.087007
     9280.742500       0.088864
     9289.363700       0.090743
     9298.000900       0.092646
     9306.654300       0.094571
     9315.323700       0.096519
     9324.009300       0.098491
     9332.711200       0.100486
     9341.429200       0.102504
     9350.163600       0.104545
     9358.914400       0.106610
     9367.681500       0.108698
     9376.465100       0.110809
     9385.265100       0.112944
     9394.081700       0.115103
     9402.914900       0.117285
     9411.764700       0.119491
     9420.631200       0.121720
     9429.514400       0.123973
     9438.414300       0.126250
     9447.331100       0.128550
     9456.264800       0.130875
     9465.215300       0.133223
     9474.182900       0.135595
     9483.167400       0.137991
     9492.169000       0.140411
     9501.187600       0.142855
     9510.223500       0.145322
     9519.276500       0.147814
     9528.346800       0.150329
     9537.434400       0.152868
     9546.539400       0.155431
     9555.661700       0.158019
     9564.801500       0.160629
     9573.958800       0.163265
     9583.133700       0.165923
     9592.326100       0.168606
     9601.536200       0.171312
     9610.764100       0.174042
     9620.009600       0.176797
     9629.273000       0.179574
     9638.554200       0.182376
     9647.853400       0.185201
     9657.170400       0.188049
     9666.505600       0.190922
     9675.858700       0.193818
     9685.230000       0.196737
     9694.619500       0.199680
     9704.027200       0.202646
     9713.453100       0.205635
     9722.897400       0.208648
     9732.360100       0.211683
     9741.841200       0.214742
     9751.340800       0.217823
     9760.859000       0.220928
     9770.395700       0.224056
     9779.951100       0.227205
     9789.525200       0.230378
     9799.118100       0.233573
     9808.729800       0.236791
     9818.360300       0.240031
     9828.009800       0.243292
     9837.678300       0.246577
     9847.365800       0.249883
     9857.072400       0.253210
     9866.798200       0.256560
     9876.543200       0.259930
     9886.307500       0.263323
     9896.091000       0.266736
     9905.894000       0.270171
     9915.716400       0.273626
     9925.558300       0.277102
     9935.419800       0.280599
     9945.300800       0.284117
     9955.201600       0.287654
     9965.122100       0.291212
     9975.062300       0.294789
     9985.022500       0.298386
     9995.002500       0.302003
    10005.002500       0.305639
    10015.022500       0.309295
    10025.062700       0.312969
    10035.122900       0.316662
    10045.203400       0.320373
    10055.304200       0.324103
    10065.425300       0.327851
    10075.566800       0.331617
    10085.728700       0.335400
    10095.911200       0.339201
    10106.114200       0.343019
    10116.337900       0.346854
    10126.582300       0.350705
    10136.847400       0.354574
    10147.133400       0.358458
    10157.440300       0.362358
    10167.768200       0.366274
    10178.117000       0.370205
    10188.487000       0.374152
    10198.878100       0.378113
    10209.290500       0.382089
    10219.724100       0.386080
    10230.179000       0.390084
    10240.655400       0.394102
    10251.153300       0.398134
    10261.672700       0.402179
    10272.213700       0.406236
    10282.776300       0.410306
    10293.360800       0.414389
    10303.967000       0.418483
    10314.595200       0.422589
    10325.245200       0.426707
    10335.917300       0.430835
    10346.611500       0.434975
    10357.327800       0.439124
    10368.066400       0.443284
    10378.827200       0.447453
    10389.610400       0.451632
    10400.416000       0.455819
    10411.244100       0.460015
    10422.094800       0.464220
    10432.968200       0.468433
    10443.864200       0.472653
    10454.783100       0.476881
    10465.724800       0.481115
    10476.689400       0.485357
    10487.677000       0.489604
    10498.687700       0.493857
    10509.721500       0.498116
    10520.778500       0.502380
    10531.858900       0.506649
    10542.962600       0.510922
    10554.089700       0.515199
    10565.240400       0.519479
    10576.414600       0.523763
    10587.612500       0.528050
    10598.834100       0.532339
    10610.079600       0.536631
    10621.348900       0.540924
    10632.642200       0.545218
    10643.959600       0.549513
    10655.301000       0.553809
    10666.666700       0.558105
    10678.056600       0.562401
    10689.470900       0.566696
    10700.909600       0.570990
    10712.372800       0.575282
    10723.860600       0.579573
    10735.373100       0.583861
    10746.910300       0.588147
    10758.472300       0.592430
    10770.059200       0.596709
    10781.671200       0.600984
    10793.308100       0.605255
    10804.970300       0.609522
    10816.657700       0.613783
    10828.370300       0.618039
    10840.108400       0.622289
    10851.871900       0.626532
    10863.661100       0.630769
    10875.475800       0.634998
    10887.316300       0.639220
    10899.182600       0.643434
    10911.074700       0.647640
    10922.992900       0.651837
    10934.937100       0.656025
    10946.907500       0.660203
    10958.904100       0.664371
    10970.927000       0.668528
    10982.976400       0.672675
    10995.052200       0.676811
    11007.154700       0.680934
    11019.283700       0.685046
    11031.439600       0.689146
    11043.622300       0.693232
    11055.832000       0.697305
    11068.068600       0.701364
    11080.332400       0.705410
    11092.623400       0.709441
    11104.941700       0.713457
    11117.287400       0.717458
    11129.660500       0.721443
    11142.061300       0.725412
    11154.489700       0.729364
    11166.945800       0.733300
    11179.429800       0.737218
    11191.941800       0.741119
    11204.481800       0.745002
    11217.049900       0.748866
    11229.646300       0.752712
    11242.270900       0.756538
    11254.924000       0.760345
    11267.605600       0.764132
    11280.315800       0.767899
    11293.054800       0.771645
    11305.822500       0.775370
    11318.619100       0.779074
    11331.444800       0.782756
    11344.299500       0.786416
    11357.183400       0.790053
    11370.096600       0.793668
    11383.039300       0.797259
    11396.011400       0.800827
    11409.013100       0.804371
    11422.044500       0.807891
    11435.105800       0.811386
    11448.196900       0.814857
    11461.318100       0.818302
    11474.469300       0.821722
    11487.650800       0.825116
    11500.862600       0.828484
    11514.104800       0.831825
    11527.377500       0.835140
    11540.680900       0.838427
    11554.015000       0.841687
    11567.380000       0.844920
    11580.775900       0.848124
    11594.202900       0.851300
    11607.661100       0.854448
    11621.150500       0.857567
    11634.671300       0.860656
    11648.223600       0.863717
    11661.807600       0.866747
    11675.423200       0.869748
    11689.070700       0.872719
    11702.750100       0.875659
    11716.461600       0.878568
    11730.205300       0.881446
    11743.981200       0.884294
    11757.789500       0.887110
    11771.630400       0.889894
    11785.503800       0.892646
    11799.410000       0.895367
    11813.349100       0.898055
    11827.321100       0.900710
    11841.326200       0.903333
    11855.364600       0.905923
    11869.436200       0.908480
    11883.541300       0.911003
    11897.680000       0.913493
    11911.852300       0.915949
    11926.058400       0.918372
    11940.298500       0.920761
    11954.572600       0.923115
    11968.880900       0.925435
    11983.223500       0.927721
    11997.600500       0.929971
    12012.012000       0.932188
    12026.458200       0.934369
    12040.939200       0.936515
    12055.455100       0.938627
    12070.006000       0.940703
    12084.592100       0.942743
    12099.213600       0.944748
    12113.870400       0.946718
    12128.562800       0.948652
    12143.290800       0.950550
    12158.054700       0.952412
    12172.854500       0.954239
    12187.690400       0.956029
    12202.562500       0.957784
    12217.471000       0.959502
    12232.415900       0.961185
    12247.397400       0.962831
    12262.415700       0.964441
    12277.470800       0.966014
    12292.563000       0.967552
    12307.692300       0.969053
    12322.858900       0.970518
    12338.062900       0.971946
    12353.304500       0.973338
    12368.583800       0.974694
    12383.900900       0.976014
    12399.256000       0.977297
    12414.649300       0.978544
    12430.080800       0.979755
    12445.550700       0.980930
    12461.059200       0.982068
    12476.606400       0.983171
    12492.192400       0.984237
    12507.817400       0.985268
    12523.481500       0.986262
    12539.185000       0.987221
    12554.927800       0.988144
    12570.710200       0.989031
    12586.532400       0.989882
    12602.394500       0.990699
    12618.296500       0.991479
    12634.238800       0.992225
    12650.221400       0.992935
    12666.244500       0.993611
    12682.308200       0.994251
    12698.412700       0.994857
    12714.558200       0.995428
    12730.744700       0.995964
    12746.972600       0.996466
    12763.241900       0.996934
    12779.552700       0.997368
    12795.905300       0.997769
    12812.299800       0.998135
    12828.736400       0.998468
    12845.215200       0.998768
    12861.736300       0.999034
    12878.300100       0.999268
    12894.906500       0.999469
    12911.555800       0.999638
    12928.248200       0.999774
    12944.983800       0.999878
    12961.762800       0.999950
    12978.585300       0.999991
    12995.451600       1.000000
    13012.361700       0.999978
    13029.316000       0.999925
    13046.314400       0.999842
    13063.357300       0.999728
    13080.444700       0.999584
    13097.576900       0.999411
    13114.754100       0.999207
    13131.976400       0.998975
    13149.243900       0.998713
    13166.556900       0.998423
    13183.915600       0.998104
    13201.320100       0.997757
    13218.770700       0.997382
    13236.267400       0.996979
    13253.810500       0.996550
    13271.400100       0.996093
    13289.036500       0.995610
    13306.719900       0.995100
    13324.450400       0.994565
    13342.228200       0.994004
    13360.053400       0.993417
    13377.926400       0.992806
    13395.847300       0.992170
    13413.816200       0.991510
    13431.833400       0.990825
    13449.899100       0.990118
    13468.013500       0.989387
    13486.176700       0.988633
    13504.388900       0.987856
    13522.650400       0.987058
    13540.961400       0.986238
    13559.322000       0.985396
    13577.732500       0.984533
    13596.193100       0.983650
    13614.703900       0.982746
    13633.265200       0.981823
    13651.877100       0.980880
    13670.540000       0.979918
    13689.253900       0.978937
    13708.019200       0.977938
    13726.836000       0.976921
    13745.704500       0.975886
    13764.624900       0.974835
    13783.597500       0.973766
    13802.622500       0.972682
    13821.700100       0.971581
    13840.830400       0.970465
    13860.013900       0.969334
    13879.250500       0.968188
    13898.540700       0.967028
    13917.884500       0.965854
    13937.282200       0.964666
    13956.734100       0.963466
    13976.240400       0.962253
    13995.801300       0.961027
    14015.417000       0.959790
    14035.087700       0.958542
    14054.813800       0.957283
    14074.595400       0.956013
    14094.432700       0.954733
    14114.326000       0.953443
    14134.275600       0.952144
    14154.281700       0.950837
    14174.344400       0.949520
    14194.464200       0.948196
    14214.641100       0.946865
    14234.875400       0.945526
    14255.167500       0.944180
    14275.517500       0.942828
    14295.925700       0.941470
    14316.392300       0.940107
    14336.917600       0.938739
    14357.501800       0.937366
    14378.145200       0.935988
    14398.848100       0.934607
    14419.610700       0.933223
    14440.433200       0.931835
    14461.316000       0.930445
    14482.259200       0.929053
    14503.263200       0.927658
    14524.328200       0.926263
    14545.454500       0.924866
    14566.642400       0.923469
    14587.892000       0.922071
    14609.203800       0.920674
    14630.577900       0.919277
    14652.014700       0.917882
    14673.514300       0.916487
    14695.077100       0.915094
    14716.703500       0.913704
    14738.393500       0.912315
    14760.147600       0.910930
    14781.966000       0.909548
    14803.849000       0.908169
    14825.796900       0.906795
    14847.809900       0.905424
    14869.888500       0.904058
    14892.032800       0.902697
    14914.243100       0.901342
    14936.519800       0.899992
    14958.863100       0.898648
    14981.273400       0.897310
    15003.750900       0.895979
    15026.296000       0.894655
    15048.909000       0.893338
    15071.590100       0.892029
    15094.339600       0.890728
    15117.158000       0.889435
    15140.045400       0.888150
    15163.002300       0.886874
    15186.028900       0.885607
    15209.125500       0.884350
    15232.292500       0.883102
    15255.530100       0.881864
    15278.838800       0.880636
    15302.218800       0.879418
    15325.670500       0.878211
    15349.194200       0.877015
    15372.790200       0.875830
    15396.458800       0.874657
    15420.200500       0.873495
    15444.015400       0.872344
    15467.904100       0.871206
    15491.866800       0.870080
    15515.903800       0.868966
    15540.015500       0.867865
    15564.202300       0.866776
    15588.464500       0.865701
    15612.802500       0.864638
    15637.216600       0.863589
    15661.707100       0.862553
    15686.274500       0.861531
    15710.919100       0.860522
    15735.641200       0.859527
    15760.441300       0.858547
    15785.319700       0.857580
    15810.276700       0.856627
    15835.312700       0.855688
    15860.428200       0.854764
    15885.623500       0.853854
    15910.899000       0.852959
    15936.255000       0.852078
    15961.691900       0.851212
    15987.210200       0.850360
    16012.810200       0.849523
    16038.492400       0.848701
    16064.257000       0.847893
    16090.104600       0.847100
    16116.035500       0.846322
    16142.050000       0.845558
    16168.148700       0.844809
    16194.332000       0.844075
    16220.600200       0.843356
    16246.953700       0.842651
    16273.393000       0.841960
    16299.918500       0.841284
    16326.530600       0.840623
    16353.229800       0.839975
    16380.016400       0.839342
    16406.890900       0.838723
    16433.853700       0.838118
    16460.905300       0.837527
    16488.046200       0.836950
    16515.276600       0.836386
    16542.597200       0.835836
    16570.008300       0.835299
    16597.510400       0.834775
    16625.103900       0.834264
    16652.789300       0.833766
    16680.567100       0.833280
    16708.437800       0.832807
    16736.401700       0.832346
    16764.459300       0.831896
    16792.611300       0.831459
    16820.857900       0.831032
    16849.199700       0.830617
    16877.637100       0.830213
    16906.170800       0.829819
    16934.801000       0.829436
    16963.528400       0.829063
    16992.353400       0.828699
    17021.276600       0.828345
    17050.298400       0.827999
    17079.419300       0.827663
    17108.639900       0.827335
    17137.960600       0.827015
    17167.382000       0.826702
    17196.904600       0.826397
    17226.528900       0.826098
    17256.255400       0.825806
    17286.084700       0.825520
