4,    channel 4 SRF extracted from SRF_FY-3F_MERSI-III.zip(FY3F_MERSI_SRF_CH04_Pub.txt) (received Nov 2023)
Number of data points:
231
Wavenumber (cm-1)   Filter response
    10828.370300       0.001713
    10834.236200       0.001870
    10840.109600       0.001870
    10845.991700       0.002030
    10851.881400       0.002189
    10857.757400       0.002509
    10863.661100       0.002829
    10869.575900       0.002990
    10875.473400       0.002991
    10881.402300       0.002993
    10887.317500       0.002996
    10893.239100       0.003160
    10899.193300       0.003162
    10905.131400       0.003326
    10911.077100       0.003652
    10917.033000       0.003818
    10922.995300       0.004149
    10928.966500       0.004478
    10934.944300       0.004973
    10940.908300       0.005142
    10946.902700       0.005475
    10952.906100       0.005648
    10958.895700       0.006314
    10964.912300       0.006653
    10970.918600       0.007323
    10976.954400       0.008161
    10982.972800       0.008837
    10989.002500       0.009516
    10995.061900       0.010530
    11001.107400       0.011548
    11007.160700       0.012404
    11013.221900       0.013766
    11019.289800       0.015301
    11025.370500       0.016843
    11031.432300       0.019066
    11037.526400       0.021127
    11043.627200       0.023367
    11049.717700       0.026127
    11055.834400       0.029408
    11061.940800       0.032536
    11068.074700       0.037041
    11074.194700       0.042078
    11080.323800       0.047651
    11086.484300       0.054279
    11092.630800       0.061966
    11098.785300       0.070549
    11104.946600       0.080202
    11111.117300       0.091452
    11117.297300       0.103964
    11123.459400       0.118264
    11129.654400       0.133841
    11135.859900       0.151578
    11142.073700       0.170790
    11148.270800       0.191837
    11154.498400       0.213847
    11160.714300       0.237358
    11166.937100       0.261324
    11173.190600       0.286811
    11179.432300       0.314190
    11185.681100       0.343107
    11191.935500       0.372501
    11198.199500       0.403269
    11204.473000       0.433454
    11210.756000       0.462164
    11217.047400       0.490645
    11223.347100       0.518710
    11229.653800       0.546372
    11235.948700       0.573255
    11242.272200       0.597718
    11248.604000       0.621940
    11254.924000       0.645184
    11261.249800       0.665611
    11267.610700       0.684663
    11273.954600       0.703238
    11280.308200       0.717672
    11286.693200       0.730886
    11293.063700       0.742680
    11299.441400       0.751749
    11305.828900       0.760862
    11312.226200       0.769820
    11318.630700       0.776022
    11325.020600       0.779813
    11331.443500       0.784736
    11337.874900       0.787243
    11344.290500       0.788065
    11350.739100       0.789827
    11357.171800       0.792332
    11363.640200       0.794286
    11370.090200       0.796806
    11376.574600       0.799129
    11383.043200       0.800694
    11389.520300       0.803787
    11396.007500       0.805160
    11402.503400       0.806631
    11409.006600       0.809536
    11415.521200       0.812925
    11422.041900       0.815668
    11428.574000       0.819867
    11435.112300       0.824085
    11441.637100       0.827049
    11448.195600       0.830899
    11454.760300       0.834249
    11461.312800       0.837098
    11467.896500       0.840029
    11474.466700       0.842342
    11481.044400       0.845043
    11487.658700       0.847914
    11494.254200       0.852146
    11500.859900       0.854575
    11507.473200       0.859551
    11514.098100       0.864128
    11520.730700       0.868495
    11527.373500       0.872664
    11534.024000       0.878211
    11540.683600       0.883758
    11547.353400       0.889105
    11554.005700       0.894850
    11560.695000       0.899589
    11567.392000       0.905127
    11574.072700       0.910464
    11580.788000       0.916405
    11587.486900       0.923142
    11594.197500       0.929660
    11600.940200       0.937183
    11607.666400       0.944697
    11614.403200       0.951389
    11621.149100       0.957046
    11627.904300       0.963295
    11634.670000       0.969127
    11641.442200       0.974326
    11648.225000       0.978069
    11655.018400       0.982609
    11661.795300       0.987746
    11668.606000       0.989979
    11675.427300       0.991979
    11682.230700       0.994567
    11689.072100       0.995892
    11695.894100       0.996781
    11702.752900       0.998049
    11709.596400       0.999494
    11716.475400       0.999870
    11723.334900       1.000000
    11730.206700       0.998225
    11737.087800       0.996614
    11743.975700       0.992467
    11750.875800       0.989110
    11757.786800       0.985290
    11764.704500       0.981423
    11771.633100       0.976466
    11778.572700       0.972506
    11785.494100       0.965160
    11792.450000       0.957356
    11799.418400       0.948047
    11806.368500       0.938907
    11813.356100       0.926166
    11820.326800       0.914009
    11827.332300       0.899096
    11834.322300       0.883730
    11841.320600       0.865183
    11848.328600       0.846386
    11855.374400       0.823981
    11862.406100       0.800267
    11869.441800       0.773356
    11876.490200       0.743244
    11883.548400       0.710171
    11890.616300       0.675579
    11897.667200       0.638414
    11904.756200       0.599520
    11911.853700       0.560623
    11918.962500       0.522103
    11926.051300       0.483999
    11933.179900       0.447584
    11940.291400       0.412863
    11947.438400       0.378969
    11954.568300       0.346132
    11961.708200       0.315401
    11968.888100       0.285314
    11976.049300       0.256919
    11983.219200       0.230007
    11990.400500       0.204997
    11997.591800       0.182303
    12004.793300       0.162340
    12012.003400       0.143225
    12019.225000       0.126843
    12026.456800       0.112146
    12033.700100       0.098296
    12040.952200       0.085501
    12048.187000       0.074805
    12055.458000       0.065579
    12062.713100       0.057823
    12070.004600       0.051118
    12077.310700       0.045048
    12084.595100       0.039818
    12091.891100       0.035013
    12099.226700       0.030837
    12106.541900       0.027909
    12113.868900       0.025400
    12121.207700       0.022486
    12128.555400       0.020402
    12135.913500       0.018324
    12143.283500       0.016041
    12150.662400       0.014175
    12158.053200       0.013134
    12165.453100       0.011687
    12172.861900       0.010857
    12180.256100       0.009824
    12187.687500       0.008997
    12195.129400       0.008173
    12202.555100       0.007555
    12210.018200       0.006736
    12217.463500       0.006122
    12224.950800       0.005508
    12232.415900       0.004696
    12239.894600       0.004288
    12247.412400       0.003882
    12254.908000       0.003477
    12262.418700       0.002873
    12269.940200       0.002871
    12277.469300       0.002669
    12285.010800       0.002667
    12292.564500       0.002467
    12300.127500       0.002269
    12307.701400       0.002070
    12315.258800       0.001674
    12322.852800       0.001476
    12330.460800       0.001476
    12338.049200       0.001673
    12345.677500       0.001673
    12353.318200       0.001870
    12360.937900       0.001676
    12368.599100       0.001676
