89,   89, MVIRI VIS channel from srf_MET5_2002123_2002124_1801-Release_S10EL_10.dat
Number of data points:
806
Wavenumber (cm-1)   Filter response
     8350.730700       0.000000
     8357.710000       0.000000
     8364.701000       0.000000
     8371.703600       0.000002
     8378.718100       0.000004
     8385.744200       0.000009
     8392.782200       0.000017
     8399.832000       0.000027
     8406.893700       0.000042
     8413.967200       0.000061
     8421.052600       0.000084
     8428.150000       0.000113
     8435.259400       0.000147
     8442.380800       0.000188
     8449.514200       0.000235
     8456.659600       0.000289
     8463.817200       0.000351
     8470.986900       0.000420
     8478.168700       0.000498
     8485.362700       0.000584
     8492.569000       0.000678
     8499.787500       0.000782
     8507.018300       0.000896
     8514.261400       0.001019
     8521.516800       0.001153
     8528.784600       0.001296
     8536.064900       0.001451
     8543.357500       0.001617
     8550.662700       0.001793
     8557.980300       0.001982
     8565.310500       0.002182
     8572.653200       0.002394
     8580.008600       0.002618
     8587.376600       0.002855
     8594.757200       0.003104
     8602.150500       0.003367
     8609.556600       0.003642
     8616.975400       0.003931
     8624.407100       0.004233
     8631.851500       0.004549
     8639.308900       0.004878
     8646.779100       0.005222
     8654.262200       0.005580
     8661.758300       0.005952
     8669.267400       0.006339
     8676.789600       0.006741
     8684.324800       0.007157
     8691.873100       0.007589
     8699.434500       0.008035
     8707.009100       0.008497
     8714.596900       0.008975
     8722.198000       0.009468
     8729.812300       0.009976
     8737.439900       0.010501
     8745.080900       0.011041
     8752.735200       0.011598
     8760.403000       0.012171
     8768.084200       0.012760
     8775.778900       0.013366
     8783.487000       0.013989
     8791.208800       0.014628
     8798.944100       0.015284
     8806.693100       0.015957
     8814.455700       0.016648
     8822.232000       0.017355
     8830.022100       0.018080
     8837.825900       0.018822
     8845.643500       0.019582
     8853.475000       0.020360
     8861.320300       0.021155
     8869.179600       0.021968
     8877.052800       0.022799
     8884.940000       0.023649
     8892.841300       0.024516
     8900.756600       0.025402
     8908.686000       0.026306
     8916.629500       0.027229
     8924.587200       0.028170
     8932.559200       0.029131
     8940.545400       0.030110
     8948.545900       0.031108
     8956.560700       0.032125
     8964.589900       0.033161
     8972.633500       0.034216
     8980.691500       0.035291
     8988.764000       0.036385
     8996.851100       0.037499
     9004.952700       0.038633
     9013.068900       0.039786
     9021.199800       0.040959
     9029.345400       0.042152
     9037.505600       0.043365
     9045.680700       0.044598
     9053.870500       0.045852
     9062.075200       0.047126
     9070.294800       0.048420
     9078.529300       0.049735
     9086.778700       0.051070
     9095.043200       0.052427
     9103.322700       0.053804
     9111.617300       0.055202
     9119.927000       0.056620
     9128.251900       0.058061
     9136.592100       0.059522
     9144.947400       0.061005
     9153.318100       0.062509
     9161.704100       0.064034
     9170.105500       0.065581
     9178.522300       0.067150
     9186.954500       0.068740
     9195.402300       0.070352
     9203.865600       0.071986
     9212.344500       0.073643
     9220.839100       0.075321
     9229.349300       0.077021
     9237.875300       0.078744
     9246.417000       0.080489
     9254.974500       0.082256
     9263.547900       0.084046
     9272.137200       0.085858
     9280.742500       0.087693
     9289.363700       0.089550
     9298.000900       0.091430
     9306.654300       0.093334
     9315.323700       0.095260
     9324.009300       0.097209
     9332.711200       0.099181
     9341.429200       0.101175
     9350.163600       0.103194
     9358.914400       0.105235
     9367.681500       0.107300
     9376.465100       0.109387
     9385.265100       0.111498
     9394.081700       0.113633
     9402.914900       0.115791
     9411.764700       0.117973
     9420.631200       0.120178
     9429.514400       0.122406
     9438.414300       0.124658
     9447.331100       0.126934
     9456.264800       0.129233
     9465.215300       0.131556
     9474.182900       0.133903
     9483.167400       0.136274
     9492.169000       0.138668
     9501.187600       0.141086
     9510.223500       0.143528
     9519.276500       0.145993
     9528.346800       0.148482
     9537.434400       0.150996
     9546.539400       0.153532
     9555.661700       0.156093
     9564.801500       0.158677
     9573.958800       0.161286
     9583.133700       0.163918
     9592.326100       0.166573
     9601.536200       0.169253
     9610.764100       0.171956
     9620.009600       0.174683
     9629.273000       0.177434
     9638.554200       0.180208
     9647.853400       0.183006
     9657.170400       0.185827
     9666.505600       0.188672
     9675.858700       0.191540
     9685.230000       0.194431
     9694.619500       0.197347
     9704.027200       0.200285
     9713.453100       0.203246
     9722.897400       0.206231
     9732.360100       0.209239
     9741.841200       0.212269
     9751.340800       0.215323
     9760.859000       0.218399
     9770.395700       0.221499
     9779.951100       0.224621
     9789.525200       0.227765
     9799.118100       0.230932
     9808.729800       0.234121
     9818.360300       0.237333
     9828.009800       0.240567
     9837.678300       0.243823
     9847.365800       0.247101
     9857.072400       0.250400
     9866.798200       0.253721
     9876.543200       0.257064
     9886.307500       0.260428
     9896.091000       0.263813
     9905.894000       0.267220
     9915.716400       0.270647
     9925.558300       0.274095
     9935.419800       0.277564
     9945.300800       0.281054
     9955.201600       0.284563
     9965.122100       0.288093
     9975.062300       0.291643
     9985.022500       0.295212
     9995.002500       0.298802
    10005.002500       0.302410
    10015.022500       0.306038
    10025.062700       0.309685
    10035.122900       0.313351
    10045.203400       0.317035
    10055.304200       0.320738
    10065.425300       0.324459
    10075.566800       0.328198
    10085.728700       0.331954
    10095.911200       0.335729
    10106.114200       0.339520
    10116.337900       0.343329
    10126.582300       0.347154
    10136.847400       0.350996
    10147.133400       0.354855
    10157.440300       0.358729
    10167.768200       0.362620
    10178.117000       0.366526
    10188.487000       0.370447
    10198.878100       0.374383
    10209.290500       0.378334
    10219.724100       0.382300
    10230.179000       0.386280
    10240.655400       0.390274
    10251.153300       0.394281
    10261.672700       0.398302
    10272.213700       0.402336
    10282.776300       0.406383
    10293.360800       0.410442
    10303.967000       0.414513
    10314.595200       0.418597
    10325.245200       0.422692
    10335.917300       0.426798
    10346.611500       0.430915
    10357.327800       0.435043
    10368.066400       0.439181
    10378.827200       0.443329
    10389.610400       0.447486
    10400.416000       0.451653
    10411.244100       0.455829
    10422.094800       0.460014
    10432.968200       0.464207
    10443.864200       0.468408
    10454.783100       0.472616
    10465.724800       0.476832
    10476.689400       0.481054
    10487.677000       0.485283
    10498.687700       0.489519
    10509.721500       0.493760
    10520.778500       0.498006
    10531.858900       0.502258
    10542.962600       0.506514
    10554.089700       0.510775
    10565.240400       0.515040
    10576.414600       0.519308
    10587.612500       0.523579
    10598.834100       0.527854
    10610.079600       0.532131
    10621.348900       0.536410
    10632.642200       0.540690
    10643.959600       0.544972
    10655.301000       0.549255
    10666.666700       0.553539
    10678.056600       0.557822
    10689.470900       0.562105
    10700.909600       0.566388
    10712.372800       0.570670
    10723.860600       0.574950
    10735.373100       0.579228
    10746.910300       0.583504
    10758.472300       0.587778
    10770.059200       0.592048
    10781.671200       0.596315
    10793.308100       0.600578
    10804.970300       0.604837
    10816.657700       0.609091
    10828.370300       0.613340
    10840.108400       0.617584
    10851.871900       0.621822
    10863.661100       0.626053
    10875.475800       0.630278
    10887.316300       0.634496
    10899.182600       0.638706
    10911.074700       0.642908
    10922.992900       0.647102
    10934.937100       0.651287
    10946.907500       0.655463
    10958.904100       0.659630
    10970.927000       0.663787
    10982.976400       0.667933
    10995.052200       0.672069
    11007.154700       0.676193
    11019.283700       0.680306
    11031.439600       0.684407
    11043.622300       0.688495
    11055.832000       0.692571
    11068.068600       0.696633
    11080.332400       0.700682
    11092.623400       0.704717
    11104.941700       0.708738
    11117.287400       0.712744
    11129.660500       0.716734
    11142.061300       0.720709
    11154.489700       0.724669
    11166.945800       0.728611
    11179.429800       0.732537
    11191.941800       0.736447
    11204.481800       0.740338
    11217.049900       0.744212
    11229.646300       0.748067
    11242.270900       0.751904
    11254.924000       0.755722
    11267.605600       0.759520
    11280.315800       0.763299
    11293.054800       0.767057
    11305.822500       0.770795
    11318.619100       0.774513
    11331.444800       0.778209
    11344.299500       0.781883
    11357.183400       0.785535
    11370.096600       0.789166
    11383.039300       0.792773
    11396.011400       0.796358
    11409.013100       0.799919
    11422.044500       0.803457
    11435.105800       0.806971
    11448.196900       0.810460
    11461.318100       0.813925
    11474.469300       0.817364
    11487.650800       0.820779
    11500.862600       0.824168
    11514.104800       0.827531
    11527.377500       0.830867
    11540.680900       0.834177
    11554.015000       0.837460
    11567.380000       0.840716
    11580.775900       0.843945
    11594.202900       0.847146
    11607.661100       0.850318
    11621.150500       0.853463
    11634.671300       0.856579
    11648.223600       0.859666
    11661.807600       0.862724
    11675.423200       0.865752
    11689.070700       0.868751
    11702.750100       0.871720
    11716.461600       0.874658
    11730.205300       0.877567
    11743.981200       0.880444
    11757.789500       0.883291
    11771.630400       0.886106
    11785.503800       0.888890
    11799.410000       0.891643
    11813.349100       0.894364
    11827.321100       0.897052
    11841.326200       0.899709
    11855.364600       0.902333
    11869.436200       0.904924
    11883.541300       0.907483
    11897.680000       0.910008
    11911.852300       0.912501
    11926.058400       0.914960
    11940.298500       0.917385
    11954.572600       0.919777
    11968.880900       0.922135
    11983.223500       0.924459
    11997.600500       0.926748
    12012.012000       0.929004
    12026.458200       0.931225
    12040.939200       0.933411
    12055.455100       0.935563
    12070.006000       0.937680
    12084.592100       0.939762
    12099.213600       0.941808
    12113.870400       0.943820
    12128.562800       0.945796
    12143.290800       0.947738
    12158.054700       0.949643
    12172.854500       0.951513
    12187.690400       0.953348
    12202.562500       0.955147
    12217.471000       0.956910
    12232.415900       0.958638
    12247.397400       0.960329
    12262.415700       0.961985
    12277.470800       0.963605
    12292.563000       0.965189
    12307.692300       0.966737
    12322.858900       0.968250
    12338.062900       0.969726
    12353.304500       0.971166
    12368.583800       0.972570
    12383.900900       0.973938
    12399.256000       0.975271
    12414.649300       0.976567
    12430.080800       0.977828
    12445.550700       0.979052
    12461.059200       0.980241
    12476.606400       0.981394
    12492.192400       0.982511
    12507.817400       0.983592
    12523.481500       0.984638
    12539.185000       0.985648
    12554.927800       0.986623
    12570.710200       0.987563
    12586.532400       0.988467
    12602.394500       0.989335
    12618.296500       0.990169
    12634.238800       0.990968
    12650.221400       0.991731
    12666.244500       0.992460
    12682.308200       0.993155
    12698.412700       0.993814
    12714.558200       0.994439
    12730.744700       0.995030
    12746.972600       0.995587
    12763.241900       0.996110
    12779.552700       0.996599
    12795.905300       0.997054
    12812.299800       0.997476
    12828.736400       0.997865
    12845.215200       0.998220
    12861.736300       0.998543
    12878.300100       0.998832
    12894.906500       0.999090
    12911.555800       0.999314
    12928.248200       0.999507
    12944.983800       0.999668
    12961.762800       0.999797
    12978.585300       0.999894
    12995.451600       0.999960
    13012.361700       0.999996
    13029.316000       1.000000
    13046.314400       0.999974
    13063.357300       0.999918
    13080.444700       0.999831
    13097.576900       0.999715
    13114.754100       0.999569
    13131.976400       0.999394
    13149.243900       0.999190
    13166.556900       0.998958
    13183.915600       0.998697
    13201.320100       0.998408
    13218.770700       0.998091
    13236.267400       0.997747
    13253.810500       0.997375
    13271.400100       0.996977
    13289.036500       0.996552
    13306.719900       0.996101
    13324.450400       0.995624
    13342.228200       0.995121
    13360.053400       0.994593
    13377.926400       0.994040
    13395.847300       0.993462
    13413.816200       0.992860
    13431.833400       0.992234
    13449.899100       0.991585
    13468.013500       0.990912
    13486.176700       0.990217
    13504.388900       0.989499
    13522.650400       0.988759
    13540.961400       0.987997
    13559.322000       0.987214
    13577.732500       0.986409
    13596.193100       0.985584
    13614.703900       0.984739
    13633.265200       0.983873
    13651.877100       0.982989
    13670.540000       0.982085
    13689.253900       0.981162
    13708.019200       0.980221
    13726.836000       0.979262
    13745.704500       0.978286
    13764.624900       0.977292
    13783.597500       0.976281
    13802.622500       0.975254
    13821.700100       0.974212
    13840.830400       0.973153
    13860.013900       0.972080
    13879.250500       0.970991
    13898.540700       0.969889
    13917.884500       0.968772
    13937.282200       0.967642
    13956.734100       0.966499
    13976.240400       0.965343
    13995.801300       0.964175
    14015.417000       0.962995
    14035.087700       0.961804
    14054.813800       0.960601
    14074.595400       0.959388
    14094.432700       0.958165
    14114.326000       0.956932
    14134.275600       0.955690
    14154.281700       0.954439
    14174.344400       0.953179
    14194.464200       0.951912
    14214.641100       0.950636
    14234.875400       0.949354
    14255.167500       0.948064
    14275.517500       0.946768
    14295.925700       0.945467
    14316.392300       0.944159
    14336.917600       0.942847
    14357.501800       0.941529
    14378.145200       0.940208
    14398.848100       0.938882
    14419.610700       0.937553
    14440.433200       0.936221
    14461.316000       0.934886
    14482.259200       0.933549
    14503.263200       0.932210
    14524.328200       0.930870
    14545.454500       0.929529
    14566.642400       0.928186
    14587.892000       0.926844
    14609.203800       0.925502
    14630.577900       0.924160
    14652.014700       0.922819
    14673.514300       0.921479
    14695.077100       0.920141
    14716.703500       0.918805
    14738.393500       0.917471
    14760.147600       0.916141
    14781.966000       0.914813
    14803.849000       0.913489
    14825.796900       0.912168
    14847.809900       0.910852
    14869.888500       0.909541
    14892.032800       0.908234
    14914.243100       0.906933
    14936.519800       0.905637
    14958.863100       0.904348
    14981.273400       0.903064
    15003.750900       0.901787
    15026.296000       0.900518
    15048.909000       0.899255
    15071.590100       0.898000
    15094.339600       0.896753
    15117.158000       0.895514
    15140.045400       0.894283
    15163.002300       0.893061
    15186.028900       0.891849
    15209.125500       0.890645
    15232.292500       0.889452
    15255.530100       0.888268
    15278.838800       0.887094
    15302.218800       0.885931
    15325.670500       0.884778
    15349.194200       0.883636
    15372.790200       0.882506
    15396.458800       0.881387
    15420.200500       0.880279
    15444.015400       0.879183
    15467.904100       0.878100
    15491.866800       0.877028
    15515.903800       0.875969
    15540.015500       0.874922
    15564.202300       0.873889
    15588.464500       0.872868
    15612.802500       0.871861
    15637.216600       0.870867
    15661.707100       0.869886
    15686.274500       0.868919
    15710.919100       0.867965
    15735.641200       0.867026
    15760.441300       0.866101
    15785.319700       0.865189
    15810.276700       0.864292
    15835.312700       0.863410
    15860.428200       0.862541
    15885.623500       0.861688
    15910.899000       0.860849
    15936.255000       0.860024
    15961.691900       0.859214
    15987.210200       0.858419
    16012.810200       0.857639
    16038.492400       0.856874
    16064.257000       0.856123
    16090.104600       0.855387
    16116.035500       0.854667
    16142.050000       0.853961
    16168.148700       0.853269
    16194.332000       0.852593
    16220.600200       0.851932
    16246.953700       0.851285
    16273.393000       0.850653
    16299.918500       0.850035
    16326.530600       0.849432
    16353.229800       0.848844
    16380.016400       0.848270
    16406.890900       0.847710
    16433.853700       0.847165
    16460.905300       0.846633
    16488.046200       0.846116
    16515.276600       0.845612
    16542.597200       0.845122
    16570.008300       0.844645
    16597.510400       0.844182
    16625.103900       0.843732
    16652.789300       0.843295
    16680.567100       0.842870
    16708.437800       0.842459
    16736.401700       0.842059
    16764.459300       0.841671
    16792.611300       0.841296
    16820.857900       0.840932
    16849.199700       0.840579
    16877.637100       0.840237
    16906.170800       0.839907
    16934.801000       0.839586
    16963.528400       0.839276
    16992.353400       0.838976
    17021.276600       0.838685
    17050.298400       0.838404
    17079.419300       0.838131
    17108.639900       0.837867
    17137.960600       0.837611
    17167.382000       0.837363
    17196.904600       0.837123
    17226.528900       0.836889
    17256.255400       0.836662
    17286.084700       0.836441
