10,   from EPIC Filters Original Data.xlsx (col 28) Deep Space Climate Observatory (December 2019)
Number of data points:
301
Wavenumber (cm-1)   Filter response
    12787.560300       0.231660
    12787.887300       0.235320
    12788.214400       0.239490
    12788.541500       0.243950
    12788.868600       0.248150
    12789.195700       0.253750
    12789.522800       0.257770
    12789.850000       0.261360
    12790.177100       0.267660
    12790.504300       0.275190
    12790.831500       0.281030
    12791.158800       0.286080
    12791.486000       0.290390
    12791.813200       0.298090
    12792.140500       0.303330
    12792.467800       0.308890
    12792.795100       0.316470
    12793.122400       0.321980
    12793.449800       0.334240
    12793.777100       0.343690
    12794.104500       0.350930
    12794.431900       0.358110
    12794.759300       0.367930
    12795.086700       0.377600
    12795.414100       0.389250
    12795.741600       0.398390
    12796.069000       0.407230
    12796.396500       0.419350
    12796.724000       0.432810
    12797.051600       0.448610
    12797.379100       0.460770
    12797.706700       0.474120
    12798.034200       0.487960
    12798.361800       0.505880
    12798.689400       0.520110
    12799.017000       0.538250
    12799.344700       0.560900
    12799.672300       0.581620
    12800.000000       0.606810
    12800.327700       0.640280
    12800.655400       0.662070
    12800.983100       0.686990
    12801.310900       0.721800
    12801.638600       0.752600
    12801.966400       0.788880
    12802.458100       0.814280
    12802.785900       0.861130
    12803.113700       0.905080
    12803.441600       0.950680
    12803.769400       1.021450
    12804.097300       1.072360
    12804.425200       1.137710
    12804.753100       1.217170
    12805.081100       1.293260
    12805.409000       1.397450
    12805.737000       1.465950
    12806.065000       1.561890
    12806.393000       1.666270
    12806.721000       1.803600
    12807.049000       1.941160
    12807.377000       2.080920
    12807.705100       2.262640
    12808.033200       2.424910
    12808.361300       2.671690
    12808.689400       2.885780
    12809.017500       3.123700
    12809.345700       3.432960
    12809.673900       3.746130
    12810.002000       4.196300
    12810.330300       4.694790
    12810.658500       5.121130
    12810.986700       5.636800
    12811.315000       6.131890
    12811.643200       6.824370
    12811.971500       7.500660
    12812.299800       8.201120
    12812.628100       8.907790
    12812.956500       9.927320
    12813.284800      11.080030
    12813.613200      12.597480
    12813.941600      13.868520
    12814.270000      15.395810
    12814.598400      16.925630
    12814.926800      19.117420
    12815.255300      20.834940
    12815.583700      22.737770
    12815.912200      24.692190
    12816.240700      26.918680
    12816.569300      29.903770
    12816.897800      32.589430
    12817.226400      35.245650
    12817.554900      37.931890
    12817.883500      41.013720
    12818.212100      44.251040
    12818.540700      47.839790
    12818.869400      50.628320
    12819.198000      53.720590
    12819.526700      56.728460
    12819.855400      60.141110
    12820.184100      63.934750
    12820.512800      66.608770
    12820.841600      69.497790
    12821.170300      71.979490
    12821.499100      74.671460
    12821.827900      76.944700
    12822.156700      78.698370
    12822.485500      80.887640
    12822.814400      82.744330
    12823.143200      84.645100
    12823.472100      86.248930
    12823.801000      87.342650
    12824.129900      88.502390
    12824.458800      89.338040
    12824.787700      90.262620
    12825.116700      90.818080
    12825.445700      91.266800
    12825.774700      91.652650
    12826.103700      91.896270
    12826.432700      92.171570
    12826.761800      92.187200
    12827.090800      92.266250
    12827.419900      92.243770
    12827.749000      92.205240
    12828.078100      92.051890
    12828.407200      91.952250
    12828.736400      91.862340
    12829.065500      91.697460
    12829.394700      91.601430
    12829.723900      91.385220
    12830.053100      91.204430
    12830.382300      91.023730
    12830.711600      90.867020
    12831.040900      90.787690
    12831.370100      90.681800
    12831.699400      90.590310
    12832.028700      90.513340
    12832.358100      90.587280
    12832.687400      90.559870
    12833.016800      90.560800
    12833.346200      90.585650
    12833.675600      90.554990
    12834.005000      90.623200
    12834.334400      90.775490
    12834.663900      90.935750
    12834.993300      91.109780
    12835.322800      91.293520
    12835.652300      91.326120
    12835.981800      91.505500
    12836.311400      91.674940
    12836.640900      91.898320
    12836.970500      92.034830
    12837.300100      92.078050
    12837.629700      92.227640
    12837.959300      92.344080
    12838.288900      92.462590
    12838.618600      92.491330
    12838.948200      92.527760
    12839.277900      92.519470
    12839.607600      92.328750
    12839.937300      92.186080
    12840.267100      91.982110
    12840.596800      91.681480
    12840.926600      91.327670
    12841.256400      90.872350
    12841.586200      90.338240
    12841.916000      89.909340
    12842.245900      89.050210
    12842.575700      88.169120
    12842.905600      87.070160
    12843.235500      86.024650
    12843.565400      84.717960
    12843.895300      83.355760
    12844.225200      81.676500
    12844.555200      79.594490
    12844.885200      77.608430
    12845.215200      75.533510
    12845.545200      72.714470
    12845.875200      70.354020
    12846.205200      66.921010
    12846.535300      63.894040
    12846.865400      61.340710
    12847.195500      58.002600
    12847.525600      54.986730
    12847.855700      51.487070
    12848.185800      47.926590
    12848.516000      44.875650
    12848.846200      41.577430
    12849.176400      38.187510
    12849.506600      34.411580
    12849.836800      30.827070
    12850.167100      28.336270
    12850.497300      25.722470
    12850.827600      23.285020
    12851.157900      20.720090
    12851.488200      18.529510
    12851.818500      16.795320
    12852.148900      15.117530
    12852.479200      13.487480
    12852.809600      11.859310
    12853.140000      10.583040
    12853.470400       9.406830
    12853.800900       8.503630
    12854.131300       7.607860
    12854.461800       6.749570
    12854.792300       6.072400
    12855.122800       5.474880
    12855.453300       4.842130
    12855.783800       4.416060
    12856.114400       3.862660
    12856.444900       3.465410
    12856.775500       3.195830
    12857.106100       2.913640
    12857.436700       2.692860
    12857.767400       2.441310
    12858.098000       2.243890
    12858.428700       2.066440
    12858.759400       1.892400
    12859.090100       1.756860
    12859.420800       1.605130
    12859.751500       1.471360
    12860.082300       1.378360
    12860.413100       1.284300
    12860.743900       1.208660
    12861.074700       1.132270
    12861.405500       1.066800
    12861.736300       1.009480
    12862.067200       0.953280
    12862.398100       0.903000
    12862.729000       0.855400
    12863.059900       0.804610
    12863.390800       0.774770
    12863.721700       0.737600
    12864.052700       0.710300
    12864.383700       0.677950
    12864.714700       0.648210
    12865.045700       0.622500
    12865.376700       0.598140
    12865.707700       0.579920
    12866.038800       0.553110
    12866.369900       0.530480
    12866.701000       0.514590
    12867.032100       0.498320
    12867.363200       0.486080
    12867.694400       0.468720
    12868.025500       0.454360
    12868.356700       0.444430
    12868.687900       0.430300
    12869.019100       0.420940
    12869.350400       0.406250
    12869.681600       0.392940
    12870.012900       0.385020
    12870.344200       0.375130
    12870.675500       0.365970
    12871.006800       0.355400
    12871.338100       0.346500
    12871.669500       0.339750
    12872.000800       0.330000
    12872.332200       0.323890
    12872.663600       0.314610
    12872.995000       0.307310
    12873.326500       0.302640
    12873.657900       0.294740
    12873.989400       0.288910
    12874.320900       0.282930
    12874.652400       0.277850
    12874.983900       0.272020
    12875.315400       0.266980
    12875.647000       0.261990
    12875.978600       0.254250
    12876.310200       0.248640
    12876.641800       0.245720
    12876.973400       0.238960
    12877.305000       0.235950
    12877.636700       0.230280
    12877.968400       0.226390
    12878.300100       0.223620
    12878.631800       0.220390
    12878.963500       0.216880
    12879.295200       0.210680
    12879.627000       0.208170
    12879.958800       0.204680
    12880.290600       0.200330
    12880.622400       0.196610
    12880.954200       0.195870
    12881.286100       0.190700
    12881.617900       0.189260
    12881.949800       0.185190
    12882.281700       0.183680
    12882.613600       0.179940
    12882.945600       0.176960
    12883.277500       0.174150
    12883.609500       0.171810
    12883.941500       0.170000
    12884.273500       0.166720
    12884.605500       0.163400
    12884.937500       0.162980
    12885.269600       0.161740
    12885.601600       0.157880
    12885.933700       0.156820
    12886.265800       0.152980
    12886.597900       0.152910
