60,   60, MVIRI VIS channel from srf_MET2_1989213_1989214_1801-Release_S10EL_10.dat
Number of data points:
730
Wavenumber (cm-1)   Filter response
     8916.629500       0.000000
     8924.587200       0.000000
     8932.559200       0.000002
     8940.545400       0.000012
     8948.545900       0.000032
     8956.560700       0.000070
     8964.589900       0.000127
     8972.633500       0.000210
     8980.691500       0.000321
     8988.764000       0.000466
     8996.851100       0.000646
     9004.952700       0.000866
     9013.068900       0.001130
     9021.199800       0.001440
     9029.345400       0.001800
     9037.505600       0.002213
     9045.680700       0.002680
     9053.870500       0.003206
     9062.075200       0.003792
     9070.294800       0.004441
     9078.529300       0.005155
     9086.778700       0.005936
     9095.043200       0.006787
     9103.322700       0.007708
     9111.617300       0.008703
     9119.927000       0.009771
     9128.251900       0.010916
     9136.592100       0.012138
     9144.947400       0.013439
     9153.318100       0.014820
     9161.704100       0.016282
     9170.105500       0.017826
     9178.522300       0.019453
     9186.954500       0.021164
     9195.402300       0.022959
     9203.865600       0.024839
     9212.344500       0.026805
     9220.839100       0.028858
     9229.349300       0.030996
     9237.875300       0.033222
     9246.417000       0.035534
     9254.974500       0.037935
     9263.547900       0.040422
     9272.137200       0.042996
     9280.742500       0.045659
     9289.363700       0.048408
     9298.000900       0.051244
     9306.654300       0.054167
     9315.323700       0.057176
     9324.009300       0.060272
     9332.711200       0.063453
     9341.429200       0.066719
     9350.163600       0.070071
     9358.914400       0.073506
     9367.681500       0.077025
     9376.465100       0.080626
     9385.265100       0.084310
     9394.081700       0.088075
     9402.914900       0.091920
     9411.764700       0.095846
     9420.631200       0.099850
     9429.514400       0.103932
     9438.414300       0.108091
     9447.331100       0.112326
     9456.264800       0.116636
     9465.215300       0.121021
     9474.182900       0.125477
     9483.167400       0.130006
     9492.169000       0.134605
     9501.187600       0.139274
     9510.223500       0.144011
     9519.276500       0.148814
     9528.346800       0.153684
     9537.434400       0.158619
     9546.539400       0.163616
     9555.661700       0.168676
     9564.801500       0.173796
     9573.958800       0.178976
     9583.133700       0.184215
     9592.326100       0.189509
     9601.536200       0.194859
     9610.764100       0.200263
     9620.009600       0.205719
     9629.273000       0.211227
     9638.554200       0.216785
     9647.853400       0.222391
     9657.170400       0.228043
     9666.505600       0.233742
     9675.858700       0.239485
     9685.230000       0.245270
     9694.619500       0.251096
     9704.027200       0.256962
     9713.453100       0.262867
     9722.897400       0.268809
     9732.360100       0.274785
     9741.841200       0.280797
     9751.340800       0.286840
     9760.859000       0.292914
     9770.395700       0.299019
     9779.951100       0.305151
     9789.525200       0.311311
     9799.118100       0.317496
     9808.729800       0.323704
     9818.360300       0.329935
     9828.009800       0.336187
     9837.678300       0.342459
     9847.365800       0.348750
     9857.072400       0.355056
     9866.798200       0.361379
     9876.543200       0.367715
     9886.307500       0.374065
     9896.091000       0.380426
     9905.894000       0.386796
     9915.716400       0.393176
     9925.558300       0.399562
     9935.419800       0.405955
     9945.300800       0.412353
     9955.201600       0.418753
     9965.122100       0.425157
     9975.062300       0.431560
     9985.022500       0.437964
     9995.002500       0.444366
    10005.002500       0.450765
    10015.022500       0.457159
    10025.062700       0.463548
    10035.122900       0.469931
    10045.203400       0.476306
    10055.304200       0.482672
    10065.425300       0.489028
    10075.566800       0.495373
    10085.728700       0.501705
    10095.911200       0.508024
    10106.114200       0.514329
    10116.337900       0.520618
    10126.582300       0.526890
    10136.847400       0.533144
    10147.133400       0.539380
    10157.440300       0.545596
    10167.768200       0.551791
    10178.117000       0.557964
    10188.487000       0.564114
    10198.878100       0.570241
    10209.290500       0.576343
    10219.724100       0.582420
    10230.179000       0.588470
    10240.655400       0.594493
    10251.153300       0.600488
    10261.672700       0.606453
    10272.213700       0.612389
    10282.776300       0.618294
    10293.360800       0.624167
    10303.967000       0.630008
    10314.595200       0.635816
    10325.245200       0.641591
    10335.917300       0.647331
    10346.611500       0.653035
    10357.327800       0.658703
    10368.066400       0.664335
    10378.827200       0.669929
    10389.610400       0.675486
    10400.416000       0.681004
    10411.244100       0.686482
    10422.094800       0.691921
    10432.968200       0.697319
    10443.864200       0.702677
    10454.783100       0.707992
    10465.724800       0.713266
    10476.689400       0.718497
    10487.677000       0.723686
    10498.687700       0.728830
    10509.721500       0.733930
    10520.778500       0.738986
    10531.858900       0.743997
    10542.962600       0.748963
    10554.089700       0.753883
    10565.240400       0.758756
    10576.414600       0.763583
    10587.612500       0.768363
    10598.834100       0.773096
    10610.079600       0.777782
    10621.348900       0.782419
    10632.642200       0.787008
    10643.959600       0.791549
    10655.301000       0.796041
    10666.666700       0.800483
    10678.056600       0.804877
    10689.470900       0.809221
    10700.909600       0.813515
    10712.372800       0.817760
    10723.860600       0.821954
    10735.373100       0.826098
    10746.910300       0.830191
    10758.472300       0.834234
    10770.059200       0.838226
    10781.671200       0.842167
    10793.308100       0.846057
    10804.970300       0.849896
    10816.657700       0.853684
    10828.370300       0.857420
    10840.108400       0.861105
    10851.871900       0.864739
    10863.661100       0.868321
    10875.475800       0.871852
    10887.316300       0.875331
    10899.182600       0.878759
    10911.074700       0.882136
    10922.992900       0.885460
    10934.937100       0.888734
    10946.907500       0.891955
    10958.904100       0.895126
    10970.927000       0.898245
    10982.976400       0.901313
    10995.052200       0.904330
    11007.154700       0.907295
    11019.283700       0.910210
    11031.439600       0.913073
    11043.622300       0.915886
    11055.832000       0.918648
    11068.068600       0.921359
    11080.332400       0.924020
    11092.623400       0.926631
    11104.941700       0.929191
    11117.287400       0.931701
    11129.660500       0.934162
    11142.061300       0.936573
    11154.489700       0.938934
    11166.945800       0.941246
    11179.429800       0.943509
    11191.941800       0.945723
    11204.481800       0.947888
    11217.049900       0.950005
    11229.646300       0.952074
    11242.270900       0.954094
    11254.924000       0.956067
    11267.605600       0.957991
    11280.315800       0.959869
    11293.054800       0.961699
    11305.822500       0.963483
    11318.619100       0.965220
    11331.444800       0.966911
    11344.299500       0.968555
    11357.183400       0.970154
    11370.096600       0.971707
    11383.039300       0.973215
    11396.011400       0.974678
    11409.013100       0.976096
    11422.044500       0.977470
    11435.105800       0.978800
    11448.196900       0.980085
    11461.318100       0.981328
    11474.469300       0.982527
    11487.650800       0.983683
    11500.862600       0.984796
    11514.104800       0.985868
    11527.377500       0.986897
    11540.680900       0.987885
    11554.015000       0.988831
    11567.380000       0.989736
    11580.775900       0.990601
    11594.202900       0.991425
    11607.661100       0.992209
    11621.150500       0.992953
    11634.671300       0.993658
    11648.223600       0.994323
    11661.807600       0.994950
    11675.423200       0.995539
    11689.070700       0.996089
    11702.750100       0.996602
    11716.461600       0.997077
    11730.205300       0.997516
    11743.981200       0.997917
    11757.789500       0.998282
    11771.630400       0.998611
    11785.503800       0.998904
    11799.410000       0.999161
    11813.349100       0.999384
    11827.321100       0.999571
    11841.326200       0.999725
    11855.364600       0.999844
    11869.436200       0.999929
    11883.541300       0.999981
    11897.680000       1.000000
    11911.852300       0.999986
    11926.058400       0.999940
    11940.298500       0.999861
    11954.572600       0.999751
    11968.880900       0.999609
    11983.223500       0.999436
    11997.600500       0.999232
    12012.012000       0.998997
    12026.458200       0.998733
    12040.939200       0.998438
    12055.455100       0.998114
    12070.006000       0.997761
    12084.592100       0.997379
    12099.213600       0.996968
    12113.870400       0.996529
    12128.562800       0.996061
    12143.290800       0.995566
    12158.054700       0.995044
    12172.854500       0.994495
    12187.690400       0.993918
    12202.562500       0.993316
    12217.471000       0.992687
    12232.415900       0.992032
    12247.397400       0.991351
    12262.415700       0.990645
    12277.470800       0.989914
    12292.563000       0.989158
    12307.692300       0.988378
    12322.858900       0.987573
    12338.062900       0.986744
    12353.304500       0.985892
    12368.583800       0.985016
    12383.900900       0.984117
    12399.256000       0.983195
    12414.649300       0.982251
    12430.080800       0.981284
    12445.550700       0.980295
    12461.059200       0.979284
    12476.606400       0.978251
    12492.192400       0.977197
    12507.817400       0.976122
    12523.481500       0.975026
    12539.185000       0.973909
    12554.927800       0.972772
    12570.710200       0.971615
    12586.532400       0.970437
    12602.394500       0.969240
    12618.296500       0.968023
    12634.238800       0.966787
    12650.221400       0.965532
    12666.244500       0.964258
    12682.308200       0.962965
    12698.412700       0.961653
    12714.558200       0.960324
    12730.744700       0.958976
    12746.972600       0.957610
    12763.241900       0.956227
    12779.552700       0.954826
    12795.905300       0.953408
    12812.299800       0.951972
    12828.736400       0.950520
    12845.215200       0.949051
    12861.736300       0.947565
    12878.300100       0.946063
    12894.906500       0.944544
    12911.555800       0.943010
    12928.248200       0.941459
    12944.983800       0.939893
    12961.762800       0.938311
    12978.585300       0.936714
    12995.451600       0.935101
    13012.361700       0.933473
    13029.316000       0.931831
    13046.314400       0.930173
    13063.357300       0.928501
    13080.444700       0.926814
    13097.576900       0.925113
    13114.754100       0.923397
    13131.976400       0.921667
    13149.243900       0.919923
    13166.556900       0.918166
    13183.915600       0.916394
    13201.320100       0.914609
    13218.770700       0.912810
    13236.267400       0.910998
    13253.810500       0.909172
    13271.400100       0.907334
    13289.036500       0.905482
    13306.719900       0.903617
    13324.450400       0.901740
    13342.228200       0.899850
    13360.053400       0.897947
    13377.926400       0.896031
    13395.847300       0.894103
    13413.816200       0.892163
    13431.833400       0.890211
    13449.899100       0.888246
    13468.013500       0.886270
    13486.176700       0.884281
    13504.388900       0.882280
    13522.650400       0.880268
    13540.961400       0.878244
    13559.322000       0.876209
    13577.732500       0.874162
    13596.193100       0.872103
    13614.703900       0.870033
    13633.265200       0.867952
    13651.877100       0.865860
    13670.540000       0.863756
    13689.253900       0.861641
    13708.019200       0.859516
    13726.836000       0.857380
    13745.704500       0.855233
    13764.624900       0.853075
    13783.597500       0.850906
    13802.622500       0.848727
    13821.700100       0.846537
    13840.830400       0.844337
    13860.013900       0.842126
    13879.250500       0.839906
    13898.540700       0.837675
    13917.884500       0.835433
    13937.282200       0.833182
    13956.734100       0.830920
    13976.240400       0.828649
    13995.801300       0.826368
    14015.417000       0.824077
    14035.087700       0.821776
    14054.813800       0.819465
    14074.595400       0.817145
    14094.432700       0.814815
    14114.326000       0.812475
    14134.275600       0.810127
    14154.281700       0.807768
    14174.344400       0.805401
    14194.464200       0.803024
    14214.641100       0.800638
    14234.875400       0.798243
    14255.167500       0.795839
    14275.517500       0.793426
    14295.925700       0.791004
    14316.392300       0.788573
    14336.917600       0.786133
    14357.501800       0.783685
    14378.145200       0.781228
    14398.848100       0.778762
    14419.610700       0.776288
    14440.433200       0.773805
    14461.316000       0.771314
    14482.259200       0.768815
    14503.263200       0.766307
    14524.328200       0.763792
    14545.454500       0.761268
    14566.642400       0.758736
    14587.892000       0.756197
    14609.203800       0.753649
    14630.577900       0.751094
    14652.014700       0.748531
    14673.514300       0.745960
    14695.077100       0.743382
    14716.703500       0.740797
    14738.393500       0.738204
    14760.147600       0.735604
    14781.966000       0.732996
    14803.849000       0.730381
    14825.796900       0.727760
    14847.809900       0.725131
    14869.888500       0.722496
    14892.032800       0.719854
    14914.243100       0.717205
    14936.519800       0.714549
    14958.863100       0.711888
    14981.273400       0.709219
    15003.750900       0.706544
    15026.296000       0.703864
    15048.909000       0.701177
    15071.590100       0.698484
    15094.339600       0.695785
    15117.158000       0.693080
    15140.045400       0.690370
    15163.002300       0.687654
    15186.028900       0.684932
    15209.125500       0.682206
    15232.292500       0.679473
    15255.530100       0.676736
    15278.838800       0.673994
    15302.218800       0.671247
    15325.670500       0.668494
    15349.194200       0.665738
    15372.790200       0.662976
    15396.458800       0.660210
    15420.200500       0.657440
    15444.015400       0.654665
    15467.904100       0.651887
    15491.866800       0.649104
    15515.903800       0.646318
    15540.015500       0.643527
    15564.202300       0.640734
    15588.464500       0.637936
    15612.802500       0.635135
    15637.216600       0.632332
    15661.707100       0.629524
    15686.274500       0.626714
    15710.919100       0.623901
    15735.641200       0.621086
    15760.441300       0.618268
    15785.319700       0.615447
    15810.276700       0.612624
    15835.312700       0.609799
    15860.428200       0.606972
    15885.623500       0.604143
    15910.899000       0.601312
    15936.255000       0.598479
    15961.691900       0.595646
    15987.210200       0.592810
    16012.810200       0.589974
    16038.492400       0.587137
    16064.257000       0.584298
    16090.104600       0.581459
    16116.035500       0.578620
    16142.050000       0.575780
    16168.148700       0.572939
    16194.332000       0.570099
    16220.600200       0.567258
    16246.953700       0.564418
    16273.393000       0.561578
    16299.918500       0.558738
    16326.530600       0.555899
    16353.229800       0.553061
    16380.016400       0.550223
    16406.890900       0.547387
    16433.853700       0.544552
    16460.905300       0.541718
    16488.046200       0.538886
    16515.276600       0.536055
    16542.597200       0.533226
    16570.008300       0.530399
    16597.510400       0.527574
    16625.103900       0.524751
    16652.789300       0.521931
    16680.567100       0.519113
    16708.437800       0.516298
    16736.401700       0.513486
    16764.459300       0.510677
    16792.611300       0.507870
    16820.857900       0.505068
    16849.199700       0.502268
    16877.637100       0.499472
    16906.170800       0.496680
    16934.801000       0.493891
    16963.528400       0.491107
    16992.353400       0.488327
    17021.276600       0.485550
    17050.298400       0.482779
    17079.419300       0.480012
    17108.639900       0.477249
    17137.960600       0.474492
    17167.382000       0.471739
    17196.904600       0.468991
    17226.528900       0.466249
    17256.255400       0.463511
    17286.084700       0.460780
    17316.017300       0.458053
    17346.053800       0.455333
    17376.194600       0.452618
    17406.440400       0.449910
    17436.791600       0.447207
    17467.248900       0.444510
    17497.812800       0.441820
    17528.483800       0.439136
    17559.262500       0.436459
    17590.149500       0.433788
    17621.145400       0.431124
    17652.250700       0.428467
    17683.466000       0.425816
    17714.791900       0.423173
    17746.228900       0.420536
    17777.777800       0.417907
    17809.439000       0.415285
    17841.213200       0.412671
    17873.101000       0.410064
    17905.103000       0.407464
    17937.219700       0.404872
    17969.451900       0.402288
    18001.800200       0.399711
    18034.265100       0.397142
    18066.847300       0.394581
    18099.547500       0.392028
    18132.366300       0.389483
    18165.304300       0.386946
    18198.362100       0.384417
    18231.540600       0.381896
    18264.840200       0.379384
    18298.261700       0.376879
    18331.805700       0.374383
    18365.472900       0.371895
    18399.264000       0.369416
    18433.179700       0.366944
    18467.220700       0.364481
    18501.387600       0.362027
    18535.681200       0.359581
    18570.102100       0.357143
    18604.651200       0.354714
    18639.329000       0.352293
    18674.136300       0.349881
    18709.073900       0.347477
    18744.142500       0.345081
    18779.342700       0.342694
    18814.675400       0.340315
    18850.141400       0.337945
    18885.741300       0.335583
    18921.475900       0.333229
    18957.346000       0.330883
    18993.352300       0.328546
    19029.495700       0.326217
    19065.776900       0.323896
    19102.196800       0.321583
    19138.756000       0.319278
    19175.455400       0.316981
    19212.295900       0.314692
    19249.278200       0.312411
    19286.403100       0.310138
    19323.671500       0.307872
    19361.084200       0.305615
    19398.642100       0.303364
    19436.346000       0.301121
    19474.196700       0.298886
    19512.195100       0.296658
    19550.342100       0.294437
    19588.638600       0.292223
    19627.085400       0.290016
    19665.683400       0.287815
    19704.433500       0.285622
    19743.336600       0.283435
    19782.393700       0.281255
    19821.605600       0.279081
    19860.973200       0.276914
    19900.497500       0.274752
