4,   4, MVIRI VIS channel from srf_MET2_1982213_1982214_1801-Release_S10EL_10.dat
Number of data points:
730
Wavenumber (cm-1)   Filter response
     8916.629500       0.000000
     8924.587200       0.000000
     8932.559200       0.000002
     8940.545400       0.000011
     8948.545900       0.000032
     8956.560700       0.000068
     8964.589900       0.000124
     8972.633500       0.000205
     8980.691500       0.000313
     8988.764000       0.000454
     8996.851100       0.000630
     9004.952700       0.000845
     9013.068900       0.001102
     9021.199800       0.001405
     9029.345400       0.001756
     9037.505600       0.002159
     9045.680700       0.002615
     9053.870500       0.003128
     9062.075200       0.003700
     9070.294800       0.004333
     9078.529300       0.005030
     9086.778700       0.005793
     9095.043200       0.006623
     9103.322700       0.007523
     9111.617300       0.008494
     9119.927000       0.009537
     9128.251900       0.010655
     9136.592100       0.011849
     9144.947400       0.013119
     9153.318100       0.014468
     9161.704100       0.015896
     9170.105500       0.017404
     9178.522300       0.018993
     9186.954500       0.020664
     9195.402300       0.022418
     9203.865600       0.024255
     9212.344500       0.026177
     9220.839100       0.028182
     9229.349300       0.030273
     9237.875300       0.032448
     9246.417000       0.034708
     9254.974500       0.037054
     9263.547900       0.039486
     9272.137200       0.042003
     9280.742500       0.044606
     9289.363700       0.047294
     9298.000900       0.050068
     9306.654300       0.052927
     9315.323700       0.055870
     9324.009300       0.058898
     9332.711200       0.062011
     9341.429200       0.065206
     9350.163600       0.068485
     9358.914400       0.071846
     9367.681500       0.075290
     9376.465100       0.078815
     9385.265100       0.082420
     9394.081700       0.086106
     9402.914900       0.089870
     9411.764700       0.093713
     9420.631200       0.097634
     9429.514400       0.101631
     9438.414300       0.105704
     9447.331100       0.109851
     9456.264800       0.114073
     9465.215300       0.118368
     9474.182900       0.122734
     9483.167400       0.127171
     9492.169000       0.131677
     9501.187600       0.136252
     9510.223500       0.140895
     9519.276500       0.145603
     9528.346800       0.150377
     9537.434400       0.155215
     9546.539400       0.160115
     9555.661700       0.165076
     9564.801500       0.170097
     9573.958800       0.175178
     9583.133700       0.180316
     9592.326100       0.185510
     9601.536200       0.190759
     9610.764100       0.196061
     9620.009600       0.201416
     9629.273000       0.206821
     9638.554200       0.212276
     9647.853400       0.217779
     9657.170400       0.223329
     9666.505600       0.228924
     9675.858700       0.234564
     9685.230000       0.240245
     9694.619500       0.245969
     9704.027200       0.251731
     9713.453100       0.257532
     9722.897400       0.263371
     9732.360100       0.269244
     9741.841200       0.275153
     9751.340800       0.281093
     9760.859000       0.287065
     9770.395700       0.293068
     9779.951100       0.299098
     9789.525200       0.305156
     9799.118100       0.311240
     9808.729800       0.317348
     9818.360300       0.323479
     9828.009800       0.329631
     9837.678300       0.335804
     9847.365800       0.341997
     9857.072400       0.348205
     9866.798200       0.354431
     9876.543200       0.360671
     9886.307500       0.366925
     9896.091000       0.373192
     9905.894000       0.379468
     9915.716400       0.385755
     9925.558300       0.392049
     9935.419800       0.398351
     9945.300800       0.404659
     9955.201600       0.410970
     9965.122100       0.417285
     9975.062300       0.423601
     9985.022500       0.429919
     9995.002500       0.436236
    10005.002500       0.442551
    10015.022500       0.448863
    10025.062700       0.455171
    10035.122900       0.461474
    10045.203400       0.467770
    10055.304200       0.474059
    10065.425300       0.480339
    10075.566800       0.486609
    10085.728700       0.492867
    10095.911200       0.499115
    10106.114200       0.505349
    10116.337900       0.511568
    10126.582300       0.517772
    10136.847400       0.523961
    10147.133400       0.530132
    10157.440300       0.536284
    10167.768200       0.542418
    10178.117000       0.548531
    10188.487000       0.554623
    10198.878100       0.560693
    10209.290500       0.566740
    10219.724100       0.572763
    10230.179000       0.578762
    10240.655400       0.584735
    10251.153300       0.590681
    10261.672700       0.596599
    10272.213700       0.602490
    10282.776300       0.608352
    10293.360800       0.614184
    10303.967000       0.619985
    10314.595200       0.625755
    10325.245200       0.631493
    10335.917300       0.637199
    10346.611500       0.642870
    10357.327800       0.648508
    10368.066400       0.654111
    10378.827200       0.659678
    10389.610400       0.665210
    10400.416000       0.670704
    10411.244100       0.676161
    10422.094800       0.681580
    10432.968200       0.686961
    10443.864200       0.692302
    10454.783100       0.697604
    10465.724800       0.702866
    10476.689400       0.708087
    10487.677000       0.713267
    10498.687700       0.718405
    10509.721500       0.723501
    10520.778500       0.728554
    10531.858900       0.733565
    10542.962600       0.738532
    10554.089700       0.743455
    10565.240400       0.748334
    10576.414600       0.753168
    10587.612500       0.757957
    10598.834100       0.762701
    10610.079600       0.767399
    10621.348900       0.772051
    10632.642200       0.776657
    10643.959600       0.781216
    10655.301000       0.785729
    10666.666700       0.790194
    10678.056600       0.794612
    10689.470900       0.798982
    10700.909600       0.803305
    10712.372800       0.807579
    10723.860600       0.811805
    10735.373100       0.815983
    10746.910300       0.820112
    10758.472300       0.824193
    10770.059200       0.828224
    10781.671200       0.832207
    10793.308100       0.836140
    10804.970300       0.840024
    10816.657700       0.843859
    10828.370300       0.847644
    10840.108400       0.851380
    10851.871900       0.855066
    10863.661100       0.858702
    10875.475800       0.862289
    10887.316300       0.865826
    10899.182600       0.869314
    10911.074700       0.872752
    10922.992900       0.876139
    10934.937100       0.879478
    10946.907500       0.882766
    10958.904100       0.886005
    10970.927000       0.889194
    10982.976400       0.892334
    10995.052200       0.895424
    11007.154700       0.898465
    11019.283700       0.901456
    11031.439600       0.904399
    11043.622300       0.907291
    11055.832000       0.910135
    11068.068600       0.912930
    11080.332400       0.915676
    11092.623400       0.918374
    11104.941700       0.921023
    11117.287400       0.923623
    11129.660500       0.926175
    11142.061300       0.928679
    11154.489700       0.931135
    11166.945800       0.933544
    11179.429800       0.935904
    11191.941800       0.938218
    11204.481800       0.940484
    11217.049900       0.942703
    11229.646300       0.944875
    11242.270900       0.947000
    11254.924000       0.949080
    11267.605600       0.951113
    11280.315800       0.953100
    11293.054800       0.955041
    11305.822500       0.956937
    11318.619100       0.958788
    11331.444800       0.960594
    11344.299500       0.962355
    11357.183400       0.964071
    11370.096600       0.965743
    11383.039300       0.967372
    11396.011400       0.968956
    11409.013100       0.970498
    11422.044500       0.971996
    11435.105800       0.973451
    11448.196900       0.974864
    11461.318100       0.976234
    11474.469300       0.977563
    11487.650800       0.978849
    11500.862600       0.980095
    11514.104800       0.981299
    11527.377500       0.982462
    11540.680900       0.983585
    11554.015000       0.984667
    11567.380000       0.985710
    11580.775900       0.986713
    11594.202900       0.987677
    11607.661100       0.988602
    11621.150500       0.989488
    11634.671300       0.990335
    11648.223600       0.991145
    11661.807600       0.991917
    11675.423200       0.992652
    11689.070700       0.993349
    11702.750100       0.994010
    11716.461600       0.994634
    11730.205300       0.995222
    11743.981200       0.995774
    11757.789500       0.996291
    11771.630400       0.996773
    11785.503800       0.997219
    11799.410000       0.997631
    11813.349100       0.998009
    11827.321100       0.998353
    11841.326200       0.998664
    11855.364600       0.998941
    11869.436200       0.999186
    11883.541300       0.999397
    11897.680000       0.999577
    11911.852300       0.999724
    11926.058400       0.999840
    11940.298500       0.999924
    11954.572600       0.999977
    11968.880900       1.000000
    11983.223500       0.999992
    11997.600500       0.999954
    12012.012000       0.999887
    12026.458200       0.999789
    12040.939200       0.999663
    12055.455100       0.999508
    12070.006000       0.999324
    12084.592100       0.999112
    12099.213600       0.998872
    12113.870400       0.998604
    12128.562800       0.998309
    12143.290800       0.997987
    12158.054700       0.997638
    12172.854500       0.997262
    12187.690400       0.996860
    12202.562500       0.996433
    12217.471000       0.995979
    12232.415900       0.995500
    12247.397400       0.994997
    12262.415700       0.994468
    12277.470800       0.993915
    12292.563000       0.993337
    12307.692300       0.992736
    12322.858900       0.992110
    12338.062900       0.991462
    12353.304500       0.990790
    12368.583800       0.990095
    12383.900900       0.989377
    12399.256000       0.988637
    12414.649300       0.987875
    12430.080800       0.987091
    12445.550700       0.986285
    12461.059200       0.985457
    12476.606400       0.984608
    12492.192400       0.983739
    12507.817400       0.982848
    12523.481500       0.981937
    12539.185000       0.981006
    12554.927800       0.980054
    12570.710200       0.979083
    12586.532400       0.978092
    12602.394500       0.977082
    12618.296500       0.976052
    12634.238800       0.975003
    12650.221400       0.973936
    12666.244500       0.972850
    12682.308200       0.971745
    12698.412700       0.970623
    12714.558200       0.969482
    12730.744700       0.968323
    12746.972600       0.967147
    12763.241900       0.965953
    12779.552700       0.964742
    12795.905300       0.963514
    12812.299800       0.962269
    12828.736400       0.961008
    12845.215200       0.959729
    12861.736300       0.958435
    12878.300100       0.957124
    12894.906500       0.955797
    12911.555800       0.954454
    12928.248200       0.953095
    12944.983800       0.951721
    12961.762800       0.950331
    12978.585300       0.948926
    12995.451600       0.947505
    13012.361700       0.946070
    13029.316000       0.944620
    13046.314400       0.943155
    13063.357300       0.941675
    13080.444700       0.940181
    13097.576900       0.938673
    13114.754100       0.937150
    13131.976400       0.935614
    13149.243900       0.934063
    13166.556900       0.932498
    13183.915600       0.930920
    13201.320100       0.929328
    13218.770700       0.927723
    13236.267400       0.926104
    13253.810500       0.924471
    13271.400100       0.922826
    13289.036500       0.921168
    13306.719900       0.919496
    13324.450400       0.917812
    13342.228200       0.916115
    13360.053400       0.914405
    13377.926400       0.912683
    13395.847300       0.910948
    13413.816200       0.909201
    13431.833400       0.907441
    13449.899100       0.905669
    13468.013500       0.903885
    13486.176700       0.902089
    13504.388900       0.900281
    13522.650400       0.898461
    13540.961400       0.896629
    13559.322000       0.894785
    13577.732500       0.892930
    13596.193100       0.891063
    13614.703900       0.889185
    13633.265200       0.887295
    13651.877100       0.885394
    13670.540000       0.883481
    13689.253900       0.881557
    13708.019200       0.879622
    13726.836000       0.877676
    13745.704500       0.875719
    13764.624900       0.873750
    13783.597500       0.871771
    13802.622500       0.869781
    13821.700100       0.867780
    13840.830400       0.865769
    13860.013900       0.863747
    13879.250500       0.861714
    13898.540700       0.859670
    13917.884500       0.857616
    13937.282200       0.855552
    13956.734100       0.853477
    13976.240400       0.851391
    13995.801300       0.849296
    14015.417000       0.847190
    14035.087700       0.845074
    14054.813800       0.842948
    14074.595400       0.840812
    14094.432700       0.838666
    14114.326000       0.836510
    14134.275600       0.834344
    14154.281700       0.832168
    14174.344400       0.829982
    14194.464200       0.827787
    14214.641100       0.825582
    14234.875400       0.823367
    14255.167500       0.821142
    14275.517500       0.818909
    14295.925700       0.816665
    14316.392300       0.814412
    14336.917600       0.812150
    14357.501800       0.809879
    14378.145200       0.807598
    14398.848100       0.805309
    14419.610700       0.803010
    14440.433200       0.800701
    14461.316000       0.798384
    14482.259200       0.796058
    14503.263200       0.793723
    14524.328200       0.791380
    14545.454500       0.789027
    14566.642400       0.786666
    14587.892000       0.784296
    14609.203800       0.781918
    14630.577900       0.779531
    14652.014700       0.777136
    14673.514300       0.774732
    14695.077100       0.772320
    14716.703500       0.769900
    14738.393500       0.767471
    14760.147600       0.765035
    14781.966000       0.762590
    14803.849000       0.760138
    14825.796900       0.757677
    14847.809900       0.755209
    14869.888500       0.752733
    14892.032800       0.750250
    14914.243100       0.747758
    14936.519800       0.745260
    14958.863100       0.742754
    14981.273400       0.740241
    15003.750900       0.737720
    15026.296000       0.735192
    15048.909000       0.732658
    15071.590100       0.730116
    15094.339600       0.727567
    15117.158000       0.725012
    15140.045400       0.722450
    15163.002300       0.719881
    15186.028900       0.717306
    15209.125500       0.714724
    15232.292500       0.712136
    15255.530100       0.709542
    15278.838800       0.706942
    15302.218800       0.704336
    15325.670500       0.701723
    15349.194200       0.699106
    15372.790200       0.696482
    15396.458800       0.693853
    15420.200500       0.691218
    15444.015400       0.688578
    15467.904100       0.685932
    15491.866800       0.683282
    15515.903800       0.680626
    15540.015500       0.677966
    15564.202300       0.675301
    15588.464500       0.672631
    15612.802500       0.669956
    15637.216600       0.667277
    15661.707100       0.664594
    15686.274500       0.661907
    15710.919100       0.659215
    15735.641200       0.656520
    15760.441300       0.653820
    15785.319700       0.651117
    15810.276700       0.648411
    15835.312700       0.645701
    15860.428200       0.642988
    15885.623500       0.640271
    15910.899000       0.637552
    15936.255000       0.634830
    15961.691900       0.632105
    15987.210200       0.629377
    16012.810200       0.626647
    16038.492400       0.623914
    16064.257000       0.621180
    16090.104600       0.618443
    16116.035500       0.615705
    16142.050000       0.612964
    16168.148700       0.610222
    16194.332000       0.607478
    16220.600200       0.604734
    16246.953700       0.601987
    16273.393000       0.599240
    16299.918500       0.596492
    16326.530600       0.593743
    16353.229800       0.590994
    16380.016400       0.588244
    16406.890900       0.585494
    16433.853700       0.582743
    16460.905300       0.579993
    16488.046200       0.577242
    16515.276600       0.574492
    16542.597200       0.571743
    16570.008300       0.568994
    16597.510400       0.566245
    16625.103900       0.563498
    16652.789300       0.560751
    16680.567100       0.558006
    16708.437800       0.555262
    16736.401700       0.552519
    16764.459300       0.549778
    16792.611300       0.547039
    16820.857900       0.544301
    16849.199700       0.541566
    16877.637100       0.538833
    16906.170800       0.536102
    16934.801000       0.533373
    16963.528400       0.530648
    16992.353400       0.527924
    17021.276600       0.525204
    17050.298400       0.522487
    17079.419300       0.519773
    17108.639900       0.517062
    17137.960600       0.514355
    17167.382000       0.511651
    17196.904600       0.508951
    17226.528900       0.506255
    17256.255400       0.503563
    17286.084700       0.500875
    17316.017300       0.498191
    17346.053800       0.495511
    17376.194600       0.492836
    17406.440400       0.490166
    17436.791600       0.487500
    17467.248900       0.484839
    17497.812800       0.482183
    17528.483800       0.479532
    17559.262500       0.476887
    17590.149500       0.474246
    17621.145400       0.471611
    17652.250700       0.468981
    17683.466000       0.466357
    17714.791900       0.463739
    17746.228900       0.461126
    17777.777800       0.458520
    17809.439000       0.455919
    17841.213200       0.453324
    17873.101000       0.450736
    17905.103000       0.448154
    17937.219700       0.445578
    17969.451900       0.443008
    18001.800200       0.440445
    18034.265100       0.437888
    18066.847300       0.435338
    18099.547500       0.432795
    18132.366300       0.430259
    18165.304300       0.427729
    18198.362100       0.425206
    18231.540600       0.422690
    18264.840200       0.420181
    18298.261700       0.417678
    18331.805700       0.415183
    18365.472900       0.412695
    18399.264000       0.410214
    18433.179700       0.407740
    18467.220700       0.405273
    18501.387600       0.402813
    18535.681200       0.400361
    18570.102100       0.397916
    18604.651200       0.395477
    18639.329000       0.393046
    18674.136300       0.390622
    18709.073900       0.388206
    18744.142500       0.385796
    18779.342700       0.383394
    18814.675400       0.380998
    18850.141400       0.378610
    18885.741300       0.376229
    18921.475900       0.373855
    18957.346000       0.371488
    18993.352300       0.369127
    19029.495700       0.366774
    19065.776900       0.364428
    19102.196800       0.362088
    19138.756000       0.359755
    19175.455400       0.357429
    19212.295900       0.355109
    19249.278200       0.352796
    19286.403100       0.350489
    19323.671500       0.348188
    19361.084200       0.345894
    19398.642100       0.343606
    19436.346000       0.341324
    19474.196700       0.339048
    19512.195100       0.336778
    19550.342100       0.334513
    19588.638600       0.332254
    19627.085400       0.330001
    19665.683400       0.327752
    19704.433500       0.325509
    19743.336600       0.323272
    19782.393700       0.321039
    19821.605600       0.318810
    19860.973200       0.316587
    19900.497500       0.314367
