05  , Filter noaa_07_avhrr_05.flt
Number of data points:
60
Wavenumber (cm-1)   Filter response
      775.194000       0.002996
      777.502600       0.000380
      779.811200       0.000000
      782.119800       0.000000
      784.428400       0.000000
      786.737000       0.001306
      789.045600       0.006975
      791.354200       0.013057
      793.662800       0.020023
      795.971400       0.036752
      798.280000       0.082404
      800.588600       0.176211
      802.897200       0.326180
      805.205800       0.509391
      807.514400       0.628271
      809.823000       0.660064
      812.131600       0.677733
      814.440200       0.694669
      816.748800       0.717229
      819.057400       0.748961
      821.366000       0.776290
      823.674600       0.801296
      825.983200       0.828198
      828.291800       0.849841
      830.600400       0.877170
      832.909000       0.905906
      835.217600       0.901137
      837.526200       0.889887
      839.834800       0.895329
      842.143400       0.893189
      844.452000       0.898997
      846.760600       0.928650
      849.069200       0.960015
      851.377800       0.984898
      853.686400       1.000000
      855.995000       0.987711
      858.303600       0.951088
      860.612200       0.912509
      862.920800       0.893067
      865.229400       0.888298
      867.538000       0.859990
      869.846600       0.776045
      872.155200       0.624175
      874.463800       0.435271
      876.772400       0.254005
      879.081000       0.125789
      881.389600       0.053399
      883.698200       0.020316
      886.006800       0.007535
      888.315400       0.002273
      890.624000       0.000000
      892.932600       0.000000
      895.241200       0.000000
      897.549800       0.000000
      899.858400       0.000000
      902.167000       0.000000
      904.475600       0.000000
      906.784200       0.000051
      909.092800       0.001498
      911.401400       0.000000
