113,   113, MVIRI VIS channel from srf_MET7_2011258_2011259_1801-Release_S10EE_10.dat
Number of data points:
793
Wavenumber (cm-1)   Filter response
     8442.380800       0.000000
     8449.514200       0.000000
     8456.659600       0.000004
     8463.817200       0.000056
     8470.986900       0.000167
     8478.168700       0.000334
     8485.362700       0.000556
     8492.569000       0.000831
     8499.787500       0.001157
     8507.018300       0.001534
     8514.261400       0.001960
     8521.516800       0.002433
     8528.784600       0.002952
     8536.064900       0.003516
     8543.357500       0.004123
     8550.662700       0.004772
     8557.980300       0.005463
     8565.310500       0.006193
     8572.653200       0.006962
     8580.008600       0.007770
     8587.376600       0.008614
     8594.757200       0.009494
     8602.150500       0.010409
     8609.556600       0.011358
     8616.975400       0.012340
     8624.407100       0.013355
     8631.851500       0.014402
     8639.308900       0.015480
     8646.779100       0.016588
     8654.262200       0.017726
     8661.758300       0.018892
     8669.267400       0.020088
     8676.789600       0.021310
     8684.324800       0.022561
     8691.873100       0.023838
     8699.434500       0.025141
     8707.009100       0.026471
     8714.596900       0.027825
     8722.198000       0.029205
     8729.812300       0.030609
     8737.439900       0.032037
     8745.080900       0.033489
     8752.735200       0.034965
     8760.403000       0.036464
     8768.084200       0.037986
     8775.778900       0.039531
     8783.487000       0.041098
     8791.208800       0.042688
     8798.944100       0.044299
     8806.693100       0.045933
     8814.455700       0.047588
     8822.232000       0.049265
     8830.022100       0.050963
     8837.825900       0.052682
     8845.643500       0.054423
     8853.475000       0.056185
     8861.320300       0.057967
     8869.179600       0.059771
     8877.052800       0.061595
     8884.940000       0.063441
     8892.841300       0.065307
     8900.756600       0.067193
     8908.686000       0.069101
     8916.629500       0.071029
     8924.587200       0.072978
     8932.559200       0.074948
     8940.545400       0.076938
     8948.545900       0.078949
     8956.560700       0.080981
     8964.589900       0.083034
     8972.633500       0.085108
     8980.691500       0.087202
     8988.764000       0.089318
     8996.851100       0.091455
     9004.952700       0.093613
     9013.068900       0.095791
     9021.199800       0.097992
     9029.345400       0.100213
     9037.505600       0.102456
     9045.680700       0.104720
     9053.870500       0.107006
     9062.075200       0.109314
     9070.294800       0.111643
     9078.529300       0.113994
     9086.778700       0.116367
     9095.043200       0.118762
     9103.322700       0.121179
     9111.617300       0.123619
     9119.927000       0.126080
     9128.251900       0.128564
     9136.592100       0.131070
     9144.947400       0.133599
     9153.318100       0.136151
     9161.704100       0.138725
     9170.105500       0.141322
     9178.522300       0.143941
     9186.954500       0.146584
     9195.402300       0.149250
     9203.865600       0.151938
     9212.344500       0.154650
     9220.839100       0.157385
     9229.349300       0.160144
     9237.875300       0.162925
     9246.417000       0.165730
     9254.974500       0.168559
     9263.547900       0.171411
     9272.137200       0.174287
     9280.742500       0.177186
     9289.363700       0.180108
     9298.000900       0.183055
     9306.654300       0.186025
     9315.323700       0.189019
     9324.009300       0.192037
     9332.711200       0.195078
     9341.429200       0.198143
     9350.163600       0.201232
     9358.914400       0.204344
     9367.681500       0.207481
     9376.465100       0.210641
     9385.265100       0.213824
     9394.081700       0.217032
     9402.914900       0.220263
     9411.764700       0.223518
     9420.631200       0.226796
     9429.514400       0.230098
     9438.414300       0.233423
     9447.331100       0.236771
     9456.264800       0.240143
     9465.215300       0.243539
     9474.182900       0.246957
     9483.167400       0.250399
     9492.169000       0.253863
     9501.187600       0.257351
     9510.223500       0.260861
     9519.276500       0.264394
     9528.346800       0.267950
     9537.434400       0.271528
     9546.539400       0.275128
     9555.661700       0.278750
     9564.801500       0.282395
     9573.958800       0.286061
     9583.133700       0.289750
     9592.326100       0.293459
     9601.536200       0.297190
     9610.764100       0.300943
     9620.009600       0.304716
     9629.273000       0.308511
     9638.554200       0.312325
     9647.853400       0.316161
     9657.170400       0.320016
     9666.505600       0.323892
     9675.858700       0.327788
     9685.230000       0.331703
     9694.619500       0.335637
     9704.027200       0.339591
     9713.453100       0.343563
     9722.897400       0.347554
     9732.360100       0.351563
     9741.841200       0.355591
     9751.340800       0.359636
     9760.859000       0.363699
     9770.395700       0.367779
     9779.951100       0.371876
     9789.525200       0.375990
     9799.118100       0.380121
     9808.729800       0.384267
     9818.360300       0.388429
     9828.009800       0.392606
     9837.678300       0.396799
     9847.365800       0.401006
     9857.072400       0.405228
     9866.798200       0.409464
     9876.543200       0.413713
     9886.307500       0.417977
     9896.091000       0.422253
     9905.894000       0.426542
     9915.716400       0.430844
     9925.558300       0.435157
     9935.419800       0.439482
     9945.300800       0.443819
     9955.201600       0.448166
     9965.122100       0.452523
     9975.062300       0.456891
     9985.022500       0.461269
     9995.002500       0.465656
    10005.002500       0.470051
    10015.022500       0.474455
    10025.062700       0.478868
    10035.122900       0.483288
    10045.203400       0.487715
    10055.304200       0.492149
    10065.425300       0.496590
    10075.566800       0.501036
    10085.728700       0.505488
    10095.911200       0.509946
    10106.114200       0.514407
    10116.337900       0.518873
    10126.582300       0.523343
    10136.847400       0.527817
    10147.133400       0.532293
    10157.440300       0.536772
    10167.768200       0.541253
    10178.117000       0.545735
    10188.487000       0.550218
    10198.878100       0.554703
    10209.290500       0.559187
    10219.724100       0.563671
    10230.179000       0.568154
    10240.655400       0.572637
    10251.153300       0.577117
    10261.672700       0.581595
    10272.213700       0.586071
    10282.776300       0.590544
    10293.360800       0.595013
    10303.967000       0.599478
    10314.595200       0.603939
    10325.245200       0.608394
    10335.917300       0.612845
    10346.611500       0.617289
    10357.327800       0.621727
    10368.066400       0.626158
    10378.827200       0.630582
    10389.610400       0.634998
    10400.416000       0.639406
    10411.244100       0.643805
    10422.094800       0.648194
    10432.968200       0.652574
    10443.864200       0.656944
    10454.783100       0.661304
    10465.724800       0.665652
    10476.689400       0.669988
    10487.677000       0.674313
    10498.687700       0.678624
    10509.721500       0.682923
    10520.778500       0.687209
    10531.858900       0.691480
    10542.962600       0.695737
    10554.089700       0.699979
    10565.240400       0.704206
    10576.414600       0.708417
    10587.612500       0.712612
    10598.834100       0.716790
    10610.079600       0.720951
    10621.348900       0.725095
    10632.642200       0.729220
    10643.959600       0.733327
    10655.301000       0.737415
    10666.666700       0.741484
    10678.056600       0.745532
    10689.470900       0.749561
    10700.909600       0.753569
    10712.372800       0.757555
    10723.860600       0.761521
    10735.373100       0.765464
    10746.910300       0.769385
    10758.472300       0.773283
    10770.059200       0.777157
    10781.671200       0.781009
    10793.308100       0.784836
    10804.970300       0.788639
    10816.657700       0.792416
    10828.370300       0.796169
    10840.108400       0.799896
    10851.871900       0.803597
    10863.661100       0.807272
    10875.475800       0.810920
    10887.316300       0.814541
    10899.182600       0.818134
    10911.074700       0.821700
    10922.992900       0.825237
    10934.937100       0.828745
    10946.907500       0.832225
    10958.904100       0.835676
    10970.927000       0.839097
    10982.976400       0.842487
    10995.052200       0.845848
    11007.154700       0.849178
    11019.283700       0.852477
    11031.439600       0.855745
    11043.622300       0.858981
    11055.832000       0.862185
    11068.068600       0.865358
    11080.332400       0.868498
    11092.623400       0.871604
    11104.941700       0.874678
    11117.287400       0.877719
    11129.660500       0.880726
    11142.061300       0.883700
    11154.489700       0.886639
    11166.945800       0.889543
    11179.429800       0.892414
    11191.941800       0.895249
    11204.481800       0.898049
    11217.049900       0.900814
    11229.646300       0.903543
    11242.270900       0.906237
    11254.924000       0.908895
    11267.605600       0.911516
    11280.315800       0.914101
    11293.054800       0.916650
    11305.822500       0.919161
    11318.619100       0.921636
    11331.444800       0.924074
    11344.299500       0.926474
    11357.183400       0.928837
    11370.096600       0.931163
    11383.039300       0.933450
    11396.011400       0.935700
    11409.013100       0.937911
    11422.044500       0.940085
    11435.105800       0.942220
    11448.196900       0.944317
    11461.318100       0.946375
    11474.469300       0.948395
    11487.650800       0.950376
    11500.862600       0.952318
    11514.104800       0.954222
    11527.377500       0.956086
    11540.680900       0.957912
    11554.015000       0.959698
    11567.380000       0.961445
    11580.775900       0.963153
    11594.202900       0.964822
    11607.661100       0.966452
    11621.150500       0.968042
    11634.671300       0.969593
    11648.223600       0.971104
    11661.807600       0.972577
    11675.423200       0.974010
    11689.070700       0.975403
    11702.750100       0.976758
    11716.461600       0.978073
    11730.205300       0.979349
    11743.981200       0.980585
    11757.789500       0.981783
    11771.630400       0.982941
    11785.503800       0.984060
    11799.410000       0.985140
    11813.349100       0.986182
    11827.321100       0.987184
    11841.326200       0.988148
    11855.364600       0.989072
    11869.436200       0.989959
    11883.541300       0.990806
    11897.680000       0.991616
    11911.852300       0.992387
    11926.058400       0.993119
    11940.298500       0.993814
    11954.572600       0.994471
    11968.880900       0.995090
    11983.223500       0.995671
    11997.600500       0.996215
    12012.012000       0.996722
    12026.458200       0.997192
    12040.939200       0.997624
    12055.455100       0.998020
    12070.006000       0.998379
    12084.592100       0.998701
    12099.213600       0.998988
    12113.870400       0.999238
    12128.562800       0.999453
    12143.290800       0.999632
    12158.054700       0.999775
    12172.854500       0.999884
    12187.690400       0.999957
    12202.562500       0.999996
    12217.471000       1.000000
    12232.415900       0.999970
    12247.397400       0.999906
    12262.415700       0.999809
    12277.470800       0.999678
    12292.563000       0.999514
    12307.692300       0.999316
    12322.858900       0.999087
    12338.062900       0.998825
    12353.304500       0.998531
    12368.583800       0.998205
    12383.900900       0.997848
    12399.256000       0.997460
    12414.649300       0.997041
    12430.080800       0.996592
    12445.550700       0.996112
    12461.059200       0.995602
    12476.606400       0.995064
    12492.192400       0.994495
    12507.817400       0.993898
    12523.481500       0.993273
    12539.185000       0.992619
    12554.927800       0.991938
    12570.710200       0.991229
    12586.532400       0.990493
    12602.394500       0.989731
    12618.296500       0.988942
    12634.238800       0.988127
    12650.221400       0.987287
    12666.244500       0.986421
    12682.308200       0.985531
    12698.412700       0.984616
    12714.558200       0.983677
    12730.744700       0.982715
    12746.972600       0.981729
    12763.241900       0.980720
    12779.552700       0.979689
    12795.905300       0.978636
    12812.299800       0.977562
    12828.736400       0.976466
    12845.215200       0.975349
    12861.736300       0.974212
    12878.300100       0.973055
    12894.906500       0.971879
    12911.555800       0.970683
    12928.248200       0.969469
    12944.983800       0.968237
    12961.762800       0.966986
    12978.585300       0.965719
    12995.451600       0.964434
    13012.361700       0.963133
    13029.316000       0.961816
    13046.314400       0.960483
    13063.357300       0.959135
    13080.444700       0.957773
    13097.576900       0.956396
    13114.754100       0.955005
    13131.976400       0.953601
    13149.243900       0.952183
    13166.556900       0.950754
    13183.915600       0.949312
    13201.320100       0.947859
    13218.770700       0.946394
    13236.267400       0.944919
    13253.810500       0.943434
    13271.400100       0.941939
    13289.036500       0.940434
    13306.719900       0.938921
    13324.450400       0.937399
    13342.228200       0.935870
    13360.053400       0.934332
    13377.926400       0.932788
    13395.847300       0.931237
    13413.816200       0.929680
    13431.833400       0.928117
    13449.899100       0.926549
    13468.013500       0.924976
    13486.176700       0.923399
    13504.388900       0.921817
    13522.650400       0.920233
    13540.961400       0.918645
    13559.322000       0.917054
    13577.732500       0.915462
    13596.193100       0.913867
    13614.703900       0.912272
    13633.265200       0.910675
    13651.877100       0.909079
    13670.540000       0.907482
    13689.253900       0.905885
    13708.019200       0.904290
    13726.836000       0.902696
    13745.704500       0.901103
    13764.624900       0.899512
    13783.597500       0.897925
    13802.622500       0.896340
    13821.700100       0.894758
    13840.830400       0.893180
    13860.013900       0.891607
    13879.250500       0.890038
    13898.540700       0.888474
    13917.884500       0.886915
    13937.282200       0.885362
    13956.734100       0.883815
    13976.240400       0.882275
    13995.801300       0.880741
    14015.417000       0.879215
    14035.087700       0.877697
    14054.813800       0.876186
    14074.595400       0.874684
    14094.432700       0.873191
    14114.326000       0.871706
    14134.275600       0.870231
    14154.281700       0.868766
    14174.344400       0.867311
    14194.464200       0.865867
    14214.641100       0.864433
    14234.875400       0.863010
    14255.167500       0.861599
    14275.517500       0.860199
    14295.925700       0.858812
    14316.392300       0.857436
    14336.917600       0.856074
    14357.501800       0.854724
    14378.145200       0.853388
    14398.848100       0.852065
    14419.610700       0.850755
    14440.433200       0.849460
    14461.316000       0.848179
    14482.259200       0.846913
    14503.263200       0.845661
    14524.328200       0.844424
    14545.454500       0.843203
    14566.642400       0.841997
    14587.892000       0.840807
    14609.203800       0.839633
    14630.577900       0.838475
    14652.014700       0.837333
    14673.514300       0.836208
    14695.077100       0.835099
    14716.703500       0.834007
    14738.393500       0.832933
    14760.147600       0.831875
    14781.966000       0.830835
    14803.849000       0.829813
    14825.796900       0.828808
    14847.809900       0.827821
    14869.888500       0.826852
    14892.032800       0.825901
    14914.243100       0.824968
    14936.519800       0.824054
    14958.863100       0.823158
    14981.273400       0.822280
    15003.750900       0.821421
    15026.296000       0.820581
    15048.909000       0.819759
    15071.590100       0.818956
    15094.339600       0.818171
    15117.158000       0.817406
    15140.045400       0.816659
    15163.002300       0.815932
    15186.028900       0.815223
    15209.125500       0.814533
    15232.292500       0.813862
    15255.530100       0.813210
    15278.838800       0.812576
    15302.218800       0.811962
    15325.670500       0.811366
    15349.194200       0.810789
    15372.790200       0.810231
    15396.458800       0.809691
    15420.200500       0.809170
    15444.015400       0.808668
    15467.904100       0.808184
    15491.866800       0.807718
    15515.903800       0.807270
    15540.015500       0.806840
    15564.202300       0.806429
    15588.464500       0.806035
    15612.802500       0.805658
    15637.216600       0.805299
    15661.707100       0.804958
    15686.274500       0.804634
    15710.919100       0.804326
    15735.641200       0.804036
    15760.441300       0.803762
    15785.319700       0.803504
    15810.276700       0.803263
    15835.312700       0.803037
    15860.428200       0.802828
    15885.623500       0.802633
    15910.899000       0.802454
    15936.255000       0.802290
    15961.691900       0.802140
    15987.210200       0.802005
    16012.810200       0.801884
    16038.492400       0.801777
    16064.257000       0.801683
    16090.104600       0.801602
    16116.035500       0.801534
    16142.050000       0.801479
    16168.148700       0.801436
    16194.332000       0.801404
    16220.600200       0.801384
    16246.953700       0.801375
    16273.393000       0.801377
    16299.918500       0.801389
    16326.530600       0.801411
    16353.229800       0.801442
    16380.016400       0.801483
    16406.890900       0.801532
    16433.853700       0.801589
    16460.905300       0.801654
    16488.046200       0.801727
    16515.276600       0.801806
    16542.597200       0.801892
    16570.008300       0.801983
    16597.510400       0.802080
    16625.103900       0.802182
    16652.789300       0.802289
    16680.567100       0.802399
    16708.437800       0.802513
    16736.401700       0.802629
    16764.459300       0.802748
    16792.611300       0.802869
    16820.857900       0.802991
    16849.199700       0.803114
    16877.637100       0.803237
    16906.170800       0.803359
    16934.801000       0.803481
    16963.528400       0.803601
    16992.353400       0.803719
    17021.276600       0.803834
    17050.298400       0.803946
    17079.419300       0.804054
    17108.639900       0.804157
    17137.960600       0.804255
    17167.382000       0.804347
    17196.904600       0.804433
    17226.528900       0.804512
    17256.255400       0.804583
    17286.084700       0.804645
    17316.017300       0.804698
    17346.053800       0.804742
    17376.194600       0.804775
    17406.440400       0.804798
    17436.791600       0.804808
    17467.248900       0.804806
    17497.812800       0.804791
    17528.483800       0.804762
    17559.262500       0.804718
    17590.149500       0.804660
    17621.145400       0.804585
    17652.250700       0.804494
    17683.466000       0.804385
