9, GOES-R 6.95um ABI SRF CWG processed version 3 March 10, 2016
Number of data points:
1913
Wavenumber (cm-1)   Filter response
     1351.300000       0.001007
     1351.400000       0.001078
     1351.500000       0.001147
     1351.600000       0.001219
     1351.700000       0.001294
     1351.800000       0.001365
     1351.900000       0.001430
     1352.000000       0.001478
     1352.100000       0.001498
     1352.200000       0.001492
     1352.300000       0.001485
     1352.400000       0.001479
     1352.500000       0.001474
     1352.600000       0.001468
     1352.700000       0.001462
     1352.800000       0.001457
     1352.900000       0.001450
     1353.000000       0.001445
     1353.100000       0.001456
     1353.200000       0.001471
     1353.300000       0.001485
     1353.400000       0.001495
     1353.500000       0.001501
     1353.600000       0.001510
     1353.700000       0.001524
     1353.800000       0.001537
     1353.900000       0.001550
     1354.000000       0.001557
     1354.100000       0.001563
     1354.200000       0.001571
     1354.300000       0.001575
     1354.400000       0.001576
     1354.500000       0.001576
     1354.600000       0.001576
     1354.700000       0.001579
     1354.800000       0.001587
     1354.900000       0.001588
     1355.000000       0.001588
     1355.100000       0.001608
     1355.200000       0.001646
     1355.300000       0.001677
     1355.400000       0.001709
     1355.500000       0.001739
     1355.600000       0.001771
     1355.700000       0.001802
     1355.800000       0.001832
     1355.900000       0.001863
     1356.000000       0.001901
     1356.100000       0.001946
     1356.200000       0.002000
     1356.300000       0.002056
     1356.400000       0.002107
     1356.500000       0.002155
     1356.600000       0.002198
     1356.700000       0.002244
     1356.800000       0.002296
     1356.900000       0.002331
     1357.000000       0.002351
     1357.100000       0.002313
     1357.200000       0.002174
     1357.300000       0.002066
     1357.400000       0.001961
     1357.500000       0.001850
     1357.600000       0.001739
     1357.700000       0.001629
     1357.800000       0.001512
     1357.900000       0.001366
     1358.000000       0.001342
     1358.100000       0.001427
     1358.200000       0.001535
     1358.300000       0.001671
     1358.400000       0.001801
     1358.500000       0.001930
     1358.600000       0.002059
     1358.700000       0.002189
     1358.800000       0.002336
     1358.900000       0.002450
     1359.000000       0.002535
     1359.100000       0.002552
     1359.200000       0.002491
     1359.300000       0.002428
     1359.400000       0.002373
     1359.500000       0.002318
     1359.600000       0.002263
     1359.700000       0.002213
     1359.800000       0.002164
     1359.900000       0.002102
     1360.000000       0.002058
     1360.100000       0.002045
     1360.200000       0.002034
     1360.300000       0.002022
     1360.400000       0.002009
     1360.500000       0.001997
     1360.600000       0.001985
     1360.700000       0.001973
     1360.800000       0.001958
     1360.900000       0.001947
     1361.000000       0.001971
     1361.100000       0.002026
     1361.200000       0.002112
     1361.300000       0.002211
     1361.400000       0.002304
     1361.500000       0.002394
     1361.600000       0.002479
     1361.700000       0.002569
     1361.800000       0.002663
     1361.900000       0.002744
     1362.000000       0.002808
     1362.100000       0.002767
     1362.200000       0.002643
     1362.300000       0.002539
     1362.400000       0.002435
     1362.500000       0.002337
     1362.600000       0.002238
     1362.700000       0.002134
     1362.800000       0.002026
     1362.900000       0.001905
     1363.000000       0.001837
     1363.100000       0.001801
     1363.200000       0.001772
     1363.300000       0.001748
     1363.400000       0.001728
     1363.500000       0.001711
     1363.600000       0.001692
     1363.700000       0.001674
     1363.800000       0.001651
     1363.900000       0.001641
     1364.000000       0.001657
     1364.100000       0.001691
     1364.200000       0.001788
     1364.300000       0.001883
     1364.400000       0.001968
     1364.500000       0.002057
     1364.600000       0.002150
     1364.700000       0.002242
     1364.800000       0.002334
     1364.900000       0.002438
     1365.000000       0.002506
     1365.100000       0.002506
     1365.200000       0.002506
     1365.300000       0.002506
     1365.400000       0.002505
     1365.500000       0.002505
     1365.600000       0.002505
     1365.700000       0.002505
     1365.800000       0.002505
     1365.900000       0.002505
     1366.000000       0.002534
     1366.100000       0.002633
     1366.200000       0.002749
     1366.300000       0.002882
     1366.400000       0.003011
     1366.500000       0.003138
     1366.600000       0.003259
     1366.700000       0.003381
     1366.800000       0.003505
     1366.900000       0.003619
     1367.000000       0.003722
     1367.100000       0.003788
     1367.200000       0.003829
     1367.300000       0.003866
     1367.400000       0.003902
     1367.500000       0.003938
     1367.600000       0.003974
     1367.700000       0.004009
     1367.800000       0.004045
     1367.900000       0.004089
     1368.000000       0.004111
     1368.100000       0.004088
     1368.200000       0.004058
     1368.300000       0.004032
     1368.400000       0.004007
     1368.500000       0.003981
     1368.600000       0.003953
     1368.700000       0.003920
     1368.800000       0.003893
     1368.900000       0.003868
     1369.000000       0.003830
     1369.100000       0.003776
     1369.200000       0.003596
     1369.300000       0.003436
     1369.400000       0.003910
     1369.500000       0.004587
     1369.600000       0.005005
     1369.700000       0.005382
     1369.800000       0.005766
     1369.900000       0.005855
     1370.000000       0.005742
     1370.100000       0.005780
     1370.200000       0.006143
     1370.300000       0.006485
     1370.400000       0.006786
     1370.500000       0.007129
     1370.600000       0.007497
     1370.700000       0.007879
     1370.800000       0.008268
     1370.900000       0.008661
     1371.000000       0.009040
     1371.100000       0.009422
     1371.200000       0.009595
     1371.300000       0.009581
     1371.400000       0.009545
     1371.500000       0.009415
     1371.600000       0.009286
     1371.700000       0.009166
     1371.800000       0.009045
     1371.900000       0.008921
     1372.000000       0.008786
     1372.100000       0.008644
     1372.200000       0.008503
     1372.300000       0.008362
     1372.400000       0.008224
     1372.500000       0.008080
     1372.600000       0.007906
     1372.700000       0.007713
     1372.800000       0.007480
     1372.900000       0.007243
     1373.000000       0.007010
     1373.100000       0.006774
     1373.200000       0.006533
     1373.300000       0.006376
     1373.400000       0.006272
     1373.500000       0.006222
     1373.600000       0.006192
     1373.700000       0.006154
     1373.800000       0.006123
     1373.900000       0.006123
     1374.000000       0.006125
     1374.100000       0.006277
     1374.200000       0.006544
     1374.300000       0.006809
     1374.400000       0.007083
     1374.500000       0.007352
     1374.600000       0.007620
     1374.700000       0.007884
     1374.800000       0.008134
     1374.900000       0.008368
     1375.000000       0.008602
     1375.100000       0.008836
     1375.200000       0.009077
     1375.300000       0.009313
     1375.400000       0.009490
     1375.500000       0.009624
     1375.600000       0.009672
     1375.700000       0.009706
     1375.800000       0.009738
     1375.900000       0.009772
     1376.000000       0.009826
     1376.100000       0.009917
     1376.200000       0.010290
     1376.300000       0.010780
     1376.400000       0.011376
     1376.500000       0.011978
     1376.600000       0.012567
     1376.700000       0.013173
     1376.800000       0.013775
     1376.900000       0.014201
     1377.000000       0.014492
     1377.100000       0.014789
     1377.200000       0.015089
     1377.300000       0.015385
     1377.400000       0.015688
     1377.500000       0.016054
     1377.600000       0.016467
     1377.700000       0.017036
     1377.800000       0.017648
     1377.900000       0.018257
     1378.000000       0.018868
     1378.100000       0.019490
     1378.200000       0.020050
     1378.300000       0.020530
     1378.400000       0.020928
     1378.500000       0.021247
     1378.600000       0.021567
     1378.700000       0.021892
     1378.800000       0.022204
     1378.900000       0.022521
     1379.000000       0.022980
     1379.100000       0.023525
     1379.200000       0.024095
     1379.300000       0.024676
     1379.400000       0.025250
     1379.500000       0.025796
     1379.600000       0.026242
     1379.700000       0.026640
     1379.800000       0.026961
     1379.900000       0.027264
     1380.000000       0.027552
     1380.100000       0.027838
     1380.200000       0.028125
     1380.300000       0.028413
     1380.400000       0.028701
     1380.500000       0.028987
     1380.600000       0.029273
     1380.700000       0.029556
     1380.800000       0.029837
     1380.900000       0.030197
     1381.000000       0.030628
     1381.100000       0.031102
     1381.200000       0.031614
     1381.300000       0.032115
     1381.400000       0.032612
     1381.500000       0.033109
     1381.600000       0.033605
     1381.700000       0.034098
     1381.800000       0.034591
     1381.900000       0.035085
     1382.000000       0.035578
     1382.100000       0.036069
     1382.200000       0.036560
     1382.300000       0.037051
     1382.400000       0.037542
     1382.500000       0.038035
     1382.600000       0.038530
     1382.700000       0.039025
     1382.800000       0.039520
     1382.900000       0.040012
     1383.000000       0.040505
     1383.100000       0.040996
     1383.200000       0.041479
     1383.300000       0.041955
     1383.400000       0.042413
     1383.500000       0.042865
     1383.600000       0.043316
     1383.700000       0.043767
     1383.800000       0.044220
     1383.900000       0.044672
     1384.000000       0.045124
     1384.100000       0.045576
     1384.200000       0.046007
     1384.300000       0.046525
     1384.400000       0.047268
     1384.500000       0.048119
     1384.600000       0.049114
     1384.700000       0.050134
     1384.800000       0.051157
     1384.900000       0.052196
     1385.000000       0.053252
     1385.100000       0.054308
     1385.200000       0.055366
     1385.300000       0.056425
     1385.400000       0.057489
     1385.500000       0.058603
     1385.600000       0.059761
     1385.700000       0.060955
     1385.800000       0.062162
     1385.900000       0.063364
     1386.000000       0.064564
     1386.100000       0.065762
     1386.200000       0.066959
     1386.300000       0.068159
     1386.400000       0.069349
     1386.500000       0.070518
     1386.600000       0.071658
     1386.700000       0.072746
     1386.800000       0.073812
     1386.900000       0.074850
     1387.000000       0.075887
     1387.100000       0.076921
     1387.200000       0.077959
     1387.300000       0.078999
     1387.400000       0.080036
     1387.500000       0.081070
     1387.600000       0.082111
     1387.700000       0.083162
     1387.800000       0.084259
     1387.900000       0.085379
     1388.000000       0.086497
     1388.100000       0.087615
     1388.200000       0.088733
     1388.300000       0.089850
     1388.400000       0.090966
     1388.500000       0.092082
     1388.600000       0.093174
     1388.700000       0.094317
     1388.800000       0.095697
     1388.900000       0.097187
     1389.000000       0.098857
     1389.100000       0.100577
     1389.200000       0.102334
     1389.300000       0.104095
     1389.400000       0.105851
     1389.500000       0.107604
     1389.600000       0.109353
     1389.700000       0.111124
     1389.800000       0.112922
     1389.900000       0.114791
     1390.000000       0.116780
     1390.100000       0.118891
     1390.200000       0.121115
     1390.300000       0.123327
     1390.400000       0.125531
     1390.500000       0.127732
     1390.600000       0.129931
     1390.700000       0.132131
     1390.800000       0.134333
     1390.900000       0.136507
     1391.000000       0.138718
     1391.100000       0.141285
     1391.200000       0.144001
     1391.300000       0.146716
     1391.400000       0.149452
     1391.500000       0.152226
     1391.600000       0.155017
     1391.700000       0.157829
     1391.800000       0.160648
     1391.900000       0.163459
     1392.000000       0.166305
     1392.100000       0.169242
     1392.200000       0.172263
     1392.300000       0.175368
     1392.400000       0.178497
     1392.500000       0.181637
     1392.600000       0.184784
     1392.700000       0.187934
     1392.800000       0.191084
     1392.900000       0.194230
     1393.000000       0.197408
     1393.100000       0.200620
     1393.200000       0.203938
     1393.300000       0.207359
     1393.400000       0.210870
     1393.500000       0.214457
     1393.600000       0.218034
     1393.700000       0.221607
     1393.800000       0.225177
     1393.900000       0.228745
     1394.000000       0.232312
     1394.100000       0.235886
     1394.200000       0.239497
     1394.300000       0.243166
     1394.400000       0.247064
     1394.500000       0.251018
     1394.600000       0.254961
     1394.700000       0.258906
     1394.800000       0.262839
     1394.900000       0.266774
     1395.000000       0.270721
     1395.100000       0.274666
     1395.200000       0.278569
     1395.300000       0.282607
     1395.400000       0.287016
     1395.500000       0.291505
     1395.600000       0.296056
     1395.700000       0.300541
     1395.800000       0.304893
     1395.900000       0.309197
     1396.000000       0.313446
     1396.100000       0.317675
     1396.200000       0.321885
     1396.300000       0.326126
     1396.400000       0.330407
     1396.500000       0.334734
     1396.600000       0.339126
     1396.700000       0.343534
     1396.800000       0.347943
     1396.900000       0.352360
     1397.000000       0.356775
     1397.100000       0.361187
     1397.200000       0.365594
     1397.300000       0.369984
     1397.400000       0.374378
     1397.500000       0.378907
     1397.600000       0.383542
     1397.700000       0.388401
     1397.800000       0.393386
     1397.900000       0.398386
     1398.000000       0.403403
     1398.100000       0.408415
     1398.200000       0.413431
     1398.300000       0.418452
     1398.400000       0.423476
     1398.500000       0.428508
     1398.600000       0.433548
     1398.700000       0.438613
     1398.800000       0.443699
     1398.900000       0.448821
     1399.000000       0.453950
     1399.100000       0.459077
     1399.200000       0.464205
     1399.300000       0.469331
     1399.400000       0.474457
     1399.500000       0.479579
     1399.600000       0.484696
     1399.700000       0.489807
     1399.800000       0.494890
     1399.900000       0.499922
     1400.000000       0.504917
     1400.100000       0.509865
     1400.200000       0.514800
     1400.300000       0.519719
     1400.400000       0.524643
     1400.500000       0.529574
     1400.600000       0.534507
     1400.700000       0.539440
     1400.800000       0.544380
     1400.900000       0.549338
     1401.000000       0.554391
     1401.100000       0.559503
     1401.200000       0.564647
     1401.300000       0.569821
     1401.400000       0.575003
     1401.500000       0.580191
     1401.600000       0.585377
     1401.700000       0.590568
     1401.800000       0.595767
     1401.900000       0.600971
     1402.000000       0.606179
     1402.100000       0.611394
     1402.200000       0.616660
     1402.300000       0.621964
     1402.400000       0.627331
     1402.500000       0.632736
     1402.600000       0.638130
     1402.700000       0.643522
     1402.800000       0.648910
     1402.900000       0.654297
     1403.000000       0.659687
     1403.100000       0.665072
     1403.200000       0.670434
     1403.300000       0.675768
     1403.400000       0.681026
     1403.500000       0.686184
     1403.600000       0.690956
     1403.700000       0.695621
     1403.800000       0.700331
     1403.900000       0.705052
     1404.000000       0.709798
     1404.100000       0.714555
     1404.200000       0.719336
     1404.300000       0.724128
     1404.400000       0.728948
     1404.500000       0.733752
     1404.600000       0.738522
     1404.700000       0.743159
     1404.800000       0.747444
     1404.900000       0.751688
     1405.000000       0.756002
     1405.100000       0.760323
     1405.200000       0.764636
     1405.300000       0.768945
     1405.400000       0.773226
     1405.500000       0.777482
     1405.600000       0.781714
     1405.700000       0.785888
     1405.800000       0.789965
     1405.900000       0.793994
     1406.000000       0.797942
     1406.100000       0.801886
     1406.200000       0.805823
     1406.300000       0.809755
     1406.400000       0.813689
     1406.500000       0.817624
     1406.600000       0.821559
     1406.700000       0.825485
     1406.800000       0.829403
     1406.900000       0.833235
     1407.000000       0.836950
     1407.100000       0.840569
     1407.200000       0.844072
     1407.300000       0.847482
     1407.400000       0.850781
     1407.500000       0.854022
     1407.600000       0.857172
     1407.700000       0.860291
     1407.800000       0.863398
     1407.900000       0.866507
     1408.000000       0.869623
     1408.100000       0.872605
     1408.200000       0.875449
     1408.300000       0.878141
     1408.400000       0.880667
     1408.500000       0.883070
     1408.600000       0.885404
     1408.700000       0.887735
     1408.800000       0.890063
     1408.900000       0.892387
     1409.000000       0.894708
     1409.100000       0.897035
     1409.200000       0.899365
     1409.300000       0.901630
     1409.400000       0.903833
     1409.500000       0.905844
     1409.600000       0.907698
     1409.700000       0.909367
     1409.800000       0.910847
     1409.900000       0.912311
     1410.000000       0.913761
     1410.100000       0.915253
     1410.200000       0.916757
     1410.300000       0.918263
     1410.400000       0.919773
     1410.500000       0.921284
     1410.600000       0.922789
     1410.700000       0.924219
     1410.800000       0.925597
     1410.900000       0.926783
     1411.000000       0.927854
     1411.100000       0.928953
     1411.200000       0.930067
     1411.300000       0.931191
     1411.400000       0.932325
     1411.500000       0.933468
     1411.600000       0.934627
     1411.700000       0.935810
     1411.800000       0.937008
     1411.900000       0.938213
     1412.000000       0.939395
     1412.100000       0.940476
     1412.200000       0.941515
     1412.300000       0.942520
     1412.400000       0.943517
     1412.500000       0.944513
     1412.600000       0.945506
     1412.700000       0.946491
     1412.800000       0.947472
     1412.900000       0.948462
     1413.000000       0.949453
     1413.100000       0.950436
     1413.200000       0.951413
     1413.300000       0.952402
