58,   58, MVIRI VIS channel from srf_MET7_2004303_2004304_1801-Release_S10EE_10.dat
Number of data points:
793
Wavenumber (cm-1)   Filter response
     8442.380800       0.000000
     8449.514200       0.000000
     8456.659600       0.000004
     8463.817200       0.000055
     8470.986900       0.000162
     8478.168700       0.000323
     8485.362700       0.000538
     8492.569000       0.000805
     8499.787500       0.001121
     8507.018300       0.001486
     8514.261400       0.001899
     8521.516800       0.002357
     8528.784600       0.002860
     8536.064900       0.003406
     8543.357500       0.003994
     8550.662700       0.004624
     8557.980300       0.005293
     8565.310500       0.006001
     8572.653200       0.006747
     8580.008600       0.007530
     8587.376600       0.008348
     8594.757200       0.009202
     8602.150500       0.010089
     8609.556600       0.011010
     8616.975400       0.011963
     8624.407100       0.012948
     8631.851500       0.013964
     8639.308900       0.015009
     8646.779100       0.016085
     8654.262200       0.017189
     8661.758300       0.018321
     8669.267400       0.019482
     8676.789600       0.020669
     8684.324800       0.021883
     8691.873100       0.023123
     8699.434500       0.024389
     8707.009100       0.025680
     8714.596900       0.026995
     8722.198000       0.028335
     8729.812300       0.029700
     8737.439900       0.031087
     8745.080900       0.032499
     8752.735200       0.033933
     8760.403000       0.035390
     8768.084200       0.036869
     8775.778900       0.038371
     8783.487000       0.039895
     8791.208800       0.041440
     8798.944100       0.043007
     8806.693100       0.044596
     8814.455700       0.046206
     8822.232000       0.047837
     8830.022100       0.049489
     8837.825900       0.051162
     8845.643500       0.052856
     8853.475000       0.054570
     8861.320300       0.056305
     8869.179600       0.058060
     8877.052800       0.059837
     8884.940000       0.061633
     8892.841300       0.063450
     8900.756600       0.065287
     8908.686000       0.067145
     8916.629500       0.069023
     8924.587200       0.070921
     8932.559200       0.072840
     8940.545400       0.074780
     8948.545900       0.076740
     8956.560700       0.078720
     8964.589900       0.080721
     8972.633500       0.082742
     8980.691500       0.084784
     8988.764000       0.086846
     8996.851100       0.088930
     9004.952700       0.091034
     9013.068900       0.093159
     9021.199800       0.095305
     9029.345400       0.097472
     9037.505600       0.099660
     9045.680700       0.101870
     9053.870500       0.104100
     9062.075200       0.106352
     9070.294800       0.108626
     9078.529300       0.110921
     9086.778700       0.113238
     9095.043200       0.115576
     9103.322700       0.117936
     9111.617300       0.120319
     9119.927000       0.122723
     9128.251900       0.125149
     9136.592100       0.127598
     9144.947400       0.130068
     9153.318100       0.132561
     9161.704100       0.135077
     9170.105500       0.137615
     9178.522300       0.140176
     9186.954500       0.142759
     9195.402300       0.145365
     9203.865600       0.147994
     9212.344500       0.150646
     9220.839100       0.153322
     9229.349300       0.156020
     9237.875300       0.158741
     9246.417000       0.161485
     9254.974500       0.164253
     9263.547900       0.167044
     9272.137200       0.169859
     9280.742500       0.172697
     9289.363700       0.175558
     9298.000900       0.178443
     9306.654300       0.181351
     9315.323700       0.184283
     9324.009300       0.187238
     9332.711200       0.190218
     9341.429200       0.193220
     9350.163600       0.196247
     9358.914400       0.199296
     9367.681500       0.202370
     9376.465100       0.205467
     9385.265100       0.208588
     9394.081700       0.211733
     9402.914900       0.214900
     9411.764700       0.218092
     9420.631200       0.221307
     9429.514400       0.224546
     9438.414300       0.227808
     9447.331100       0.231093
     9456.264800       0.234401
     9465.215300       0.237734
     9474.182900       0.241088
     9483.167400       0.244467
     9492.169000       0.247868
     9501.187600       0.251292
     9510.223500       0.254739
     9519.276500       0.258208
     9528.346800       0.261701
     9537.434400       0.265216
     9546.539400       0.268753
     9555.661700       0.272312
     9564.801500       0.275894
     9573.958800       0.279497
     9583.133700       0.283123
     9592.326100       0.286770
     9601.536200       0.290439
     9610.764100       0.294128
     9620.009600       0.297840
     9629.273000       0.301572
     9638.554200       0.305325
     9647.853400       0.309099
     9657.170400       0.312893
     9666.505600       0.316707
     9675.858700       0.320542
     9685.230000       0.324396
     9694.619500       0.328270
     9704.027200       0.332163
     9713.453100       0.336075
     9722.897400       0.340007
     9732.360100       0.343957
     9741.841200       0.347925
     9751.340800       0.351911
     9760.859000       0.355916
     9770.395700       0.359938
     9779.951100       0.363977
     9789.525200       0.368033
     9799.118100       0.372107
     9808.729800       0.376196
     9818.360300       0.380302
     9828.009800       0.384423
     9837.678300       0.388561
     9847.365800       0.392713
     9857.072400       0.396880
     9866.798200       0.401062
     9876.543200       0.405258
     9886.307500       0.409469
     9896.091000       0.413693
     9905.894000       0.417930
     9915.716400       0.422180
     9925.558300       0.426442
     9935.419800       0.430717
     9945.300800       0.435004
     9955.201600       0.439301
     9965.122100       0.443611
     9975.062300       0.447930
     9985.022500       0.452261
     9995.002500       0.456601
    10005.002500       0.460951
    10015.022500       0.465310
    10025.062700       0.469677
    10035.122900       0.474053
    10045.203400       0.478437
    10055.304200       0.482829
    10065.425300       0.487228
    10075.566800       0.491633
    10085.728700       0.496045
    10095.911200       0.500463
    10106.114200       0.504886
    10116.337900       0.509314
    10126.582300       0.513747
    10136.847400       0.518184
    10147.133400       0.522625
    10157.440300       0.527069
    10167.768200       0.531516
    10178.117000       0.535966
    10188.487000       0.540417
    10198.878100       0.544871
    10209.290500       0.549325
    10219.724100       0.553779
    10230.179000       0.558234
    10240.655400       0.562689
    10251.153300       0.567143
    10261.672700       0.571596
    10272.213700       0.576047
    10282.776300       0.580497
    10293.360800       0.584943
    10303.967000       0.589387
    10314.595200       0.593827
    10325.245200       0.598263
    10335.917300       0.602695
    10346.611500       0.607122
    10357.327800       0.611544
    10368.066400       0.615960
    10378.827200       0.620369
    10389.610400       0.624772
    10400.416000       0.629168
    10411.244100       0.633556
    10422.094800       0.637935
    10432.968200       0.642307
    10443.864200       0.646669
    10454.783100       0.651022
    10465.724800       0.655365
    10476.689400       0.659697
    10487.677000       0.664018
    10498.687700       0.668328
    10509.721500       0.672626
    10520.778500       0.676912
    10531.858900       0.681185
    10542.962600       0.685445
    10554.089700       0.689691
    10565.240400       0.693923
    10576.414600       0.698141
    10587.612500       0.702343
    10598.834100       0.706530
    10610.079600       0.710701
    10621.348900       0.714856
    10632.642200       0.718994
    10643.959600       0.723115
    10655.301000       0.727218
    10666.666700       0.731302
    10678.056600       0.735368
    10689.470900       0.739416
    10700.909600       0.743444
    10712.372800       0.747451
    10723.860600       0.751439
    10735.373100       0.755406
    10746.910300       0.759352
    10758.472300       0.763276
    10770.059200       0.767178
    10781.671200       0.771058
    10793.308100       0.774915
    10804.970300       0.778750
    10816.657700       0.782560
    10828.370300       0.786347
    10840.108400       0.790109
    10851.871900       0.793846
    10863.661100       0.797559
    10875.475800       0.801245
    10887.316300       0.804906
    10899.182600       0.808541
    10911.074700       0.812150
    10922.992900       0.815731
    10934.937100       0.819285
    10946.907500       0.822811
    10958.904100       0.826309
    10970.927000       0.829779
    10982.976400       0.833220
    10995.052200       0.836632
    11007.154700       0.840015
    11019.283700       0.843368
    11031.439600       0.846692
    11043.622300       0.849984
    11055.832000       0.853246
    11068.068600       0.856478
    11080.332400       0.859678
    11092.623400       0.862846
    11104.941700       0.865983
    11117.287400       0.869088
    11129.660500       0.872160
    11142.061300       0.875199
    11154.489700       0.878206
    11166.945800       0.881180
    11179.429800       0.884120
    11191.941800       0.887026
    11204.481800       0.889899
    11217.049900       0.892737
    11229.646300       0.895541
    11242.270900       0.898310
    11254.924000       0.901045
    11267.605600       0.903745
    11280.315800       0.906409
    11293.054800       0.909038
    11305.822500       0.911631
    11318.619100       0.914188
    11331.444800       0.916710
    11344.299500       0.919195
    11357.183400       0.921643
    11370.096600       0.924056
    11383.039300       0.926431
    11396.011400       0.928770
    11409.013100       0.931072
    11422.044500       0.933336
    11435.105800       0.935564
    11448.196900       0.937754
    11461.318100       0.939906
    11474.469300       0.942021
    11487.650800       0.944099
    11500.862600       0.946138
    11514.104800       0.948139
    11527.377500       0.950103
    11540.680900       0.952028
    11554.015000       0.953916
    11567.380000       0.955765
    11580.775900       0.957576
    11594.202900       0.959348
    11607.661100       0.961082
    11621.150500       0.962778
    11634.671300       0.964435
    11648.223600       0.966054
    11661.807600       0.967635
    11675.423200       0.969176
    11689.070700       0.970680
    11702.750100       0.972145
    11716.461600       0.973571
    11730.205300       0.974959
    11743.981200       0.976309
    11757.789500       0.977620
    11771.630400       0.978892
    11785.503800       0.980126
    11799.410000       0.981322
    11813.349100       0.982480
    11827.321100       0.983600
    11841.326200       0.984681
    11855.364600       0.985725
    11869.436200       0.986730
    11883.541300       0.987698
    11897.680000       0.988627
    11911.852300       0.989519
    11926.058400       0.990374
    11940.298500       0.991191
    11954.572600       0.991971
    11968.880900       0.992713
    11983.223500       0.993419
    11997.600500       0.994087
    12012.012000       0.994719
    12026.458200       0.995314
    12040.939200       0.995872
    12055.455100       0.996395
    12070.006000       0.996881
    12084.592100       0.997331
    12099.213600       0.997745
    12113.870400       0.998124
    12128.562800       0.998467
    12143.290800       0.998775
    12158.054700       0.999048
    12172.854500       0.999287
    12187.690400       0.999490
    12202.562500       0.999660
    12217.471000       0.999795
    12232.415900       0.999897
    12247.397400       0.999964
    12262.415700       0.999999
    12277.470800       1.000000
    12292.563000       0.999968
    12307.692300       0.999904
    12322.858900       0.999808
    12338.062900       0.999679
    12353.304500       0.999519
    12368.583800       0.999327
    12383.900900       0.999103
    12399.256000       0.998849
    12414.649300       0.998565
    12430.080800       0.998250
    12445.550700       0.997905
    12461.059200       0.997530
    12476.606400       0.997126
    12492.192400       0.996693
    12507.817400       0.996231
    12523.481500       0.995741
    12539.185000       0.995223
    12554.927800       0.994677
    12570.710200       0.994104
    12586.532400       0.993504
    12602.394500       0.992877
    12618.296500       0.992224
    12634.238800       0.991544
    12650.221400       0.990840
    12666.244500       0.990110
    12682.308200       0.989355
    12698.412700       0.988576
    12714.558200       0.987773
    12730.744700       0.986947
    12746.972600       0.986097
    12763.241900       0.985224
    12779.552700       0.984328
    12795.905300       0.983411
    12812.299800       0.982472
    12828.736400       0.981511
    12845.215200       0.980530
    12861.736300       0.979528
    12878.300100       0.978507
    12894.906500       0.977465
    12911.555800       0.976405
    12928.248200       0.975325
    12944.983800       0.974228
    12961.762800       0.973112
    12978.585300       0.971979
    12995.451600       0.970829
    13012.361700       0.969662
    13029.316000       0.968479
    13046.314400       0.967280
    13063.357300       0.966066
    13080.444700       0.964837
    13097.576900       0.963594
    13114.754100       0.962336
    13131.976400       0.961065
    13149.243900       0.959781
    13166.556900       0.958484
    13183.915600       0.957175
    13201.320100       0.955855
    13218.770700       0.954523
    13236.267400       0.953180
    13253.810500       0.951826
    13271.400100       0.950463
    13289.036500       0.949090
    13306.719900       0.947708
    13324.450400       0.946318
    13342.228200       0.944919
    13360.053400       0.943513
    13377.926400       0.942099
    13395.847300       0.940678
    13413.816200       0.939252
    13431.833400       0.937819
    13449.899100       0.936381
    13468.013500       0.934938
    13486.176700       0.933490
    13504.388900       0.932038
    13522.650400       0.930582
    13540.961400       0.929124
    13559.322000       0.927662
    13577.732500       0.926198
    13596.193100       0.924732
    13614.703900       0.923265
    13633.265200       0.921797
    13651.877100       0.920328
    13670.540000       0.918859
    13689.253900       0.917391
    13708.019200       0.915923
    13726.836000       0.914456
    13745.704500       0.912991
    13764.624900       0.911528
    13783.597500       0.910067
    13802.622500       0.908609
    13821.700100       0.907155
    13840.830400       0.905704
    13860.013900       0.904257
    13879.250500       0.902814
    13898.540700       0.901377
    13917.884500       0.899945
    13937.282200       0.898518
    13956.734100       0.897098
    13976.240400       0.895684
    13995.801300       0.894277
    14015.417000       0.892877
    14035.087700       0.891484
    14054.813800       0.890100
    14074.595400       0.888724
    14094.432700       0.887357
    14114.326000       0.885999
    14134.275600       0.884650
    14154.281700       0.883312
    14174.344400       0.881983
    14194.464200       0.880665
    14214.641100       0.879357
    14234.875400       0.878061
    14255.167500       0.876776
    14275.517500       0.875504
    14295.925700       0.874243
    14316.392300       0.872994
    14336.917600       0.871759
    14357.501800       0.870536
    14378.145200       0.869327
    14398.848100       0.868132
    14419.610700       0.866950
    14440.433200       0.865783
    14461.316000       0.864630
    14482.259200       0.863492
    14503.263200       0.862369
    14524.328200       0.861261
    14545.454500       0.860168
    14566.642400       0.859092
    14587.892000       0.858031
    14609.203800       0.856987
    14630.577900       0.855958
    14652.014700       0.854947
    14673.514300       0.853953
    14695.077100       0.852975
    14716.703500       0.852015
    14738.393500       0.851072
    14760.147600       0.850147
    14781.966000       0.849239
    14803.849000       0.848349
    14825.796900       0.847478
    14847.809900       0.846625
    14869.888500       0.845790
    14892.032800       0.844974
    14914.243100       0.844176
    14936.519800       0.843397
    14958.863100       0.842637
    14981.273400       0.841896
    15003.750900       0.841173
    15026.296000       0.840471
    15048.909000       0.839787
    15071.590100       0.839122
    15094.339600       0.838477
    15117.158000       0.837852
    15140.045400       0.837245
    15163.002300       0.836658
    15186.028900       0.836091
    15209.125500       0.835543
    15232.292500       0.835015
    15255.530100       0.834506
    15278.838800       0.834017
    15302.218800       0.833547
    15325.670500       0.833097
    15349.194200       0.832666
    15372.790200       0.832255
    15396.458800       0.831862
    15420.200500       0.831490
    15444.015400       0.831136
    15467.904100       0.830801
    15491.866800       0.830486
    15515.903800       0.830189
    15540.015500       0.829911
    15564.202300       0.829652
    15588.464500       0.829411
    15612.802500       0.829189
    15637.216600       0.828985
    15661.707100       0.828800
    15686.274500       0.828632
    15710.919100       0.828482
    15735.641200       0.828349
    15760.441300       0.828234
    15785.319700       0.828136
    15810.276700       0.828055
    15835.312700       0.827991
    15860.428200       0.827944
    15885.623500       0.827912
    15910.899000       0.827897
    15936.255000       0.827898
    15961.691900       0.827914
    15987.210200       0.827945
    16012.810200       0.827991
    16038.492400       0.828052
    16064.257000       0.828127
    16090.104600       0.828216
    16116.035500       0.828318
    16142.050000       0.828434
    16168.148700       0.828563
    16194.332000       0.828705
    16220.600200       0.828859
    16246.953700       0.829025
    16273.393000       0.829202
    16299.918500       0.829390
    16326.530600       0.829589
    16353.229800       0.829799
    16380.016400       0.830018
    16406.890900       0.830246
    16433.853700       0.830484
    16460.905300       0.830730
    16488.046200       0.830984
    16515.276600       0.831246
    16542.597200       0.831515
    16570.008300       0.831790
    16597.510400       0.832072
    16625.103900       0.832359
    16652.789300       0.832652
    16680.567100       0.832949
    16708.437800       0.833250
    16736.401700       0.833555
    16764.459300       0.833862
    16792.611300       0.834172
    16820.857900       0.834484
    16849.199700       0.834797
    16877.637100       0.835111
    16906.170800       0.835425
    16934.801000       0.835739
    16963.528400       0.836051
    16992.353400       0.836362
    17021.276600       0.836670
    17050.298400       0.836976
    17079.419300       0.837278
    17108.639900       0.837575
    17137.960600       0.837868
    17167.382000       0.838155
    17196.904600       0.838436
    17226.528900       0.838711
    17256.255400       0.838977
    17286.084700       0.839236
    17316.017300       0.839485
    17346.053800       0.839725
    17376.194600       0.839954
    17406.440400       0.840173
    17436.791600       0.840379
    17467.248900       0.840573
    17497.812800       0.840754
    17528.483800       0.840921
    17559.262500       0.841074
    17590.149500       0.841211
    17621.145400       0.841331
    17652.250700       0.841435
    17683.466000       0.841521
