47,   47, MVIRI VIS channel from srf_MET7_2003168_2003169_1801-Release_S10EE_10.dat
Number of data points:
793
Wavenumber (cm-1)   Filter response
     8442.380800       0.000000
     8449.514200       0.000000
     8456.659600       0.000004
     8463.817200       0.000054
     8470.986900       0.000160
     8478.168700       0.000320
     8485.362700       0.000533
     8492.569000       0.000797
     8499.787500       0.001111
     8507.018300       0.001472
     8514.261400       0.001881
     8521.516800       0.002335
     8528.784600       0.002833
     8536.064900       0.003375
     8543.357500       0.003958
     8550.662700       0.004581
     8557.980300       0.005245
     8565.310500       0.005946
     8572.653200       0.006685
     8580.008600       0.007461
     8587.376600       0.008272
     8594.757200       0.009118
     8602.150500       0.009998
     8609.556600       0.010910
     8616.975400       0.011855
     8624.407100       0.012831
     8631.851500       0.013838
     8639.308900       0.014874
     8646.779100       0.015940
     8654.262200       0.017035
     8661.758300       0.018157
     8669.267400       0.019308
     8676.789600       0.020485
     8684.324800       0.021688
     8691.873100       0.022918
     8699.434500       0.024172
     8707.009100       0.025452
     8714.596900       0.026757
     8722.198000       0.028086
     8729.812300       0.029438
     8737.439900       0.030815
     8745.080900       0.032214
     8752.735200       0.033636
     8760.403000       0.035081
     8768.084200       0.036548
     8775.778900       0.038038
     8783.487000       0.039549
     8791.208800       0.041082
     8798.944100       0.042636
     8806.693100       0.044212
     8814.455700       0.045809
     8822.232000       0.047427
     8830.022100       0.049065
     8837.825900       0.050725
     8845.643500       0.052405
     8853.475000       0.054106
     8861.320300       0.055827
     8869.179600       0.057569
     8877.052800       0.059331
     8884.940000       0.061113
     8892.841300       0.062916
     8900.756600       0.064739
     8908.686000       0.066582
     8916.629500       0.068446
     8924.587200       0.070330
     8932.559200       0.072234
     8940.545400       0.074159
     8948.545900       0.076104
     8956.560700       0.078069
     8964.589900       0.080055
     8972.633500       0.082060
     8980.691500       0.084087
     8988.764000       0.086135
     8996.851100       0.088203
     9004.952700       0.090291
     9013.068900       0.092401
     9021.199800       0.094531
     9029.345400       0.096683
     9037.505600       0.098855
     9045.680700       0.101049
     9053.870500       0.103263
     9062.075200       0.105499
     9070.294800       0.107757
     9078.529300       0.110035
     9086.778700       0.112336
     9095.043200       0.114658
     9103.322700       0.117002
     9111.617300       0.119367
     9119.927000       0.121755
     9128.251900       0.124165
     9136.592100       0.126596
     9144.947400       0.129050
     9153.318100       0.131526
     9161.704100       0.134025
     9170.105500       0.136546
     9178.522300       0.139090
     9186.954500       0.141656
     9195.402300       0.144245
     9203.865600       0.146857
     9212.344500       0.149491
     9220.839100       0.152149
     9229.349300       0.154830
     9237.875300       0.157533
     9246.417000       0.160260
     9254.974500       0.163010
     9263.547900       0.165784
     9272.137200       0.168580
     9280.742500       0.171400
     9289.363700       0.174244
     9298.000900       0.177111
     9306.654300       0.180001
     9315.323700       0.182915
     9324.009300       0.185852
     9332.711200       0.188814
     9341.429200       0.191798
     9350.163600       0.194806
     9358.914400       0.197838
     9367.681500       0.200893
     9376.465100       0.203972
     9385.265100       0.207075
     9394.081700       0.210201
     9402.914900       0.213350
     9411.764700       0.216524
     9420.631200       0.219720
     9429.514400       0.222940
     9438.414300       0.226184
     9447.331100       0.229451
     9456.264800       0.232741
     9465.215300       0.236054
     9474.182900       0.239391
     9483.167400       0.242751
     9492.169000       0.246133
     9501.187600       0.249539
     9510.223500       0.252967
     9519.276500       0.256418
     9528.346800       0.259892
     9537.434400       0.263389
     9546.539400       0.266907
     9555.661700       0.270449
     9564.801500       0.274011
     9573.958800       0.277597
     9583.133700       0.281204
     9592.326100       0.284833
     9601.536200       0.288483
     9610.764100       0.292155
     9620.009600       0.295848
     9629.273000       0.299562
     9638.554200       0.303297
     9647.853400       0.307052
     9657.170400       0.310828
     9666.505600       0.314625
     9675.858700       0.318442
     9685.230000       0.322278
     9694.619500       0.326134
     9704.027200       0.330009
     9713.453100       0.333904
     9722.897400       0.337818
     9732.360100       0.341750
     9741.841200       0.345701
     9751.340800       0.349670
     9760.859000       0.353657
     9770.395700       0.357662
     9779.951100       0.361684
     9789.525200       0.365724
     9799.118100       0.369780
     9808.729800       0.373853
     9818.360300       0.377942
     9828.009800       0.382047
     9837.678300       0.386168
     9847.365800       0.390304
     9857.072400       0.394455
     9866.798200       0.398622
     9876.543200       0.402802
     9886.307500       0.406996
     9896.091000       0.411205
     9905.894000       0.415426
     9915.716400       0.419661
     9925.558300       0.423908
     9935.419800       0.428168
     9945.300800       0.432440
     9955.201600       0.436723
     9965.122100       0.441018
     9975.062300       0.445323
     9985.022500       0.449640
     9995.002500       0.453966
    10005.002500       0.458302
    10015.022500       0.462647
    10025.062700       0.467002
    10035.122900       0.471365
    10045.203400       0.475736
    10055.304200       0.480115
    10065.425300       0.484501
    10075.566800       0.488894
    10085.728700       0.493294
    10095.911200       0.497700
    10106.114200       0.502111
    10116.337900       0.506528
    10126.582300       0.510950
    10136.847400       0.515376
    10147.133400       0.519806
    10157.440300       0.524240
    10167.768200       0.528676
    10178.117000       0.533116
    10188.487000       0.537558
    10198.878100       0.542001
    10209.290500       0.546446
    10219.724100       0.550892
    10230.179000       0.555338
    10240.655400       0.559785
    10251.153300       0.564231
    10261.672700       0.568675
    10272.213700       0.573119
    10282.776300       0.577561
    10293.360800       0.582001
    10303.967000       0.586437
    10314.595200       0.590871
    10325.245200       0.595301
    10335.917300       0.599727
    10346.611500       0.604148
    10357.327800       0.608565
    10368.066400       0.612975
    10378.827200       0.617380
    10389.610400       0.621779
    10400.416000       0.626170
    10411.244100       0.630555
    10422.094800       0.634931
    10432.968200       0.639299
    10443.864200       0.643659
    10454.783100       0.648009
    10465.724800       0.652350
    10476.689400       0.656680
    10487.677000       0.661000
    10498.687700       0.665309
    10509.721500       0.669606
    10520.778500       0.673891
    10531.858900       0.678164
    10542.962600       0.682425
    10554.089700       0.686671
    10565.240400       0.690904
    10576.414600       0.695123
    10587.612500       0.699327
    10598.834100       0.703516
    10610.079600       0.707689
    10621.348900       0.711846
    10632.642200       0.715987
    10643.959600       0.720111
    10655.301000       0.724218
    10666.666700       0.728307
    10678.056600       0.732377
    10689.470900       0.736429
    10700.909600       0.740462
    10712.372800       0.744476
    10723.860600       0.748469
    10735.373100       0.752442
    10746.910300       0.756395
    10758.472300       0.760326
    10770.059200       0.764235
    10781.671200       0.768123
    10793.308100       0.771988
    10804.970300       0.775831
    10816.657700       0.779650
    10828.370300       0.783446
    10840.108400       0.787217
    10851.871900       0.790965
    10863.661100       0.794688
    10875.475800       0.798385
    10887.316300       0.802057
    10899.182600       0.805703
    10911.074700       0.809323
    10922.992900       0.812917
    10934.937100       0.816483
    10946.907500       0.820022
    10958.904100       0.823533
    10970.927000       0.827017
    10982.976400       0.830472
    10995.052200       0.833899
    11007.154700       0.837296
    11019.283700       0.840664
    11031.439600       0.844003
    11043.622300       0.847311
    11055.832000       0.850590
    11068.068600       0.853837
    11080.332400       0.857054
    11092.623400       0.860240
    11104.941700       0.863394
    11117.287400       0.866517
    11129.660500       0.869607
    11142.061300       0.872666
    11154.489700       0.875691
    11166.945800       0.878684
    11179.429800       0.881644
    11191.941800       0.884570
    11204.481800       0.887463
    11217.049900       0.890322
    11229.646300       0.893147
    11242.270900       0.895938
    11254.924000       0.898694
    11267.605600       0.901416
    11280.315800       0.904102
    11293.054800       0.906754
    11305.822500       0.909370
    11318.619100       0.911951
    11331.444800       0.914496
    11344.299500       0.917005
    11357.183400       0.919478
    11370.096600       0.921915
    11383.039300       0.924316
    11396.011400       0.926680
    11409.013100       0.929007
    11422.044500       0.931298
    11435.105800       0.933551
    11448.196900       0.935768
    11461.318100       0.937947
    11474.469300       0.940089
    11487.650800       0.942194
    11500.862600       0.944261
    11514.104800       0.946290
    11527.377500       0.948282
    11540.680900       0.950236
    11554.015000       0.952152
    11567.380000       0.954030
    11580.775900       0.955871
    11594.202900       0.957673
    11607.661100       0.959437
    11621.150500       0.961163
    11634.671300       0.962850
    11648.223600       0.964500
    11661.807600       0.966111
    11675.423200       0.967684
    11689.070700       0.969219
    11702.750100       0.970715
    11716.461600       0.972174
    11730.205300       0.973594
    11743.981200       0.974976
    11757.789500       0.976319
    11771.630400       0.977625
    11785.503800       0.978892
    11799.410000       0.980121
    11813.349100       0.981312
    11827.321100       0.982466
    11841.326200       0.983581
    11855.364600       0.984658
    11869.436200       0.985698
    11883.541300       0.986700
    11897.680000       0.987665
    11911.852300       0.988592
    11926.058400       0.989481
    11940.298500       0.990333
    11954.572600       0.991148
    11968.880900       0.991927
    11983.223500       0.992668
    11997.600500       0.993372
    12012.012000       0.994040
    12026.458200       0.994671
    12040.939200       0.995266
    12055.455100       0.995825
    12070.006000       0.996347
    12084.592100       0.996834
    12099.213600       0.997286
    12113.870400       0.997701
    12128.562800       0.998082
    12143.290800       0.998427
    12158.054700       0.998738
    12172.854500       0.999014
    12187.690400       0.999255
    12202.562500       0.999462
    12217.471000       0.999636
    12232.415900       0.999775
    12247.397400       0.999881
    12262.415700       0.999954
    12277.470800       0.999993
    12292.563000       1.000000
    12307.692300       0.999974
    12322.858900       0.999916
    12338.062900       0.999826
    12353.304500       0.999705
    12368.583800       0.999551
    12383.900900       0.999367
    12399.256000       0.999152
    12414.649300       0.998906
    12430.080800       0.998631
    12445.550700       0.998325
    12461.059200       0.997989
    12476.606400       0.997624
    12492.192400       0.997231
    12507.817400       0.996808
    12523.481500       0.996357
    12539.185000       0.995879
    12554.927800       0.995372
    12570.710200       0.994838
    12586.532400       0.994278
    12602.394500       0.993690
    12618.296500       0.993077
    12634.238800       0.992437
    12650.221400       0.991772
    12666.244500       0.991082
    12682.308200       0.990367
    12698.412700       0.989627
    12714.558200       0.988864
    12730.744700       0.988077
    12746.972600       0.987266
    12763.241900       0.986433
    12779.552700       0.985577
    12795.905300       0.984699
    12812.299800       0.983800
    12828.736400       0.982879
    12845.215200       0.981937
    12861.736300       0.980975
    12878.300100       0.979993
    12894.906500       0.978991
    12911.555800       0.977970
    12928.248200       0.976930
    12944.983800       0.975872
    12961.762800       0.974796
    12978.585300       0.973702
    12995.451600       0.972591
    13012.361700       0.971464
    13029.316000       0.970320
    13046.314400       0.969161
    13063.357300       0.967986
    13080.444700       0.966796
    13097.576900       0.965592
    13114.754100       0.964374
    13131.976400       0.963142
    13149.243900       0.961897
    13166.556900       0.960639
    13183.915600       0.959369
    13201.320100       0.958087
    13218.770700       0.956794
    13236.267400       0.955490
    13253.810500       0.954175
    13271.400100       0.952851
    13289.036500       0.951517
    13306.719900       0.950173
    13324.450400       0.948821
    13342.228200       0.947461
    13360.053400       0.946093
    13377.926400       0.944718
    13395.847300       0.943336
    13413.816200       0.941948
    13431.833400       0.940553
    13449.899100       0.939154
    13468.013500       0.937749
    13486.176700       0.936339
    13504.388900       0.934925
    13522.650400       0.933508
    13540.961400       0.932087
    13559.322000       0.930664
    13577.732500       0.929238
    13596.193100       0.927810
    13614.703900       0.926381
    13633.265200       0.924951
    13651.877100       0.923520
    13670.540000       0.922089
    13689.253900       0.920658
    13708.019200       0.919228
    13726.836000       0.917799
    13745.704500       0.916372
    13764.624900       0.914946
    13783.597500       0.913523
    13802.622500       0.912103
    13821.700100       0.910686
    13840.830400       0.909272
    13860.013900       0.907863
    13879.250500       0.906458
    13898.540700       0.905058
    13917.884500       0.903664
    13937.282200       0.902274
    13956.734100       0.900892
    13976.240400       0.899515
    13995.801300       0.898145
    14015.417000       0.896783
    14035.087700       0.895428
    14054.813800       0.894082
    14074.595400       0.892743
    14094.432700       0.891414
    14114.326000       0.890093
    14134.275600       0.888782
    14154.281700       0.887481
    14174.344400       0.886190
    14194.464200       0.884909
    14214.641100       0.883639
    14234.875400       0.882381
    14255.167500       0.881134
    14275.517500       0.879899
    14295.925700       0.878676
    14316.392300       0.877465
    14336.917600       0.876267
    14357.501800       0.875083
    14378.145200       0.873912
    14398.848100       0.872754
    14419.610700       0.871611
    14440.433200       0.870482
    14461.316000       0.869367
    14482.259200       0.868267
    14503.263200       0.867182
    14524.328200       0.866113
    14545.454500       0.865059
    14566.642400       0.864021
    14587.892000       0.862999
    14609.203800       0.861993
    14630.577900       0.861004
    14652.014700       0.860031
    14673.514300       0.859076
    14695.077100       0.858137
    14716.703500       0.857216
    14738.393500       0.856313
    14760.147600       0.855427
    14781.966000       0.854559
    14803.849000       0.853710
    14825.796900       0.852878
    14847.809900       0.852065
    14869.888500       0.851270
    14892.032800       0.850494
    14914.243100       0.849737
    14936.519800       0.848998
    14958.863100       0.848279
    14981.273400       0.847579
    15003.750900       0.846898
    15026.296000       0.846236
    15048.909000       0.845594
    15071.590100       0.844971
    15094.339600       0.844367
    15117.158000       0.843784
    15140.045400       0.843219
    15163.002300       0.842675
    15186.028900       0.842150
    15209.125500       0.841645
    15232.292500       0.841159
    15255.530100       0.840694
    15278.838800       0.840248
    15302.218800       0.839821
    15325.670500       0.839415
    15349.194200       0.839028
    15372.790200       0.838660
    15396.458800       0.838312
    15420.200500       0.837984
    15444.015400       0.837675
    15467.904100       0.837386
    15491.866800       0.837115
    15515.903800       0.836864
    15540.015500       0.836632
    15564.202300       0.836419
    15588.464500       0.836224
    15612.802500       0.836048
    15637.216600       0.835891
    15661.707100       0.835752
    15686.274500       0.835631
    15710.919100       0.835529
    15735.641200       0.835444
    15760.441300       0.835377
    15785.319700       0.835327
    15810.276700       0.835294
    15835.312700       0.835279
    15860.428200       0.835280
    15885.623500       0.835298
    15910.899000       0.835332
    15936.255000       0.835382
    15961.691900       0.835448
    15987.210200       0.835529
    16012.810200       0.835626
    16038.492400       0.835737
    16064.257000       0.835863
    16090.104600       0.836004
    16116.035500       0.836158
    16142.050000       0.836326
    16168.148700       0.836507
    16194.332000       0.836701
    16220.600200       0.836907
    16246.953700       0.837125
    16273.393000       0.837356
    16299.918500       0.837597
    16326.530600       0.837850
    16353.229800       0.838113
    16380.016400       0.838386
    16406.890900       0.838669
    16433.853700       0.838961
    16460.905300       0.839262
    16488.046200       0.839571
    16515.276600       0.839889
    16542.597200       0.840213
    16570.008300       0.840544
    16597.510400       0.840882
    16625.103900       0.841225
    16652.789300       0.841574
    16680.567100       0.841928
    16708.437800       0.842286
    16736.401700       0.842647
    16764.459300       0.843012
    16792.611300       0.843380
    16820.857900       0.843749
    16849.199700       0.844120
    16877.637100       0.844492
    16906.170800       0.844864
    16934.801000       0.845236
    16963.528400       0.845607
    16992.353400       0.845977
    17021.276600       0.846344
    17050.298400       0.846708
    17079.419300       0.847069
    17108.639900       0.847426
    17137.960600       0.847778
    17167.382000       0.848125
    17196.904600       0.848466
    17226.528900       0.848799
    17256.255400       0.849126
    17286.084700       0.849444
    17316.017300       0.849753
    17346.053800       0.850053
    17376.194600       0.850342
    17406.440400       0.850621
    17436.791600       0.850887
    17467.248900       0.851141
    17497.812800       0.851382
    17528.483800       0.851609
    17559.262500       0.851822
    17590.149500       0.852018
    17621.145400       0.852199
    17652.250700       0.852363
    17683.466000       0.852508
