55,   55, MVIRI VIS channel from srf_MET2_1988348_1988349_1801-Release_S10EL_10.dat
Number of data points:
730
Wavenumber (cm-1)   Filter response
     8916.629500       0.000000
     8924.587200       0.000000
     8932.559200       0.000002
     8940.545400       0.000012
     8948.545900       0.000032
     8956.560700       0.000069
     8964.589900       0.000127
     8972.633500       0.000210
     8980.691500       0.000321
     8988.764000       0.000465
     8996.851100       0.000645
     9004.952700       0.000865
     9013.068900       0.001128
     9021.199800       0.001437
     9029.345400       0.001796
     9037.505600       0.002208
     9045.680700       0.002674
     9053.870500       0.003199
     9062.075200       0.003784
     9070.294800       0.004431
     9078.529300       0.005144
     9086.778700       0.005923
     9095.043200       0.006772
     9103.322700       0.007692
     9111.617300       0.008684
     9119.927000       0.009750
     9128.251900       0.010893
     9136.592100       0.012113
     9144.947400       0.013411
     9153.318100       0.014789
     9161.704100       0.016247
     9170.105500       0.017788
     9178.522300       0.019412
     9186.954500       0.021119
     9195.402300       0.022910
     9203.865600       0.024787
     9212.344500       0.026749
     9220.839100       0.028797
     9229.349300       0.030931
     9237.875300       0.033153
     9246.417000       0.035460
     9254.974500       0.037856
     9263.547900       0.040338
     9272.137200       0.042907
     9280.742500       0.045564
     9289.363700       0.048308
     9298.000900       0.051139
     9306.654300       0.054056
     9315.323700       0.057059
     9324.009300       0.060149
     9332.711200       0.063324
     9341.429200       0.066584
     9350.163600       0.069929
     9358.914400       0.073357
     9367.681500       0.076869
     9376.465100       0.080464
     9385.265100       0.084140
     9394.081700       0.087899
     9402.914900       0.091737
     9411.764700       0.095655
     9420.631200       0.099652
     9429.514400       0.103726
     9438.414300       0.107877
     9447.331100       0.112104
     9456.264800       0.116407
     9465.215300       0.120783
     9474.182900       0.125231
     9483.167400       0.129752
     9492.169000       0.134343
     9501.187600       0.139003
     9510.223500       0.143732
     9519.276500       0.148527
     9528.346800       0.153388
     9537.434400       0.158314
     9546.539400       0.163303
     9555.661700       0.168354
     9564.801500       0.173465
     9573.958800       0.178637
     9583.133700       0.183866
     9592.326100       0.189151
     9601.536200       0.194492
     9610.764100       0.199887
     9620.009600       0.205335
     9629.273000       0.210834
     9638.554200       0.216382
     9647.853400       0.221979
     9657.170400       0.227622
     9666.505600       0.233311
     9675.858700       0.239045
     9685.230000       0.244821
     9694.619500       0.250638
     9704.027200       0.256495
     9713.453100       0.262390
     9722.897400       0.268323
     9732.360100       0.274290
     9741.841200       0.280292
     9751.340800       0.286326
     9760.859000       0.292392
     9770.395700       0.298488
     9779.951100       0.304611
     9789.525200       0.310761
     9799.118100       0.316937
     9808.729800       0.323137
     9818.360300       0.329359
     9828.009800       0.335602
     9837.678300       0.341865
     9847.365800       0.348147
     9857.072400       0.354445
     9866.798200       0.360759
     9876.543200       0.367087
     9886.307500       0.373428
     9896.091000       0.379781
     9905.894000       0.386143
     9915.716400       0.392514
     9925.558300       0.398893
     9935.419800       0.405278
     9945.300800       0.411667
     9955.201600       0.418060
     9965.122100       0.424456
     9975.062300       0.430851
     9985.022500       0.437247
     9995.002500       0.443642
    10005.002500       0.450033
    10015.022500       0.456421
    10025.062700       0.462803
    10035.122900       0.469178
    10045.203400       0.475546
    10055.304200       0.481906
    10065.425300       0.488255
    10075.566800       0.494593
    10085.728700       0.500919
    10095.911200       0.507232
    10106.114200       0.513530
    10116.337900       0.519813
    10126.582300       0.526079
    10136.847400       0.532328
    10147.133400       0.538558
    10157.440300       0.544768
    10167.768200       0.550958
    10178.117000       0.557126
    10188.487000       0.563271
    10198.878100       0.569394
    10209.290500       0.575491
    10219.724100       0.581563
    10230.179000       0.587608
    10240.655400       0.593627
    10251.153300       0.599618
    10261.672700       0.605579
    10272.213700       0.611511
    10282.776300       0.617412
    10293.360800       0.623282
    10303.967000       0.629120
    10314.595200       0.634925
    10325.245200       0.640696
    10335.917300       0.646433
    10346.611500       0.652135
    10357.327800       0.657800
    10368.066400       0.663430
    10378.827200       0.669022
    10389.610400       0.674576
    10400.416000       0.680092
    10411.244100       0.685569
    10422.094800       0.691006
    10432.968200       0.696403
    10443.864200       0.701760
    10454.783100       0.707074
    10465.724800       0.712347
    10476.689400       0.717578
    10487.677000       0.722765
    10498.687700       0.727909
    10509.721500       0.733010
    10520.778500       0.738065
    10531.858900       0.743076
    10542.962600       0.748043
    10554.089700       0.752963
    10565.240400       0.757837
    10576.414600       0.762665
    10587.612500       0.767446
    10598.834100       0.772180
    10610.079600       0.776867
    10621.348900       0.781506
    10632.642200       0.786097
    10643.959600       0.790640
    10655.301000       0.795133
    10666.666700       0.799578
    10678.056600       0.803974
    10689.470900       0.808321
    10700.909600       0.812618
    10712.372800       0.816865
    10723.860600       0.821063
    10735.373100       0.825210
    10746.910300       0.829307
    10758.472300       0.833353
    10770.059200       0.837349
    10781.671200       0.841294
    10793.308100       0.845188
    10804.970300       0.849031
    10816.657700       0.852824
    10828.370300       0.856565
    10840.108400       0.860254
    10851.871900       0.863893
    10863.661100       0.867481
    10875.475800       0.871017
    10887.316300       0.874501
    10899.182600       0.877935
    10911.074700       0.881317
    10922.992900       0.884648
    10934.937100       0.887927
    10946.907500       0.891155
    10958.904100       0.894332
    10970.927000       0.897458
    10982.976400       0.900532
    10995.052200       0.903555
    11007.154700       0.906528
    11019.283700       0.909450
    11031.439600       0.912320
    11043.622300       0.915141
    11055.832000       0.917910
    11068.068600       0.920629
    11080.332400       0.923298
    11092.623400       0.925917
    11104.941700       0.928485
    11117.287400       0.931004
    11129.660500       0.933473
    11142.061300       0.935892
    11154.489700       0.938262
    11166.945800       0.940583
    11179.429800       0.942855
    11191.941800       0.945078
    11204.481800       0.947253
    11217.049900       0.949379
    11229.646300       0.951457
    11242.270900       0.953487
    11254.924000       0.955469
    11267.605600       0.957404
    11280.315800       0.959292
    11293.054800       0.961132
    11305.822500       0.962926
    11318.619100       0.964674
    11331.444800       0.966375
    11344.299500       0.968030
    11357.183400       0.969639
    11370.096600       0.971203
    11383.039300       0.972722
    11396.011400       0.974196
    11409.013100       0.975626
    11422.044500       0.977011
    11435.105800       0.978352
    11448.196900       0.979649
    11461.318100       0.980903
    11474.469300       0.982114
    11487.650800       0.983282
    11500.862600       0.984408
    11514.104800       0.985491
    11527.377500       0.986533
    11540.680900       0.987533
    11554.015000       0.988491
    11567.380000       0.989409
    11580.775900       0.990286
    11594.202900       0.991123
    11607.661100       0.991920
    11621.150500       0.992677
    11634.671300       0.993395
    11648.223600       0.994073
    11661.807600       0.994713
    11675.423200       0.995315
    11689.070700       0.995879
    11702.750100       0.996405
    11716.461600       0.996894
    11730.205300       0.997346
    11743.981200       0.997761
    11757.789500       0.998139
    11771.630400       0.998482
    11785.503800       0.998789
    11799.410000       0.999061
    11813.349100       0.999297
    11827.321100       0.999499
    11841.326200       0.999666
    11855.364600       0.999800
    11869.436200       0.999900
    11883.541300       0.999966
    11897.680000       0.999999
    11911.852300       1.000000
    11926.058400       0.999968
    11940.298500       0.999904
    11954.572600       0.999809
    11968.880900       0.999682
    11983.223500       0.999524
    11997.600500       0.999335
    12012.012000       0.999115
    12026.458200       0.998866
    12040.939200       0.998587
    12055.455100       0.998278
    12070.006000       0.997940
    12084.592100       0.997573
    12099.213600       0.997177
    12113.870400       0.996754
    12128.562800       0.996302
    12143.290800       0.995822
    12158.054700       0.995316
    12172.854500       0.994782
    12187.690400       0.994221
    12202.562500       0.993634
    12217.471000       0.993021
    12232.415900       0.992382
    12247.397400       0.991717
    12262.415700       0.991027
    12277.470800       0.990312
    12292.563000       0.989572
    12307.692300       0.988808
    12322.858900       0.988019
    12338.062900       0.987207
    12353.304500       0.986371
    12368.583800       0.985511
    12383.900900       0.984628
    12399.256000       0.983723
    12414.649300       0.982795
    12430.080800       0.981844
    12445.550700       0.980872
    12461.059200       0.979877
    12476.606400       0.978861
    12492.192400       0.977823
    12507.817400       0.976765
    12523.481500       0.975685
    12539.185000       0.974585
    12554.927800       0.973464
    12570.710200       0.972324
    12586.532400       0.971163
    12602.394500       0.969982
    12618.296500       0.968782
    12634.238800       0.967563
    12650.221400       0.966324
    12666.244500       0.965067
    12682.308200       0.963791
    12698.412700       0.962496
    12714.558200       0.961184
    12730.744700       0.959853
    12746.972600       0.958504
    12763.241900       0.957137
    12779.552700       0.955754
    12795.905300       0.954352
    12812.299800       0.952934
    12828.736400       0.951498
    12845.215200       0.950046
    12861.736300       0.948578
    12878.300100       0.947092
    12894.906500       0.945591
    12911.555800       0.944074
    12928.248200       0.942540
    12944.983800       0.940991
    12961.762800       0.939426
    12978.585300       0.937846
    12995.451600       0.936250
    13012.361700       0.934640
    13029.316000       0.933014
    13046.314400       0.931374
    13063.357300       0.929718
    13080.444700       0.928049
    13097.576900       0.926364
    13114.754100       0.924666
    13131.976400       0.922953
    13149.243900       0.921227
    13166.556900       0.919486
    13183.915600       0.917731
    13201.320100       0.915963
    13218.770700       0.914182
    13236.267400       0.912387
    13253.810500       0.910578
    13271.400100       0.908757
    13289.036500       0.906922
    13306.719900       0.905075
    13324.450400       0.903214
    13342.228200       0.901341
    13360.053400       0.899455
    13377.926400       0.897557
    13395.847300       0.895646
    13413.816200       0.893723
    13431.833400       0.891787
    13449.899100       0.889840
    13468.013500       0.887880
    13486.176700       0.885908
    13504.388900       0.883925
    13522.650400       0.881930
    13540.961400       0.879923
    13559.322000       0.877904
    13577.732500       0.875874
    13596.193100       0.873832
    13614.703900       0.871779
    13633.265200       0.869715
    13651.877100       0.867639
    13670.540000       0.865552
    13689.253900       0.863455
    13708.019200       0.861346
    13726.836000       0.859226
    13745.704500       0.857096
    13764.624900       0.854954
    13783.597500       0.852802
    13802.622500       0.850640
    13821.700100       0.848467
    13840.830400       0.846283
    13860.013900       0.844089
    13879.250500       0.841885
    13898.540700       0.839670
    13917.884500       0.837445
    13937.282200       0.835210
    13956.734100       0.832965
    13976.240400       0.830710
    13995.801300       0.828445
    14015.417000       0.826170
    14035.087700       0.823885
    14054.813800       0.821590
    14074.595400       0.819286
    14094.432700       0.816972
    14114.326000       0.814649
    14134.275600       0.812316
    14154.281700       0.809973
    14174.344400       0.807622
    14194.464200       0.805261
    14214.641100       0.802890
    14234.875400       0.800511
    14255.167500       0.798122
    14275.517500       0.795725
    14295.925700       0.793318
    14316.392300       0.790903
    14336.917600       0.788478
    14357.501800       0.786045
    14378.145200       0.783604
    14398.848100       0.781153
    14419.610700       0.778694
    14440.433200       0.776227
    14461.316000       0.773751
    14482.259200       0.771266
    14503.263200       0.768774
    14524.328200       0.766273
    14545.454500       0.763764
    14566.642400       0.761247
    14587.892000       0.758722
    14609.203800       0.756189
    14630.577900       0.753648
    14652.014700       0.751100
    14673.514300       0.748543
    14695.077100       0.745979
    14716.703500       0.743408
    14738.393500       0.740829
    14760.147600       0.738243
    14781.966000       0.735649
    14803.849000       0.733049
    14825.796900       0.730441
    14847.809900       0.727826
    14869.888500       0.725204
    14892.032800       0.722576
    14914.243100       0.719940
    14936.519800       0.717298
    14958.863100       0.714649
    14981.273400       0.711994
    15003.750900       0.709333
    15026.296000       0.706665
    15048.909000       0.703991
    15071.590100       0.701311
    15094.339600       0.698625
    15117.158000       0.695932
    15140.045400       0.693235
    15163.002300       0.690531
    15186.028900       0.687822
    15209.125500       0.685107
    15232.292500       0.682387
    15255.530100       0.679662
    15278.838800       0.676932
    15302.218800       0.674196
    15325.670500       0.671456
    15349.194200       0.668711
    15372.790200       0.665961
    15396.458800       0.663206
    15420.200500       0.660447
    15444.015400       0.657684
    15467.904100       0.654916
    15491.866800       0.652145
    15515.903800       0.649369
    15540.015500       0.646590
    15564.202300       0.643806
    15588.464500       0.641020
    15612.802500       0.638229
    15637.216600       0.635436
    15661.707100       0.632639
    15686.274500       0.629839
    15710.919100       0.627036
    15735.641200       0.624230
    15760.441300       0.621422
    15785.319700       0.618611
    15810.276700       0.615797
    15835.312700       0.612982
    15860.428200       0.610164
    15885.623500       0.607344
    15910.899000       0.604522
    15936.255000       0.601699
    15961.691900       0.598874
    15987.210200       0.596047
    16012.810200       0.593219
    16038.492400       0.590390
    16064.257000       0.587560
    16090.104600       0.584730
    16116.035500       0.581898
    16142.050000       0.579066
    16168.148700       0.576233
    16194.332000       0.573401
    16220.600200       0.570568
    16246.953700       0.567735
    16273.393000       0.564902
    16299.918500       0.562070
    16326.530600       0.559238
    16353.229800       0.556406
    16380.016400       0.553576
    16406.890900       0.550746
    16433.853700       0.547917
    16460.905300       0.545090
    16488.046200       0.542264
    16515.276600       0.539439
    16542.597200       0.536616
    16570.008300       0.533795
    16597.510400       0.530976
    16625.103900       0.528159
    16652.789300       0.525344
    16680.567100       0.522532
    16708.437800       0.519722
    16736.401700       0.516915
    16764.459300       0.514111
    16792.611300       0.511310
    16820.857900       0.508512
    16849.199700       0.505717
    16877.637100       0.502925
    16906.170800       0.500138
    16934.801000       0.497353
    16963.528400       0.494573
    16992.353400       0.491797
    17021.276600       0.489025
    17050.298400       0.486257
    17079.419300       0.483493
    17108.639900       0.480734
    17137.960600       0.477980
    17167.382000       0.475231
    17196.904600       0.472486
    17226.528900       0.469747
    17256.255400       0.467012
    17286.084700       0.464283
    17316.017300       0.461560
    17346.053800       0.458842
    17376.194600       0.456130
    17406.440400       0.453423
    17436.791600       0.450723
    17467.248900       0.448028
    17497.812800       0.445340
    17528.483800       0.442658
    17559.262500       0.439982
    17590.149500       0.437313
    17621.145400       0.434650
    17652.250700       0.431994
    17683.466000       0.429345
    17714.791900       0.426703
    17746.228900       0.424067
    17777.777800       0.421439
    17809.439000       0.418818
    17841.213200       0.416204
    17873.101000       0.413597
    17905.103000       0.410998
    17937.219700       0.408407
    17969.451900       0.405822
    18001.800200       0.403246
    18034.265100       0.400677
    18066.847300       0.398116
    18099.547500       0.395562
    18132.366300       0.393017
    18165.304300       0.390479
    18198.362100       0.387950
    18231.540600       0.385428
    18264.840200       0.382915
    18298.261700       0.380409
    18331.805700       0.377912
    18365.472900       0.375423
    18399.264000       0.372942
    18433.179700       0.370470
    18467.220700       0.368005
    18501.387600       0.365549
    18535.681200       0.363101
    18570.102100       0.360662
    18604.651200       0.358231
    18639.329000       0.355808
    18674.136300       0.353393
    18709.073900       0.350987
    18744.142500       0.348589
    18779.342700       0.346199
    18814.675400       0.343818
    18850.141400       0.341444
    18885.741300       0.339079
    18921.475900       0.336723
    18957.346000       0.334374
    18993.352300       0.332033
    19029.495700       0.329701
    19065.776900       0.327377
    19102.196800       0.325060
    19138.756000       0.322752
    19175.455400       0.320451
    19212.295900       0.318158
    19249.278200       0.315873
    19286.403100       0.313596
    19323.671500       0.311326
    19361.084200       0.309064
    19398.642100       0.306809
    19436.346000       0.304561
    19474.196700       0.302321
    19512.195100       0.300088
    19550.342100       0.297862
    19588.638600       0.295643
    19627.085400       0.293431
    19665.683400       0.291225
    19704.433500       0.289026
    19743.336600       0.286834
    19782.393700       0.284648
    19821.605600       0.282468
    19860.973200       0.280294
    19900.497500       0.278126
