90,   90, MVIRI VIS channel from srf_MET7_2008303_2008304_1801-Release_S10EE_10.dat
Number of data points:
793
Wavenumber (cm-1)   Filter response
     8442.380800       0.000000
     8449.514200       0.000000
     8456.659600       0.000004
     8463.817200       0.000056
     8470.986900       0.000165
     8478.168700       0.000330
     8485.362700       0.000550
     8492.569000       0.000822
     8499.787500       0.001145
     8507.018300       0.001518
     8514.261400       0.001939
     8521.516800       0.002407
     8528.784600       0.002920
     8536.064900       0.003478
     8543.357500       0.004079
     8550.662700       0.004721
     8557.980300       0.005405
     8565.310500       0.006127
     8572.653200       0.006889
     8580.008600       0.007687
     8587.376600       0.008523
     8594.757200       0.009394
     8602.150500       0.010299
     8609.556600       0.011239
     8616.975400       0.012211
     8624.407100       0.013216
     8631.851500       0.014252
     8639.308900       0.015319
     8646.779100       0.016416
     8654.262200       0.017542
     8661.758300       0.018697
     8669.267400       0.019880
     8676.789600       0.021091
     8684.324800       0.022329
     8691.873100       0.023593
     8699.434500       0.024883
     8707.009100       0.026200
     8714.596900       0.027541
     8722.198000       0.028907
     8729.812300       0.030298
     8737.439900       0.031712
     8745.080900       0.033150
     8752.735200       0.034612
     8760.403000       0.036096
     8768.084200       0.037604
     8775.778900       0.039134
     8783.487000       0.040686
     8791.208800       0.042261
     8798.944100       0.043857
     8806.693100       0.045475
     8814.455700       0.047115
     8822.232000       0.048776
     8830.022100       0.050458
     8837.825900       0.052162
     8845.643500       0.053886
     8853.475000       0.055632
     8861.320300       0.057398
     8869.179600       0.059185
     8877.052800       0.060993
     8884.940000       0.062822
     8892.841300       0.064671
     8900.756600       0.066541
     8908.686000       0.068432
     8916.629500       0.070343
     8924.587200       0.072274
     8932.559200       0.074227
     8940.545400       0.076200
     8948.545900       0.078193
     8956.560700       0.080207
     8964.589900       0.082243
     8972.633500       0.084298
     8980.691500       0.086375
     8988.764000       0.088473
     8996.851100       0.090591
     9004.952700       0.092730
     9013.068900       0.094891
     9021.199800       0.097073
     9029.345400       0.099276
     9037.505600       0.101500
     9045.680700       0.103746
     9053.870500       0.106012
     9062.075200       0.108301
     9070.294800       0.110612
     9078.529300       0.112943
     9086.778700       0.115297
     9095.043200       0.117673
     9103.322700       0.120071
     9111.617300       0.122490
     9119.927000       0.124932
     9128.251900       0.127397
     9136.592100       0.129883
     9144.947400       0.132392
     9153.318100       0.134924
     9161.704100       0.137478
     9170.105500       0.140055
     9178.522300       0.142654
     9186.954500       0.145277
     9195.402300       0.147922
     9203.865600       0.150590
     9212.344500       0.153282
     9220.839100       0.155997
     9229.349300       0.158734
     9237.875300       0.161496
     9246.417000       0.164280
     9254.974500       0.167088
     9263.547900       0.169919
     9272.137200       0.172774
     9280.742500       0.175652
     9289.363700       0.178554
     9298.000900       0.181479
     9306.654300       0.184429
     9315.323700       0.187401
     9324.009300       0.190398
     9332.711200       0.193418
     9341.429200       0.196462
     9350.163600       0.199529
     9358.914400       0.202620
     9367.681500       0.205736
     9376.465100       0.208874
     9385.265100       0.212036
     9394.081700       0.215223
     9402.914900       0.218432
     9411.764700       0.221665
     9420.631200       0.224922
     9429.514400       0.228202
     9438.414300       0.231506
     9447.331100       0.234833
     9456.264800       0.238184
     9465.215300       0.241557
     9474.182900       0.244954
     9483.167400       0.248374
     9492.169000       0.251817
     9501.187600       0.255283
     9510.223500       0.258772
     9519.276500       0.262283
     9528.346800       0.265817
     9537.434400       0.269374
     9546.539400       0.272953
     9555.661700       0.276554
     9564.801500       0.280177
     9573.958800       0.283822
     9583.133700       0.287489
     9592.326100       0.291177
     9601.536200       0.294888
     9610.764100       0.298619
     9620.009600       0.302371
     9629.273000       0.306144
     9638.554200       0.309938
     9647.853400       0.313753
     9657.170400       0.317587
     9666.505600       0.321442
     9675.858700       0.325317
     9685.230000       0.329212
     9694.619500       0.333126
     9704.027200       0.337059
     9713.453100       0.341011
     9722.897400       0.344982
     9732.360100       0.348971
     9741.841200       0.352978
     9751.340800       0.357004
     9760.859000       0.361047
     9770.395700       0.365107
     9779.951100       0.369185
     9789.525200       0.373279
     9799.118100       0.377390
     9808.729800       0.381517
     9818.360300       0.385660
     9828.009800       0.389819
     9837.678300       0.393993
     9847.365800       0.398182
     9857.072400       0.402385
     9866.798200       0.406603
     9876.543200       0.410834
     9886.307500       0.415080
     9896.091000       0.419339
     9905.894000       0.423610
     9915.716400       0.427894
     9925.558300       0.432190
     9935.419800       0.436498
     9945.300800       0.440818
     9955.201600       0.445148
     9965.122100       0.449490
     9975.062300       0.453841
     9985.022500       0.458203
     9995.002500       0.462574
    10005.002500       0.466955
    10015.022500       0.471344
    10025.062700       0.475741
    10035.122900       0.480146
    10045.203400       0.484559
    10055.304200       0.488979
    10065.425300       0.493405
    10075.566800       0.497838
    10085.728700       0.502277
    10095.911200       0.506721
    10106.114200       0.511170
    10116.337900       0.515623
    10126.582300       0.520081
    10136.847400       0.524542
    10147.133400       0.529007
    10157.440300       0.533474
    10167.768200       0.537943
    10178.117000       0.542415
    10188.487000       0.546888
    10198.878100       0.551362
    10209.290500       0.555836
    10219.724100       0.560310
    10230.179000       0.564784
    10240.655400       0.569257
    10251.153300       0.573729
    10261.672700       0.578199
    10272.213700       0.582667
    10282.776300       0.587132
    10293.360800       0.591594
    10303.967000       0.596052
    10314.595200       0.600506
    10325.245200       0.604955
    10335.917300       0.609399
    10346.611500       0.613838
    10357.327800       0.618271
    10368.066400       0.622697
    10378.827200       0.627116
    10389.610400       0.631528
    10400.416000       0.635932
    10411.244100       0.640328
    10422.094800       0.644714
    10432.968200       0.649092
    10443.864200       0.653459
    10454.783100       0.657817
    10465.724800       0.662163
    10476.689400       0.666499
    10487.677000       0.670822
    10498.687700       0.675134
    10509.721500       0.679433
    10520.778500       0.683719
    10531.858900       0.687991
    10542.962600       0.692250
    10554.089700       0.696493
    10565.240400       0.700722
    10576.414600       0.704936
    10587.612500       0.709134
    10598.834100       0.713315
    10610.079600       0.717480
    10621.348900       0.721628
    10632.642200       0.725758
    10643.959600       0.729870
    10655.301000       0.733963
    10666.666700       0.738038
    10678.056600       0.742093
    10689.470900       0.746128
    10700.909600       0.750143
    10712.372800       0.754137
    10723.860600       0.758110
    10735.373100       0.762062
    10746.910300       0.765992
    10758.472300       0.769899
    10770.059200       0.773784
    10781.671200       0.777645
    10793.308100       0.781483
    10804.970300       0.785297
    10816.657700       0.789086
    10828.370300       0.792851
    10840.108400       0.796590
    10851.871900       0.800304
    10863.661100       0.803992
    10875.475800       0.807653
    10887.316300       0.811288
    10899.182600       0.814896
    10911.074700       0.818477
    10922.992900       0.822029
    10934.937100       0.825554
    10946.907500       0.829049
    10958.904100       0.832517
    10970.927000       0.835955
    10982.976400       0.839363
    10995.052200       0.842741
    11007.154700       0.846090
    11019.283700       0.849408
    11031.439600       0.852695
    11043.622300       0.855951
    11055.832000       0.859175
    11068.068600       0.862368
    11080.332400       0.865528
    11092.623400       0.868657
    11104.941700       0.871752
    11117.287400       0.874815
    11129.660500       0.877845
    11142.061300       0.880841
    11154.489700       0.883804
    11166.945800       0.886732
    11179.429800       0.889626
    11191.941800       0.892486
    11204.481800       0.895312
    11217.049900       0.898102
    11229.646300       0.900857
    11242.270900       0.903577
    11254.924000       0.906261
    11267.605600       0.908909
    11280.315800       0.911522
    11293.054800       0.914098
    11305.822500       0.916638
    11318.619100       0.919141
    11331.444800       0.921608
    11344.299500       0.924037
    11357.183400       0.926430
    11370.096600       0.928785
    11383.039300       0.931103
    11396.011400       0.933383
    11409.013100       0.935626
    11422.044500       0.937831
    11435.105800       0.939998
    11448.196900       0.942126
    11461.318100       0.944217
    11474.469300       0.946270
    11487.650800       0.948284
    11500.862600       0.950259
    11514.104800       0.952196
    11527.377500       0.954095
    11540.680900       0.955955
    11554.015000       0.957776
    11567.380000       0.959558
    11580.775900       0.961301
    11594.202900       0.963005
    11607.661100       0.964671
    11621.150500       0.966297
    11634.671300       0.967885
    11648.223600       0.969433
    11661.807600       0.970943
    11675.423200       0.972413
    11689.070700       0.973844
    11702.750100       0.975236
    11716.461600       0.976590
    11730.205300       0.977904
    11743.981200       0.979179
    11757.789500       0.980416
    11771.630400       0.981613
    11785.503800       0.982772
    11799.410000       0.983891
    11813.349100       0.984973
    11827.321100       0.986015
    11841.326200       0.987019
    11855.364600       0.987984
    11869.436200       0.988911
    11883.541300       0.989800
    11897.680000       0.990650
    11911.852300       0.991463
    11926.058400       0.992237
    11940.298500       0.992974
    11954.572600       0.993673
    11968.880900       0.994334
    11983.223500       0.994958
    11997.600500       0.995544
    12012.012000       0.996094
    12026.458200       0.996606
    12040.939200       0.997081
    12055.455100       0.997520
    12070.006000       0.997923
    12084.592100       0.998289
    12099.213600       0.998619
    12113.870400       0.998913
    12128.562800       0.999172
    12143.290800       0.999395
    12158.054700       0.999582
    12172.854500       0.999735
    12187.690400       0.999853
    12202.562500       0.999936
    12217.471000       0.999985
    12232.415900       1.000000
    12247.397400       0.999981
    12262.415700       0.999928
    12277.470800       0.999842
    12292.563000       0.999724
    12307.692300       0.999572
    12322.858900       0.999387
    12338.062900       0.999171
    12353.304500       0.998922
    12368.583800       0.998642
    12383.900900       0.998331
    12399.256000       0.997988
    12414.649300       0.997615
    12430.080800       0.997211
    12445.550700       0.996778
    12461.059200       0.996314
    12476.606400       0.995821
    12492.192400       0.995299
    12507.817400       0.994748
    12523.481500       0.994168
    12539.185000       0.993561
    12554.927800       0.992926
    12570.710200       0.992263
    12586.532400       0.991573
    12602.394500       0.990857
    12618.296500       0.990114
    12634.238800       0.989345
    12650.221400       0.988551
    12666.244500       0.987731
    12682.308200       0.986887
    12698.412700       0.986019
    12714.558200       0.985126
    12730.744700       0.984209
    12746.972600       0.983270
    12763.241900       0.982307
    12779.552700       0.981322
    12795.905300       0.980315
    12812.299800       0.979287
    12828.736400       0.978237
    12845.215200       0.977166
    12861.736300       0.976075
    12878.300100       0.974964
    12894.906500       0.973833
    12911.555800       0.972683
    12928.248200       0.971515
    12944.983800       0.970328
    12961.762800       0.969124
    12978.585300       0.967901
    12995.451600       0.966662
    13012.361700       0.965407
    13029.316000       0.964135
    13046.314400       0.962848
    13063.357300       0.961545
    13080.444700       0.960228
    13097.576900       0.958896
    13114.754100       0.957550
    13131.976400       0.956191
    13149.243900       0.954819
    13166.556900       0.953435
    13183.915600       0.952038
    13201.320100       0.950629
    13218.770700       0.949210
    13236.267400       0.947779
    13253.810500       0.946339
    13271.400100       0.944888
    13289.036500       0.943428
    13306.719900       0.941959
    13324.450400       0.940482
    13342.228200       0.938996
    13360.053400       0.937503
    13377.926400       0.936003
    13395.847300       0.934496
    13413.816200       0.932983
    13431.833400       0.931464
    13449.899100       0.929940
    13468.013500       0.928411
    13486.176700       0.926877
    13504.388900       0.925340
    13522.650400       0.923799
    13540.961400       0.922254
    13559.322000       0.920707
    13577.732500       0.919158
    13596.193100       0.917607
    13614.703900       0.916055
    13633.265200       0.914502
    13651.877100       0.912948
    13670.540000       0.911395
    13689.253900       0.909841
    13708.019200       0.908289
    13726.836000       0.906737
    13745.704500       0.905188
    13764.624900       0.903640
    13783.597500       0.902095
    13802.622500       0.900553
    13821.700100       0.899014
    13840.830400       0.897479
    13860.013900       0.895948
    13879.250500       0.894422
    13898.540700       0.892900
    13917.884500       0.891384
    13937.282200       0.889874
    13956.734100       0.888370
    13976.240400       0.886872
    13995.801300       0.885381
    14015.417000       0.883897
    14035.087700       0.882421
    14054.813800       0.880953
    14074.595400       0.879493
    14094.432700       0.878043
    14114.326000       0.876601
    14134.275600       0.875168
    14154.281700       0.873746
    14174.344400       0.872333
    14194.464200       0.870931
    14214.641100       0.869540
    14234.875400       0.868159
    14255.167500       0.866791
    14275.517500       0.865434
    14295.925700       0.864089
    14316.392300       0.862756
    14336.917600       0.861436
    14357.501800       0.860129
    14378.145200       0.858836
    14398.848100       0.857555
    14419.610700       0.856289
    14440.433200       0.855037
    14461.316000       0.853799
    14482.259200       0.852575
    14503.263200       0.851367
    14524.328200       0.850173
    14545.454500       0.848995
    14566.642400       0.847833
    14587.892000       0.846686
    14609.203800       0.845555
    14630.577900       0.844441
    14652.014700       0.843343
    14673.514300       0.842261
    14695.077100       0.841197
    14716.703500       0.840149
    14738.393500       0.839119
    14760.147600       0.838105
    14781.966000       0.837110
    14803.849000       0.836132
    14825.796900       0.835172
    14847.809900       0.834230
    14869.888500       0.833306
    14892.032800       0.832400
    14914.243100       0.831512
    14936.519800       0.830643
    14958.863100       0.829793
    14981.273400       0.828961
    15003.750900       0.828147
    15026.296000       0.827353
    15048.909000       0.826577
    15071.590100       0.825821
    15094.339600       0.825083
    15117.158000       0.824364
    15140.045400       0.823665
    15163.002300       0.822984
    15186.028900       0.822323
    15209.125500       0.821680
    15232.292500       0.821057
    15255.530100       0.820453
    15278.838800       0.819868
    15302.218800       0.819302
    15325.670500       0.818755
    15349.194200       0.818227
    15372.790200       0.817717
    15396.458800       0.817227
    15420.200500       0.816756
    15444.015400       0.816303
    15467.904100       0.815869
    15491.866800       0.815453
    15515.903800       0.815056
    15540.015500       0.814677
    15564.202300       0.814316
    15588.464500       0.813973
    15612.802500       0.813649
    15637.216600       0.813342
    15661.707100       0.813052
    15686.274500       0.812780
    15710.919100       0.812525
    15735.641200       0.812288
    15760.441300       0.812067
    15785.319700       0.811862
    15810.276700       0.811675
    15835.312700       0.811503
    15860.428200       0.811347
    15885.623500       0.811207
    15910.899000       0.811083
    15936.255000       0.810974
    15961.691900       0.810879
    15987.210200       0.810800
    16012.810200       0.810734
    16038.492400       0.810683
    16064.257000       0.810646
    16090.104600       0.810622
    16116.035500       0.810611
    16142.050000       0.810612
    16168.148700       0.810627
    16194.332000       0.810653
    16220.600200       0.810691
    16246.953700       0.810740
    16273.393000       0.810800
    16299.918500       0.810871
    16326.530600       0.810952
    16353.229800       0.811043
    16380.016400       0.811143
    16406.890900       0.811252
    16433.853700       0.811369
    16460.905300       0.811495
    16488.046200       0.811627
    16515.276600       0.811767
    16542.597200       0.811914
    16570.008300       0.812067
    16597.510400       0.812225
    16625.103900       0.812389
    16652.789300       0.812557
    16680.567100       0.812730
    16708.437800       0.812906
    16736.401700       0.813085
    16764.459300       0.813267
    16792.611300       0.813451
    16820.857900       0.813636
    16849.199700       0.813822
    16877.637100       0.814008
    16906.170800       0.814195
    16934.801000       0.814380
    16963.528400       0.814564
    16992.353400       0.814746
    17021.276600       0.814925
    17050.298400       0.815101
    17079.419300       0.815274
    17108.639900       0.815441
    17137.960600       0.815604
    17167.382000       0.815761
    17196.904600       0.815912
    17226.528900       0.816055
    17256.255400       0.816191
    17286.084700       0.816318
    17316.017300       0.816437
    17346.053800       0.816545
    17376.194600       0.816644
    17406.440400       0.816731
    17436.791600       0.816806
    17467.248900       0.816869
    17497.812800       0.816919
    17528.483800       0.816955
    17559.262500       0.816977
    17590.149500       0.816983
    17621.145400       0.816973
    17652.250700       0.816946
    17683.466000       0.816901
