9, GOES 6.95um ABI FM2 SRF CWG processed March 10, 2016
Number of data points:
1606
Wavenumber (cm-1)   Filter response
     1364.600000       0.001244
     1364.700000       0.001670
     1364.800000       0.002100
     1364.900000       0.002546
     1365.000000       0.002996
     1365.100000       0.003435
     1365.200000       0.003870
     1365.300000       0.004374
     1365.400000       0.004640
     1365.500000       0.004730
     1365.600000       0.004719
     1365.700000       0.004508
     1365.800000       0.004295
     1365.900000       0.004107
     1366.000000       0.003878
     1366.100000       0.003670
     1366.200000       0.003726
     1366.300000       0.003892
     1366.400000       0.004069
     1366.500000       0.004262
     1366.600000       0.004453
     1366.700000       0.004621
     1366.800000       0.004782
     1366.900000       0.004825
     1367.000000       0.004777
     1367.100000       0.004719
     1367.200000       0.004650
     1367.300000       0.004582
     1367.400000       0.004512
     1367.500000       0.004397
     1367.600000       0.004220
     1367.700000       0.003955
     1367.800000       0.003624
     1367.900000       0.003306
     1368.000000       0.002982
     1368.100000       0.002580
     1368.200000       0.002424
     1368.300000       0.002463
     1368.400000       0.002561
     1368.500000       0.002854
     1368.600000       0.003130
     1368.700000       0.003376
     1368.800000       0.003623
     1368.900000       0.003854
     1369.000000       0.003987
     1369.100000       0.004085
     1369.200000       0.004184
     1369.300000       0.004284
     1369.400000       0.004394
     1369.500000       0.004477
     1369.600000       0.004529
     1369.700000       0.004537
     1369.800000       0.004392
     1369.900000       0.004225
     1370.000000       0.004068
     1370.100000       0.003892
     1370.200000       0.003719
     1370.300000       0.003722
     1370.400000       0.003855
     1370.500000       0.004125
     1370.600000       0.004568
     1370.700000       0.004960
     1370.800000       0.005352
     1370.900000       0.005809
     1371.000000       0.006021
     1371.100000       0.005993
     1371.200000       0.005924
     1371.300000       0.005689
     1371.400000       0.005431
     1371.500000       0.005191
     1371.600000       0.004940
     1371.700000       0.004678
     1371.800000       0.004655
     1371.900000       0.004714
     1372.000000       0.004768
     1372.100000       0.004822
     1372.200000       0.004874
     1372.300000       0.004929
     1372.400000       0.005010
     1372.500000       0.005119
     1372.600000       0.005284
     1372.700000       0.005465
     1372.800000       0.005640
     1372.900000       0.005812
     1373.000000       0.005981
     1373.100000       0.006155
     1373.200000       0.006337
     1373.300000       0.006518
     1373.400000       0.006699
     1373.500000       0.006875
     1373.600000       0.007048
     1373.700000       0.007223
     1373.800000       0.007410
     1373.900000       0.007659
     1374.000000       0.007946
     1374.100000       0.008232
     1374.200000       0.008517
     1374.300000       0.008782
     1374.400000       0.009056
     1374.500000       0.009359
     1374.600000       0.009751
     1374.700000       0.010311
     1374.800000       0.010906
     1374.900000       0.011488
     1375.000000       0.012054
     1375.100000       0.012600
     1375.200000       0.013031
     1375.300000       0.013372
     1375.400000       0.013563
     1375.500000       0.013697
     1375.600000       0.013845
     1375.700000       0.013988
     1375.800000       0.014102
     1375.900000       0.014223
     1376.000000       0.014395
     1376.100000       0.014580
     1376.200000       0.014752
     1376.300000       0.014944
     1376.400000       0.015185
     1376.500000       0.015385
     1376.600000       0.015553
     1376.700000       0.015566
     1376.800000       0.015465
     1376.900000       0.015362
     1377.000000       0.015263
     1377.100000       0.015119
     1377.200000       0.014976
     1377.300000       0.015129
     1377.400000       0.015605
     1377.500000       0.016405
     1377.600000       0.017444
     1377.700000       0.018338
     1377.800000       0.019220
     1377.900000       0.020116
     1378.000000       0.020990
     1378.100000       0.021825
     1378.200000       0.022640
     1378.300000       0.023455
     1378.400000       0.024133
     1378.500000       0.024678
     1378.600000       0.025222
     1378.700000       0.025758
     1378.800000       0.026238
     1378.900000       0.026679
     1379.000000       0.027099
     1379.100000       0.027509
     1379.200000       0.027921
     1379.300000       0.028333
     1379.400000       0.028745
     1379.500000       0.029156
     1379.600000       0.029560
     1379.700000       0.029979
     1379.800000       0.030428
     1379.900000       0.030917
     1380.000000       0.031460
     1380.100000       0.032040
     1380.200000       0.032656
     1380.300000       0.033274
     1380.400000       0.033888
     1380.500000       0.034500
     1380.600000       0.035112
     1380.700000       0.035724
     1380.800000       0.036334
     1380.900000       0.036946
     1381.000000       0.037556
     1381.100000       0.038138
     1381.200000       0.038701
     1381.300000       0.039257
     1381.400000       0.039810
     1381.500000       0.040363
     1381.600000       0.040915
     1381.700000       0.041467
     1381.800000       0.042017
     1381.900000       0.042567
     1382.000000       0.043117
     1382.100000       0.043660
     1382.200000       0.044236
     1382.300000       0.044861
     1382.400000       0.045507
     1382.500000       0.046173
     1382.600000       0.046841
     1382.700000       0.047510
     1382.800000       0.048179
     1382.900000       0.048847
     1383.000000       0.049516
     1383.100000       0.050185
     1383.200000       0.050850
     1383.300000       0.051505
     1383.400000       0.052128
     1383.500000       0.052708
     1383.600000       0.053188
     1383.700000       0.053635
     1383.800000       0.054093
     1383.900000       0.054555
     1384.000000       0.055014
     1384.100000       0.055473
     1384.200000       0.055928
     1384.300000       0.056381
     1384.400000       0.056813
     1384.500000       0.057417
     1384.600000       0.058455
     1384.700000       0.059596
     1384.800000       0.060827
     1384.900000       0.062058
     1385.000000       0.063288
     1385.100000       0.064515
     1385.200000       0.065742
     1385.300000       0.066966
     1385.400000       0.068191
     1385.500000       0.069430
     1385.600000       0.070690
     1385.700000       0.071991
     1385.800000       0.073318
     1385.900000       0.074662
     1386.000000       0.076017
     1386.100000       0.077367
     1386.200000       0.078714
     1386.300000       0.080061
     1386.400000       0.081406
     1386.500000       0.082747
     1386.600000       0.084100
     1386.700000       0.085466
     1386.800000       0.086878
     1386.900000       0.088352
     1387.000000       0.089832
     1387.100000       0.091309
     1387.200000       0.092786
     1387.300000       0.094261
     1387.400000       0.095737
     1387.500000       0.097214
     1387.600000       0.098688
     1387.700000       0.100165
     1387.800000       0.101654
     1387.900000       0.103153
     1388.000000       0.104670
     1388.100000       0.106198
     1388.200000       0.107724
     1388.300000       0.109250
     1388.400000       0.110777
     1388.500000       0.112303
     1388.600000       0.113820
     1388.700000       0.115359
     1388.800000       0.116914
     1388.900000       0.118602
     1389.000000       0.120568
     1389.100000       0.122689
     1389.200000       0.124949
     1389.300000       0.127234
     1389.400000       0.129494
     1389.500000       0.131755
     1389.600000       0.134017
     1389.700000       0.136276
     1389.800000       0.138526
     1389.900000       0.140840
     1390.000000       0.143245
     1390.100000       0.145840
     1390.200000       0.148637
     1390.300000       0.151502
     1390.400000       0.154438
     1390.500000       0.157394
     1390.600000       0.160356
     1390.700000       0.163321
     1390.800000       0.166289
     1390.900000       0.169243
     1391.000000       0.172217
     1391.100000       0.175282
     1391.200000       0.178426
     1391.300000       0.181675
     1391.400000       0.184970
     1391.500000       0.188243
     1391.600000       0.191510
     1391.700000       0.194766
     1391.800000       0.198020
     1391.900000       0.201276
     1392.000000       0.204543
     1392.100000       0.207835
     1392.200000       0.211180
     1392.300000       0.214598
     1392.400000       0.218034
     1392.500000       0.221482
     1392.600000       0.224935
     1392.700000       0.228388
     1392.800000       0.231831
     1392.900000       0.235259
     1393.000000       0.238686
     1393.100000       0.242111
     1393.200000       0.245651
     1393.300000       0.249311
     1393.400000       0.253134
     1393.500000       0.257104
     1393.600000       0.261055
     1393.700000       0.265004
     1393.800000       0.268936
     1393.900000       0.272859
     1394.000000       0.276788
     1394.100000       0.280724
     1394.200000       0.284661
     1394.300000       0.288678
     1394.400000       0.293079
     1394.500000       0.297607
     1394.600000       0.302095
     1394.700000       0.306551
     1394.800000       0.310919
     1394.900000       0.315250
     1395.000000       0.319559
     1395.100000       0.323860
     1395.200000       0.328141
     1395.300000       0.332470
     1395.400000       0.336869
     1395.500000       0.341412
     1395.600000       0.346179
     1395.700000       0.350983
     1395.800000       0.355768
     1395.900000       0.360560
     1396.000000       0.365358
     1396.100000       0.370150
     1396.200000       0.374936
     1396.300000       0.379718
     1396.400000       0.384494
     1396.500000       0.389318
     1396.600000       0.394200
     1396.700000       0.399123
     1396.800000       0.404083
     1396.900000       0.409050
     1397.000000       0.414026
     1397.100000       0.418996
     1397.200000       0.423960
     1397.300000       0.428919
     1397.400000       0.433875
     1397.500000       0.438836
     1397.600000       0.443816
     1397.700000       0.448863
     1397.800000       0.453979
     1397.900000       0.459221
     1398.000000       0.464524
     1398.100000       0.469807
     1398.200000       0.475079
     1398.300000       0.480351
     1398.400000       0.485620
     1398.500000       0.490902
     1398.600000       0.496151
     1398.700000       0.501292
     1398.800000       0.506369
     1398.900000       0.511395
     1399.000000       0.516404
     1399.100000       0.521414
     1399.200000       0.526424
     1399.300000       0.531439
     1399.400000       0.536455
     1399.500000       0.541470
     1399.600000       0.546482
     1399.700000       0.551494
     1399.800000       0.556503
     1399.900000       0.561510
     1400.000000       0.566526
     1400.100000       0.571553
     1400.200000       0.576589
     1400.300000       0.581634
     1400.400000       0.586686
     1400.500000       0.591744
     1400.600000       0.596803
     1400.700000       0.601861
     1400.800000       0.606935
     1400.900000       0.612033
     1401.000000       0.617161
     1401.100000       0.622300
     1401.200000       0.627343
     1401.300000       0.632292
     1401.400000       0.637190
     1401.500000       0.642037
     1401.600000       0.646870
     1401.700000       0.651692
     1401.800000       0.656523
     1401.900000       0.661363
     1402.000000       0.666208
     1402.100000       0.671055
     1402.200000       0.675897
     1402.300000       0.680737
     1402.400000       0.685585
     1402.500000       0.690437
     1402.600000       0.695296
     1402.700000       0.700158
     1402.800000       0.705019
     1402.900000       0.709878
     1403.000000       0.714736
     1403.100000       0.719592
     1403.200000       0.724443
     1403.300000       0.729287
     1403.400000       0.734123
     1403.500000       0.738939
     1403.600000       0.743729
     1403.700000       0.748457
     1403.800000       0.753022
     1403.900000       0.757530
     1404.000000       0.762059
     1404.100000       0.766592
     1404.200000       0.771125
     1404.300000       0.775659
     1404.400000       0.780193
     1404.500000       0.784729
     1404.600000       0.789284
     1404.700000       0.793804
     1404.800000       0.798296
     1404.900000       0.802624
     1405.000000       0.806658
     1405.100000       0.810623
     1405.200000       0.814622
     1405.300000       0.818614
     1405.400000       0.822587
     1405.500000       0.826539
     1405.600000       0.830467
     1405.700000       0.834388
     1405.800000       0.838351
     1405.900000       0.842118
     1406.000000       0.845622
     1406.100000       0.848848
     1406.200000       0.851704
     1406.300000       0.854438
     1406.400000       0.857122
     1406.500000       0.859797
     1406.600000       0.862471
     1406.700000       0.865163
     1406.800000       0.867885
     1406.900000       0.870589
     1407.000000       0.873270
     1407.100000       0.875918
     1407.200000       0.878547
     1407.300000       0.881011
     1407.400000       0.883298
     1407.500000       0.885486
     1407.600000       0.887564
     1407.700000       0.889649
     1407.800000       0.891759
     1407.900000       0.893875
     1408.000000       0.895995
     1408.100000       0.898117
     1408.200000       0.900240
     1408.300000       0.902354
     1408.400000       0.904444
     1408.500000       0.906476
     1408.600000       0.908453
     1408.700000       0.910308
     1408.800000       0.912054
     1408.900000       0.913810
     1409.000000       0.915577
     1409.100000       0.917343
     1409.200000       0.919111
     1409.300000       0.920878
     1409.400000       0.922645
     1409.500000       0.924407
     1409.600000       0.926160
     1409.700000       0.927882
     1409.800000       0.929543
     1409.900000       0.931003
     1410.000000       0.932308
     1410.100000       0.933613
     1410.200000       0.934910
     1410.300000       0.936211
     1410.400000       0.937514
     1410.500000       0.938818
     1410.600000       0.940126
     1410.700000       0.941474
     1410.800000       0.942854
     1410.900000       0.944199
     1411.000000       0.945504
     1411.100000       0.946660
     1411.200000       0.947713
     1411.300000       0.948747
     1411.400000       0.949759
     1411.500000       0.950777
     1411.600000       0.951799
     1411.700000       0.952823
     1411.800000       0.953849
     1411.900000       0.954879
     1412.000000       0.955910
     1412.100000       0.956961
     1412.200000       0.957999
     1412.300000       0.958880
     1412.400000       0.959656
     1412.500000       0.960366
     1412.600000       0.961019
     1412.700000       0.961630
     1412.800000       0.962216
     1412.900000       0.962861
     1413.000000       0.963519
     1413.100000       0.964179
     1413.200000       0.964841
     1413.300000       0.965509
     1413.400000       0.966173
     1413.500000       0.966796
     1413.600000       0.967392
     1413.700000       0.967955
     1413.800000       0.968493
     1413.900000       0.969022
     1414.000000       0.969542
     1414.100000       0.970064
     1414.200000       0.970604
     1414.300000       0.971163
     1414.400000       0.971738
     1414.500000       0.972322
     1414.600000       0.972915
     1414.700000       0.973515
     1414.800000       0.974100
     1414.900000       0.974583
     1415.000000       0.975001
     1415.100000       0.975376
     1415.200000       0.975723
     1415.300000       0.976084
     1415.400000       0.976447
     1415.500000       0.976778
     1415.600000       0.977094
     1415.700000       0.977449
     1415.800000       0.977835
     1415.900000       0.978233
     1416.000000       0.978651
     1416.100000       0.979104
     1416.200000       0.979593
     1416.300000       0.980130
     1416.400000       0.980736
     1416.500000       0.981364
     1416.600000       0.982013
     1416.700000       0.982715
     1416.800000       0.983456
     1416.900000       0.984168
     1417.000000       0.984863
     1417.100000       0.985562
     1417.200000       0.986260
     1417.300000       0.986947
     1417.400000       0.987620
     1417.500000       0.988271
     1417.600000       0.988914
     1417.700000       0.989565
     1417.800000       0.990219
     1417.900000       0.990868
     1418.000000       0.991511
     1418.100000       0.992145
     1418.200000       0.992766
     1418.300000       0.993327
     1418.400000       0.993843
     1418.500000       0.994360
     1418.600000       0.994838
     1418.700000       0.995287
     1418.800000       0.995716
     1418.900000       0.996139
     1419.000000       0.996557
     1419.100000       0.996970
     1419.200000       0.997379
     1419.300000       0.997784
     1419.400000       0.998188
     1419.500000       0.998593
     1419.600000       0.998999
     1419.700000       0.999413
     1419.800000       0.999833
     1419.900000       0.999958
     1420.000000       0.999995
     1420.100000       0.999992
     1420.200000       0.999946
     1420.300000       0.999904
     1420.400000       0.999867
     1420.500000       0.999806
     1420.600000       0.999698
     1420.700000       0.999627
     1420.800000       0.999580
     1420.900000       0.999532
     1421.000000       0.999480
     1421.100000       0.999424
     1421.200000       0.999374
     1421.300000       0.999362
     1421.400000       0.999380
     1421.500000       0.999384
     1421.600000       0.999354
     1421.700000       0.999305
     1421.800000       0.999215
     1421.900000       0.999164
     1422.000000       0.999141
     1422.100000       0.999122
     1422.200000       0.999107
     1422.300000       0.999088
     1422.400000       0.999058
     1422.500000       0.999026
     1422.600000       0.998992
     1422.700000       0.998972
     1422.800000       0.998962
     1422.900000       0.998960
     1423.000000       0.998981
     1423.100000       0.999011
     1423.200000       0.999052
     1423.300000       0.999103
     1423.400000       0.999182
     1423.500000       0.999235
     1423.600000       0.999249
     1423.700000       0.999261
     1423.800000       0.999278
     1423.900000       0.999294
     1424.000000       0.999308
     1424.100000       0.999317
     1424.200000       0.999323
     1424.300000       0.999334
     1424.400000       0.999352
     1424.500000       0.999364
     1424.600000       0.999325
     1424.700000       0.999283
     1424.800000       0.999333
     1424.900000       0.999402
     1425.000000       0.999417
     1425.100000       0.999419
     1425.200000       0.999424
     1425.300000       0.999436
     1425.400000       0.999453
     1425.500000       0.999473
     1425.600000       0.999492
     1425.700000       0.999511
     1425.800000       0.999529
     1425.900000       0.999542
     1426.000000       0.999545
     1426.100000       0.999546
     1426.200000       0.999539
     1426.300000       0.999514
     1426.400000       0.999478
     1426.500000       0.999417
     1426.600000       0.999348
