65,   65, MVIRI VIS channel from srf_MET7_2005258_2005259_1801-Release_S10EE_10.dat
Number of data points:
793
Wavenumber (cm-1)   Filter response
     8442.380800       0.000000
     8449.514200       0.000000
     8456.659600       0.000004
     8463.817200       0.000055
     8470.986900       0.000162
     8478.168700       0.000325
     8485.362700       0.000541
     8492.569000       0.000809
     8499.787500       0.001127
     8507.018300       0.001494
     8514.261400       0.001909
     8521.516800       0.002369
     8528.784600       0.002875
     8536.064900       0.003424
     8543.357500       0.004016
     8550.662700       0.004648
     8557.980300       0.005321
     8565.310500       0.006033
     8572.653200       0.006783
     8580.008600       0.007570
     8587.376600       0.008392
     8594.757200       0.009250
     8602.150500       0.010142
     8609.556600       0.011068
     8616.975400       0.012026
     8624.407100       0.013015
     8631.851500       0.014036
     8639.308900       0.015087
     8646.779100       0.016168
     8654.262200       0.017278
     8661.758300       0.018416
     8669.267400       0.019582
     8676.789600       0.020775
     8684.324800       0.021995
     8691.873100       0.023241
     8699.434500       0.024514
     8707.009100       0.025811
     8714.596900       0.027133
     8722.198000       0.028480
     8729.812300       0.029851
     8737.439900       0.031245
     8745.080900       0.032663
     8752.735200       0.034104
     8760.403000       0.035568
     8768.084200       0.037055
     8775.778900       0.038564
     8783.487000       0.040095
     8791.208800       0.041647
     8798.944100       0.043222
     8806.693100       0.044818
     8814.455700       0.046435
     8822.232000       0.048074
     8830.022100       0.049734
     8837.825900       0.051415
     8845.643500       0.053116
     8853.475000       0.054838
     8861.320300       0.056581
     8869.179600       0.058345
     8877.052800       0.060129
     8884.940000       0.061933
     8892.841300       0.063758
     8900.756600       0.065604
     8908.686000       0.067470
     8916.629500       0.069356
     8924.587200       0.071263
     8932.559200       0.073191
     8940.545400       0.075138
     8948.545900       0.077107
     8956.560700       0.079095
     8964.589900       0.081105
     8972.633500       0.083135
     8980.691500       0.085186
     8988.764000       0.087257
     8996.851100       0.089349
     9004.952700       0.091463
     9013.068900       0.093597
     9021.199800       0.095752
     9029.345400       0.097928
     9037.505600       0.100125
     9045.680700       0.102344
     9053.870500       0.104584
     9062.075200       0.106845
     9070.294800       0.109128
     9078.529300       0.111432
     9086.778700       0.113758
     9095.043200       0.116106
     9103.322700       0.118476
     9111.617300       0.120868
     9119.927000       0.123281
     9128.251900       0.125717
     9136.592100       0.128175
     9144.947400       0.130656
     9153.318100       0.133159
     9161.704100       0.135684
     9170.105500       0.138232
     9178.522300       0.140802
     9186.954500       0.143396
     9195.402300       0.146012
     9203.865600       0.148651
     9212.344500       0.151313
     9220.839100       0.153998
     9229.349300       0.156706
     9237.875300       0.159438
     9246.417000       0.162192
     9254.974500       0.164970
     9263.547900       0.167771
     9272.137200       0.170596
     9280.742500       0.173444
     9289.363700       0.176315
     9298.000900       0.179211
     9306.654300       0.182130
     9315.323700       0.185072
     9324.009300       0.188038
     9332.711200       0.191027
     9341.429200       0.194040
     9350.163600       0.197077
     9358.914400       0.200137
     9367.681500       0.203221
     9376.465100       0.206329
     9385.265100       0.209460
     9394.081700       0.212616
     9402.914900       0.215794
     9411.764700       0.218996
     9420.631200       0.222222
     9429.514400       0.225471
     9438.414300       0.228744
     9447.331100       0.232039
     9456.264800       0.235359
     9465.215300       0.238701
     9474.182900       0.242067
     9483.167400       0.245456
     9492.169000       0.248867
     9501.187600       0.252302
     9510.223500       0.255760
     9519.276500       0.259240
     9528.346800       0.262743
     9537.434400       0.266268
     9546.539400       0.269816
     9555.661700       0.273386
     9564.801500       0.276978
     9573.958800       0.280592
     9583.133700       0.284229
     9592.326100       0.287886
     9601.536200       0.291565
     9610.764100       0.295265
     9620.009600       0.298987
     9629.273000       0.302730
     9638.554200       0.306493
     9647.853400       0.310278
     9657.170400       0.314082
     9666.505600       0.317907
     9675.858700       0.321752
     9685.230000       0.325616
     9694.619500       0.329500
     9704.027200       0.333403
     9713.453100       0.337326
     9722.897400       0.341267
     9732.360100       0.345227
     9741.841200       0.349205
     9751.340800       0.353201
     9760.859000       0.357216
     9770.395700       0.361248
     9779.951100       0.365297
     9789.525200       0.369363
     9799.118100       0.373446
     9808.729800       0.377545
     9818.360300       0.381660
     9828.009800       0.385791
     9837.678300       0.389937
     9847.365800       0.394099
     9857.072400       0.398276
     9866.798200       0.402467
     9876.543200       0.406672
     9886.307500       0.410891
     9896.091000       0.415124
     9905.894000       0.419370
     9915.716400       0.423629
     9925.558300       0.427899
     9935.419800       0.432183
     9945.300800       0.436478
     9955.201600       0.440784
     9965.122100       0.445102
     9975.062300       0.449429
     9985.022500       0.453768
     9995.002500       0.458116
    10005.002500       0.462474
    10015.022500       0.466840
    10025.062700       0.471215
    10035.122900       0.475599
    10045.203400       0.479990
    10055.304200       0.484389
    10065.425300       0.488795
    10075.566800       0.493208
    10085.728700       0.497626
    10095.911200       0.502051
    10106.114200       0.506481
    10116.337900       0.510915
    10126.582300       0.515355
    10136.847400       0.519798
    10147.133400       0.524245
    10157.440300       0.528695
    10167.768200       0.533148
    10178.117000       0.537603
    10188.487000       0.542060
    10198.878100       0.546519
    10209.290500       0.550978
    10219.724100       0.555438
    10230.179000       0.559898
    10240.655400       0.564357
    10251.153300       0.568816
    10261.672700       0.573273
    10272.213700       0.577729
    10282.776300       0.582182
    10293.360800       0.586633
    10303.967000       0.591080
    10314.595200       0.595524
    10325.245200       0.599963
    10335.917300       0.604399
    10346.611500       0.608829
    10357.327800       0.613253
    10368.066400       0.617672
    10378.827200       0.622084
    10389.610400       0.626489
    10400.416000       0.630887
    10411.244100       0.635277
    10422.094800       0.639659
    10432.968200       0.644032
    10443.864200       0.648396
    10454.783100       0.652749
    10465.724800       0.657093
    10476.689400       0.661426
    10487.677000       0.665749
    10498.687700       0.670059
    10509.721500       0.674358
    10520.778500       0.678643
    10531.858900       0.682916
    10542.962600       0.687176
    10554.089700       0.691422
    10565.240400       0.695653
    10576.414600       0.699870
    10587.612500       0.704071
    10598.834100       0.708257
    10610.079600       0.712427
    10621.348900       0.716580
    10632.642200       0.720716
    10643.959600       0.724834
    10655.301000       0.728935
    10666.666700       0.733017
    10678.056600       0.737081
    10689.470900       0.741125
    10700.909600       0.745150
    10712.372800       0.749154
    10723.860600       0.753138
    10735.373100       0.757101
    10746.910300       0.761043
    10758.472300       0.764964
    10770.059200       0.768861
    10781.671200       0.772737
    10793.308100       0.776589
    10804.970300       0.780418
    10816.657700       0.784224
    10828.370300       0.788005
    10840.108400       0.791761
    10851.871900       0.795493
    10863.661100       0.799199
    10875.475800       0.802880
    10887.316300       0.806534
    10899.182600       0.810162
    10911.074700       0.813764
    10922.992900       0.817338
    10934.937100       0.820884
    10946.907500       0.824403
    10958.904100       0.827894
    10970.927000       0.831356
    10982.976400       0.834789
    10995.052200       0.838192
    11007.154700       0.841566
    11019.283700       0.844911
    11031.439600       0.848225
    11043.622300       0.851509
    11055.832000       0.854761
    11068.068600       0.857983
    11080.332400       0.861173
    11092.623400       0.864332
    11104.941700       0.867458
    11117.287400       0.870552
    11129.660500       0.873614
    11142.061300       0.876642
    11154.489700       0.879638
    11166.945800       0.882600
    11179.429800       0.885529
    11191.941800       0.888424
    11204.481800       0.891284
    11217.049900       0.894111
    11229.646300       0.896902
    11242.270900       0.899659
    11254.924000       0.902381
    11267.605600       0.905068
    11280.315800       0.907719
    11293.054800       0.910335
    11305.822500       0.912914
    11318.619100       0.915458
    11331.444800       0.917966
    11344.299500       0.920437
    11357.183400       0.922872
    11370.096600       0.925270
    11383.039300       0.927631
    11396.011400       0.929955
    11409.013100       0.932242
    11422.044500       0.934491
    11435.105800       0.936703
    11448.196900       0.938878
    11461.318100       0.941015
    11474.469300       0.943114
    11487.650800       0.945175
    11500.862600       0.947199
    11514.104800       0.949184
    11527.377500       0.951131
    11540.680900       0.953040
    11554.015000       0.954911
    11567.380000       0.956743
    11580.775900       0.958537
    11594.202900       0.960292
    11607.661100       0.962009
    11621.150500       0.963687
    11634.671300       0.965327
    11648.223600       0.966928
    11661.807600       0.968490
    11675.423200       0.970014
    11689.070700       0.971499
    11702.750100       0.972946
    11716.461600       0.974354
    11730.205300       0.975723
    11743.981200       0.977054
    11757.789500       0.978346
    11771.630400       0.979600
    11785.503800       0.980815
    11799.410000       0.981992
    11813.349100       0.983130
    11827.321100       0.984230
    11841.326200       0.985292
    11855.364600       0.986316
    11869.436200       0.987301
    11883.541300       0.988249
    11897.680000       0.989159
    11911.852300       0.990030
    11926.058400       0.990865
    11940.298500       0.991661
    11954.572600       0.992421
    11968.880900       0.993143
    11983.223500       0.993827
    11997.600500       0.994475
    12012.012000       0.995086
    12026.458200       0.995660
    12040.939200       0.996198
    12055.455100       0.996699
    12070.006000       0.997164
    12084.592100       0.997593
    12099.213600       0.997986
    12113.870400       0.998343
    12128.562800       0.998665
    12143.290800       0.998951
    12158.054700       0.999203
    12172.854500       0.999419
    12187.690400       0.999601
    12202.562500       0.999749
    12217.471000       0.999862
    12232.415900       0.999942
    12247.397400       0.999988
    12262.415700       1.000000
    12277.470800       0.999979
    12292.563000       0.999925
    12307.692300       0.999839
    12322.858900       0.999720
    12338.062900       0.999569
    12353.304500       0.999387
    12368.583800       0.999172
    12383.900900       0.998927
    12399.256000       0.998650
    12414.649300       0.998343
    12430.080800       0.998006
    12445.550700       0.997638
    12461.059200       0.997241
    12476.606400       0.996814
    12492.192400       0.996359
    12507.817400       0.995874
    12523.481500       0.995361
    12539.185000       0.994820
    12554.927800       0.994252
    12570.710200       0.993656
    12586.532400       0.993033
    12602.394500       0.992383
    12618.296500       0.991707
    12634.238800       0.991006
    12650.221400       0.990278
    12666.244500       0.989526
    12682.308200       0.988748
    12698.412700       0.987946
    12714.558200       0.987121
    12730.744700       0.986271
    12746.972600       0.985398
    12763.241900       0.984503
    12779.552700       0.983584
    12795.905300       0.982644
    12812.299800       0.981682
    12828.736400       0.980699
    12845.215200       0.979695
    12861.736300       0.978671
    12878.300100       0.977626
    12894.906500       0.976562
    12911.555800       0.975479
    12928.248200       0.974377
    12944.983800       0.973257
    12961.762800       0.972118
    12978.585300       0.970963
    12995.451600       0.969790
    13012.361700       0.968600
    13029.316000       0.967395
    13046.314400       0.966173
    13063.357300       0.964937
    13080.444700       0.963685
    13097.576900       0.962419
    13114.754100       0.961140
    13131.976400       0.959846
    13149.243900       0.958540
    13166.556900       0.957220
    13183.915600       0.955889
    13201.320100       0.954546
    13218.770700       0.953192
    13236.267400       0.951826
    13253.810500       0.950451
    13271.400100       0.949065
    13289.036500       0.947670
    13306.719900       0.946266
    13324.450400       0.944853
    13342.228200       0.943433
    13360.053400       0.942004
    13377.926400       0.940568
    13395.847300       0.939126
    13413.816200       0.937677
    13431.833400       0.936222
    13449.899100       0.934762
    13468.013500       0.933297
    13486.176700       0.931827
    13504.388900       0.930354
    13522.650400       0.928876
    13540.961400       0.927396
    13559.322000       0.925912
    13577.732500       0.924427
    13596.193100       0.922939
    13614.703900       0.921450
    13633.265200       0.919961
    13651.877100       0.918470
    13670.540000       0.916980
    13689.253900       0.915489
    13708.019200       0.914000
    13726.836000       0.912511
    13745.704500       0.911025
    13764.624900       0.909540
    13783.597500       0.908058
    13802.622500       0.906578
    13821.700100       0.905102
    13840.830400       0.903630
    13860.013900       0.902161
    13879.250500       0.900697
    13898.540700       0.899238
    13917.884500       0.897785
    13937.282200       0.896337
    13956.734100       0.894895
    13976.240400       0.893459
    13995.801300       0.892031
    14015.417000       0.890610
    14035.087700       0.889196
    14054.813800       0.887790
    14074.595400       0.886393
    14094.432700       0.885004
    14114.326000       0.883625
    14134.275600       0.882255
    14154.281700       0.880894
    14174.344400       0.879544
    14194.464200       0.878205
    14214.641100       0.876876
    14234.875400       0.875558
    14255.167500       0.874252
    14275.517500       0.872957
    14295.925700       0.871675
    14316.392300       0.870405
    14336.917600       0.869148
    14357.501800       0.867904
    14378.145200       0.866673
    14398.848100       0.865456
    14419.610700       0.864253
    14440.433200       0.863063
    14461.316000       0.861889
    14482.259200       0.860729
    14503.263200       0.859584
    14524.328200       0.858454
    14545.454500       0.857340
    14566.642400       0.856241
    14587.892000       0.855158
    14609.203800       0.854091
    14630.577900       0.853041
    14652.014700       0.852008
    14673.514300       0.850991
    14695.077100       0.849991
    14716.703500       0.849008
    14738.393500       0.848043
    14760.147600       0.847095
    14781.966000       0.846165
    14803.849000       0.845253
    14825.796900       0.844359
    14847.809900       0.843483
    14869.888500       0.842625
    14892.032800       0.841785
    14914.243100       0.840965
    14936.519800       0.840163
    14958.863100       0.839379
    14981.273400       0.838615
    15003.750900       0.837869
    15026.296000       0.837143
    15048.909000       0.836436
    15071.590100       0.835747
    15094.339600       0.835079
    15117.158000       0.834429
    15140.045400       0.833799
    15163.002300       0.833188
    15186.028900       0.832596
    15209.125500       0.832024
    15232.292500       0.831472
    15255.530100       0.830938
    15278.838800       0.830424
    15302.218800       0.829930
    15325.670500       0.829455
    15349.194200       0.828999
    15372.790200       0.828562
    15396.458800       0.828145
    15420.200500       0.827747
    15444.015400       0.827367
    15467.904100       0.827007
    15491.866800       0.826666
    15515.903800       0.826344
    15540.015500       0.826040
    15564.202300       0.825754
    15588.464500       0.825488
    15612.802500       0.825239
    15637.216600       0.825009
    15661.707100       0.824796
    15686.274500       0.824602
    15710.919100       0.824425
    15735.641200       0.824265
    15760.441300       0.824123
    15785.319700       0.823998
    15810.276700       0.823889
    15835.312700       0.823797
    15860.428200       0.823722
    15885.623500       0.823663
    15910.899000       0.823619
    15936.255000       0.823592
    15961.691900       0.823579
    15987.210200       0.823582
    16012.810200       0.823599
    16038.492400       0.823631
    16064.257000       0.823677
    16090.104600       0.823737
    16116.035500       0.823810
    16142.050000       0.823897
    16168.148700       0.823997
    16194.332000       0.824108
    16220.600200       0.824232
    16246.953700       0.824368
    16273.393000       0.824515
    16299.918500       0.824673
    16326.530600       0.824842
    16353.229800       0.825021
    16380.016400       0.825209
    16406.890900       0.825407
    16433.853700       0.825614
    16460.905300       0.825829
    16488.046200       0.826051
    16515.276600       0.826282
    16542.597200       0.826519
    16570.008300       0.826763
    16597.510400       0.827013
    16625.103900       0.827269
    16652.789300       0.827529
    16680.567100       0.827794
    16708.437800       0.828063
    16736.401700       0.828335
    16764.459300       0.828610
    16792.611300       0.828888
    16820.857900       0.829167
    16849.199700       0.829447
    16877.637100       0.829728
    16906.170800       0.830009
    16934.801000       0.830290
    16963.528400       0.830569
    16992.353400       0.830846
    17021.276600       0.831121
    17050.298400       0.831394
    17079.419300       0.831662
    17108.639900       0.831926
    17137.960600       0.832185
    17167.382000       0.832439
    17196.904600       0.832686
    17226.528900       0.832927
    17256.255400       0.833159
    17286.084700       0.833384
    17316.017300       0.833599
    17346.053800       0.833805
    17376.194600       0.834001
    17406.440400       0.834185
    17436.791600       0.834358
    17467.248900       0.834518
    17497.812800       0.834665
    17528.483800       0.834798
    17559.262500       0.834917
    17590.149500       0.835020
    17621.145400       0.835107
    17652.250700       0.835177
    17683.466000       0.835229
