15,    channel 15 SRF extracted from SRF_FY4B_AGRI.zip (FY4B_AGRI_SRF_CH15_Pub.txt)
Number of data points:
3027
Wavenumber (cm-1)   Filter response
      713.114200       0.007800
      713.139600       0.007800
      713.165000       0.007800
      713.190500       0.007800
      713.215900       0.007800
      713.241300       0.007700
      713.266800       0.007500
      713.292200       0.007300
      713.317600       0.007000
      713.343100       0.006600
      713.368500       0.006200
      713.394000       0.005800
      713.419400       0.005300
      713.444900       0.004900
      713.470300       0.004500
      713.495800       0.004100
      713.521200       0.003800
      713.546700       0.003500
      713.572100       0.003300
      713.597600       0.003100
      713.623100       0.003100
      713.648500       0.003100
      713.674000       0.003300
      713.699500       0.003500
      713.724900       0.003800
      713.750400       0.004100
      713.775900       0.004500
      713.801300       0.005100
      713.826800       0.005700
      713.852300       0.006400
      713.877800       0.007100
      713.903300       0.007800
      713.928700       0.008500
      713.954200       0.009000
      713.979700       0.009500
      714.005200       0.009900
      714.030700       0.010000
      714.056200       0.010000
      714.081700       0.009900
      714.107200       0.009600
      714.132700       0.009100
      714.158200       0.008600
      714.183700       0.008000
      714.209200       0.007300
      714.234700       0.006600
      714.260200       0.005900
      714.285700       0.005200
      714.311200       0.004600
      714.336700       0.004000
      714.362300       0.003500
      714.387800       0.002900
      714.413300       0.002400
      714.438800       0.002000
      714.464300       0.001700
      714.489900       0.001600
      714.515400       0.001600
      714.540900       0.001700
      714.566400       0.002000
      714.592000       0.002400
      714.617500       0.002800
      714.643000       0.003400
      714.668600       0.003900
      714.694100       0.004400
      714.719700       0.004900
      714.745200       0.005300
      714.770700       0.005600
      714.796300       0.005700
      714.821800       0.005700
      714.847400       0.005500
      714.872900       0.005200
      714.898500       0.004900
      714.924000       0.004600
      714.949600       0.004300
      714.975200       0.004100
      715.000700       0.004000
      715.026300       0.004000
      715.051800       0.004200
      715.077400       0.004700
      715.103000       0.005300
      715.128500       0.006000
      715.154100       0.006900
      715.179700       0.007700
      715.205300       0.008500
      715.230800       0.009200
      715.256400       0.009700
      715.282000       0.010100
      715.307600       0.010200
      715.333200       0.010000
      715.358800       0.009600
      715.384300       0.008900
      715.409900       0.008200
      715.435500       0.007400
      715.461100       0.006500
      715.486700       0.005800
      715.512300       0.005100
      715.537900       0.004600
      715.563500       0.004400
      715.589100       0.004400
      715.614700       0.004700
      715.640300       0.005200
      715.665900       0.005800
      715.691500       0.006500
      715.717100       0.007200
      715.742800       0.007900
      715.768400       0.008500
      715.794000       0.008900
      715.819600       0.009100
      715.845200       0.009100
      715.870900       0.009000
      715.896500       0.008600
      715.922100       0.008200
      715.947700       0.007700
      715.973400       0.007200
      715.999000       0.006800
      716.024600       0.006600
      716.050300       0.006500
      716.075900       0.006600
      716.101500       0.007000
      716.127200       0.007600
      716.152800       0.008300
      716.178500       0.009200
      716.204100       0.010100
      716.229800       0.011000
      716.255400       0.011800
      716.281100       0.012500
      716.306700       0.013000
      716.332400       0.013200
      716.358000       0.013100
      716.383700       0.012800
      716.409400       0.012200
      716.435000       0.011500
      716.460700       0.010700
      716.486400       0.009800
      716.512000       0.008900
      716.537700       0.008100
      716.563400       0.007400
      716.589000       0.006800
      716.614700       0.006400
      716.640400       0.006200
      716.666100       0.006200
      716.691800       0.006300
      716.717400       0.006500
      716.743100       0.006800
      716.768800       0.007200
      716.794500       0.007600
      716.820200       0.007800
      716.845900       0.008000
      716.871600       0.008200
      716.897300       0.008400
      716.923000       0.008600
      716.948700       0.008600
      716.974400       0.008700
      717.000100       0.008700
      717.025800       0.008600
      717.051500       0.008500
      717.077200       0.008300
      717.102900       0.008100
      717.128600       0.007900
      717.154300       0.007700
      717.180000       0.007400
      717.205800       0.007100
      717.231500       0.006900
      717.257200       0.006700
      717.282900       0.006500
      717.308700       0.006300
      717.334400       0.006200
      717.360100       0.006100
      717.385800       0.006200
      717.411600       0.006300
      717.437300       0.006400
      717.463100       0.006600
      717.488800       0.006700
      717.514500       0.006900
      717.540300       0.007100
      717.566000       0.007200
      717.591800       0.007200
      717.617500       0.007200
      717.643300       0.007200
      717.669000       0.007000
      717.694800       0.006800
      717.720500       0.006600
      717.746300       0.006400
      717.772000       0.006200
      717.797800       0.006100
      717.823600       0.006000
      717.849300       0.006100
      717.875100       0.006200
      717.900900       0.006500
      717.926600       0.006900
      717.952400       0.007300
      717.978200       0.007900
      718.003900       0.008400
      718.029700       0.009000
      718.055500       0.009500
      718.081300       0.010000
      718.107100       0.010400
      718.132900       0.010700
      718.158600       0.010900
      718.184400       0.010900
      718.210200       0.010900
      718.236000       0.010800
      718.261800       0.010600
      718.287600       0.010300
      718.313400       0.010100
      718.339200       0.009800
      718.365000       0.009500
      718.390800       0.009300
      718.416600       0.009100
      718.442400       0.009000
      718.468200       0.008800
      718.494000       0.008700
      718.519800       0.008600
      718.545700       0.008500
      718.571500       0.008500
      718.597300       0.008400
      718.623100       0.008200
      718.648900       0.008100
      718.674800       0.007900
      718.700600       0.007700
      718.726400       0.007500
      718.752200       0.007400
      718.778100       0.007200
      718.803900       0.007100
      718.829700       0.007000
      718.855600       0.007000
      718.881400       0.007100
      718.907300       0.007200
      718.933100       0.007500
      718.958900       0.007800
      718.984800       0.008200
      719.010600       0.008600
      719.036500       0.009000
      719.062300       0.009400
      719.088200       0.009600
      719.114100       0.009800
      719.139900       0.009800
      719.165800       0.009600
      719.191600       0.009300
      719.217500       0.008700
      719.243400       0.008100
      719.269200       0.007300
      719.295100       0.006500
      719.321000       0.005600
      719.346800       0.004700
      719.372700       0.003900
      719.398600       0.003100
      719.424500       0.002400
      719.450300       0.002000
      719.476200       0.001600
      719.502100       0.001400
      719.528000       0.001300
      719.553900       0.001100
      719.579800       0.001100
      719.605700       0.001100
      719.631500       0.001300
      719.657400       0.001600
      719.683300       0.002200
      719.709200       0.002800
      719.735100       0.003500
      719.761000       0.004400
      719.786900       0.005200
      719.812800       0.006100
      719.838800       0.007000
      719.864700       0.008000
      719.890600       0.008800
      719.916500       0.009700
      719.942400       0.010400
      719.968300       0.011100
      719.994200       0.011700
      720.020200       0.012200
      720.046100       0.012600
      720.072000       0.012900
      720.097900       0.013100
      720.123900       0.013100
      720.149800       0.013100
      720.175700       0.012900
      720.201700       0.012600
      720.227600       0.012100
      720.253500       0.011600
      720.279500       0.010900
      720.305400       0.010300
      720.331400       0.009600
      720.357300       0.009000
      720.383200       0.008500
      720.409200       0.008000
      720.435100       0.007700
      720.461100       0.007600
      720.487000       0.007600
      720.513000       0.007800
      720.539000       0.008200
      720.564900       0.008700
      720.590900       0.009400
      720.616800       0.010200
      720.642800       0.011100
      720.668800       0.012100
      720.694700       0.013100
      720.720700       0.014300
      720.746700       0.015400
      720.772700       0.016600
      720.798600       0.017700
      720.824600       0.018800
      720.850600       0.019800
      720.876600       0.020700
      720.902600       0.021500
      720.928600       0.022100
      720.954500       0.022400
      720.980500       0.022500
      721.006500       0.022400
      721.032500       0.022000
      721.058500       0.021400
      721.084500       0.020700
      721.110500       0.019900
      721.136500       0.019100
      721.162500       0.018200
      721.188500       0.017400
      721.214500       0.016700
      721.240500       0.016100
      721.266500       0.015600
      721.292600       0.015400
      721.318600       0.015200
      721.344600       0.015100
      721.370600       0.015000
      721.396600       0.014900
      721.422600       0.014900
      721.448700       0.014700
      721.474700       0.014500
      721.500700       0.014100
      721.526800       0.013700
      721.552800       0.013100
      721.578800       0.012400
      721.604800       0.011700
      721.630900       0.011100
      721.656900       0.010600
      721.683000       0.010200
      721.709000       0.010000
      721.735100       0.010000
      721.761100       0.010300
      721.787100       0.010900
      721.813200       0.011800
      721.839200       0.012900
      721.865300       0.014100
      721.891400       0.015300
      721.917400       0.016500
      721.943500       0.017600
      721.969500       0.018500
      721.995600       0.019200
      722.021700       0.019500
      722.047700       0.019400
      722.073800       0.019100
      722.099900       0.018400
      722.125900       0.017600
      722.152000       0.016700
      722.178100       0.015800
      722.204200       0.014900
      722.230200       0.014100
      722.256300       0.013500
      722.282400       0.013200
      722.308500       0.013300
      722.334600       0.013600
      722.360700       0.014100
      722.386800       0.014800
      722.412900       0.015700
      722.439000       0.016600
      722.465100       0.017500
      722.491100       0.018400
      722.517300       0.019100
      722.543400       0.019700
      722.569500       0.020100
      722.595600       0.020300
      722.621700       0.020300
      722.647800       0.020200
      722.673900       0.020000
      722.700000       0.019700
      722.726100       0.019300
      722.752200       0.018900
      722.778400       0.018500
      722.804500       0.018100
      722.830600       0.017800
      722.856700       0.017500
      722.882900       0.017200
      722.909000       0.017000
      722.935100       0.016900
      722.961200       0.016900
      722.987400       0.016900
      723.013500       0.017000
      723.039700       0.017200
      723.065800       0.017400
      723.091900       0.017800
      723.118100       0.018200
      723.144200       0.018600
      723.170400       0.019000
      723.196500       0.019400
      723.222700       0.019700
      723.248800       0.019900
      723.275000       0.019900
      723.301100       0.019700
      723.327300       0.019400
      723.353500       0.018800
      723.379600       0.018000
      723.405800       0.017100
      723.432000       0.016100
      723.458100       0.015200
      723.484300       0.014300
      723.510500       0.013600
      723.536600       0.013100
      723.562800       0.012900
      723.589000       0.013100
      723.615200       0.013600
      723.641400       0.014500
      723.667500       0.015700
      723.693700       0.017100
      723.719900       0.018500
      723.746100       0.020000
      723.772300       0.021500
      723.798500       0.022800
      723.824700       0.024000
      723.850900       0.024900
      723.877100       0.025500
      723.903300       0.025700
      723.929500       0.025700
      723.955700       0.025500
      723.981900       0.025200
      724.008100       0.024700
      724.034300       0.024100
      724.060500       0.023500
      724.086700       0.022800
      724.113000       0.022200
      724.139200       0.021800
      724.165400       0.021300
      724.191600       0.021000
      724.217800       0.020800
      724.244100       0.020600
      724.270300       0.020600
      724.296500       0.020600
      724.322800       0.020700
      724.349000       0.020900
      724.375200       0.021200
      724.401500       0.021500
      724.427700       0.021900
      724.453900       0.022400
      724.480200       0.023000
      724.506400       0.023500
      724.532700       0.024200
      724.558900       0.024800
      724.585200       0.025500
      724.611400       0.026200
      724.637700       0.026900
      724.663900       0.027500
      724.690200       0.028200
      724.716500       0.028800
      724.742700       0.029400
      724.769000       0.029900
      724.795200       0.030300
      724.821500       0.030700
      724.847800       0.031000
      724.874100       0.031100
      724.900300       0.031200
      724.926600       0.031100
      724.952900       0.030900
      724.979200       0.030700
      725.005400       0.030300
      725.031700       0.030000
      725.058000       0.029600
      725.084300       0.029200
      725.110600       0.028800
      725.136900       0.028500
      725.163200       0.028200
      725.189500       0.028100
      725.215800       0.028000
      725.242000       0.028000
      725.268300       0.028100
      725.294700       0.028300
      725.321000       0.028700
      725.347300       0.029100
      725.373600       0.029700
      725.399900       0.030400
      725.426200       0.031300
      725.452500       0.032300
      725.478800       0.033300
      725.505100       0.034500
      725.531500       0.035600
      725.557800       0.036700
      725.584100       0.037700
      725.610400       0.038600
      725.636700       0.039300
      725.663100       0.039800
      725.689400       0.040000
      725.715700       0.039900
      725.742100       0.039600
      725.768400       0.039100
      725.794700       0.038500
      725.821100       0.037800
      725.847400       0.037100
      725.873800       0.036500
      725.900100       0.036100
      725.926500       0.035900
      725.952800       0.036000
      725.979200       0.036400
      726.005500       0.037100
      726.031900       0.038100
      726.058200       0.039200
      726.084600       0.040400
      726.110900       0.041700
      726.137300       0.043100
      726.163700       0.044300
      726.190000       0.045400
      726.216400       0.046400
      726.242800       0.047100
      726.269200       0.047700
      726.295500       0.048000
      726.321900       0.048300
      726.348300       0.048300
      726.374700       0.048400
      726.401000       0.048300
      726.427400       0.048200
      726.453800       0.048100
      726.480200       0.048000
      726.506600       0.048000
      726.533000       0.048000
      726.559400       0.048100
      726.585800       0.048100
      726.612200       0.048200
      726.638600       0.048200
      726.665000       0.048200
      726.691400       0.048100
      726.717800       0.048000
      726.744200       0.047800
      726.770600       0.047500
      726.797000       0.047200
      726.823400       0.046800
      726.849800       0.046400
      726.876200       0.046000
      726.902700       0.045600
      726.929100       0.045200
      726.955500       0.044900
      726.981900       0.044700
      727.008400       0.044600
      727.034800       0.044600
      727.061200       0.044800
      727.087700       0.045000
      727.114100       0.045400
      727.140500       0.045900
      727.167000       0.046500
      727.193400       0.047200
      727.219800       0.048000
      727.246300       0.048900
      727.272700       0.049900
      727.299200       0.051000
      727.325600       0.052100
      727.352100       0.053300
      727.378500       0.054500
      727.405000       0.055600
      727.431400       0.056700
      727.457900       0.057700
      727.484400       0.058600
      727.510800       0.059300
      727.537300       0.059900
      727.563800       0.060200
      727.590200       0.060300
      727.616700       0.060300
      727.643200       0.060200
      727.669600       0.060000
      727.696100       0.059800
      727.722600       0.059500
      727.749100       0.059300
      727.775600       0.059100
      727.802000       0.059000
      727.828500       0.059000
      727.855000       0.059100
      727.881500       0.059400
      727.908000       0.059700
      727.934500       0.060100
      727.961000       0.060700
      727.987500       0.061400
      728.014000       0.062100
      728.040500       0.063000
      728.067000       0.063900
      728.093500       0.064900
      728.120000       0.066000
      728.146500       0.067200
      728.173000       0.068300
      728.199500       0.069500
      728.226000       0.070500
      728.252600       0.071600
      728.279100       0.072500
      728.305600       0.073300
      728.332100       0.074000
      728.358600       0.074400
      728.385200       0.074800
      728.411700       0.075000
      728.438200       0.075200
      728.464800       0.075200
      728.491300       0.075300
      728.517800       0.075300
      728.544400       0.075300
      728.570900       0.075400
      728.597400       0.075600
      728.624000       0.075900
      728.650500       0.076300
      728.677100       0.076700
      728.703600       0.077300
      728.730200       0.077900
      728.756700       0.078600
      728.783300       0.079300
      728.809900       0.080100
      728.836400       0.080900
      728.863000       0.081800
      728.889500       0.082700
      728.916100       0.083700
      728.942700       0.084600
      728.969200       0.085500
      728.995800       0.086400
      729.022400       0.087300
      729.049000       0.088200
      729.075500       0.089000
      729.102100       0.089700
      729.128700       0.090400
      729.155300       0.091000
      729.181900       0.091500
      729.208400       0.092000
