21,   21, MVIRI VIS channel from srf_MET5_1993303_1993304_1801-Release_S10EL_10.dat
Number of data points:
806
Wavenumber (cm-1)   Filter response
     8350.730700       0.000000
     8357.710000       0.000000
     8364.701000       0.000000
     8371.703600       0.000001
     8378.718100       0.000004
     8385.744200       0.000009
     8392.782200       0.000016
     8399.832000       0.000026
     8406.893700       0.000040
     8413.967200       0.000058
     8421.052600       0.000081
     8428.150000       0.000108
     8435.259400       0.000141
     8442.380800       0.000180
     8449.514200       0.000225
     8456.659600       0.000277
     8463.817200       0.000336
     8470.986900       0.000403
     8478.168700       0.000477
     8485.362700       0.000559
     8492.569000       0.000650
     8499.787500       0.000750
     8507.018300       0.000858
     8514.261400       0.000977
     8521.516800       0.001105
     8528.784600       0.001243
     8536.064900       0.001391
     8543.357500       0.001550
     8550.662700       0.001719
     8557.980300       0.001900
     8565.310500       0.002092
     8572.653200       0.002295
     8580.008600       0.002511
     8587.376600       0.002738
     8594.757200       0.002977
     8602.150500       0.003229
     8609.556600       0.003493
     8616.975400       0.003771
     8624.407100       0.004061
     8631.851500       0.004364
     8639.308900       0.004681
     8646.779100       0.005011
     8654.262200       0.005355
     8661.758300       0.005712
     8669.267400       0.006084
     8676.789600       0.006470
     8684.324800       0.006870
     8691.873100       0.007285
     8699.434500       0.007714
     8707.009100       0.008158
     8714.596900       0.008617
     8722.198000       0.009091
     8729.812300       0.009580
     8737.439900       0.010085
     8745.080900       0.010605
     8752.735200       0.011140
     8760.403000       0.011691
     8768.084200       0.012259
     8775.778900       0.012841
     8783.487000       0.013440
     8791.208800       0.014056
     8798.944100       0.014687
     8806.693100       0.015335
     8814.455700       0.016000
     8822.232000       0.016681
     8830.022100       0.017379
     8837.825900       0.018094
     8845.643500       0.018825
     8853.475000       0.019574
     8861.320300       0.020341
     8869.179600       0.021124
     8877.052800       0.021925
     8884.940000       0.022743
     8892.841300       0.023579
     8900.756600       0.024433
     8908.686000       0.025305
     8916.629500       0.026194
     8924.587200       0.027102
     8932.559200       0.028028
     8940.545400       0.028972
     8948.545900       0.029935
     8956.560700       0.030916
     8964.589900       0.031915
     8972.633500       0.032934
     8980.691500       0.033971
     8988.764000       0.035027
     8996.851100       0.036102
     9004.952700       0.037196
     9013.068900       0.038309
     9021.199800       0.039442
     9029.345400       0.040594
     9037.505600       0.041765
     9045.680700       0.042957
     9053.870500       0.044167
     9062.075200       0.045398
     9070.294800       0.046649
     9078.529300       0.047919
     9086.778700       0.049210
     9095.043200       0.050521
     9103.322700       0.051852
     9111.617300       0.053203
     9119.927000       0.054575
     9128.251900       0.055968
     9136.592100       0.057381
     9144.947400       0.058815
     9153.318100       0.060269
     9161.704100       0.061745
     9170.105500       0.063242
     9178.522300       0.064760
     9186.954500       0.066299
     9195.402300       0.067860
     9203.865600       0.069441
     9212.344500       0.071045
     9220.839100       0.072669
     9229.349300       0.074316
     9237.875300       0.075984
     9246.417000       0.077674
     9254.974500       0.079386
     9263.547900       0.081120
     9272.137200       0.082876
     9280.742500       0.084654
     9289.363700       0.086454
     9298.000900       0.088277
     9306.654300       0.090122
     9315.323700       0.091989
     9324.009300       0.093879
     9332.711200       0.095792
     9341.429200       0.097726
     9350.163600       0.099684
     9358.914400       0.101664
     9367.681500       0.103668
     9376.465100       0.105694
     9385.265100       0.107743
     9394.081700       0.109815
     9402.914900       0.111909
     9411.764700       0.114027
     9420.631200       0.116169
     9429.514400       0.118333
     9438.414300       0.120520
     9447.331100       0.122731
     9456.264800       0.124965
     9465.215300       0.127222
     9474.182900       0.129502
     9483.167400       0.131806
     9492.169000       0.134133
     9501.187600       0.136484
     9510.223500       0.138858
     9519.276500       0.141256
     9528.346800       0.143677
     9537.434400       0.146121
     9546.539400       0.148589
     9555.661700       0.151081
     9564.801500       0.153596
     9573.958800       0.156134
     9583.133700       0.158696
     9592.326100       0.161281
     9601.536200       0.163890
     9610.764100       0.166522
     9620.009600       0.169178
     9629.273000       0.171857
     9638.554200       0.174559
     9647.853400       0.177285
     9657.170400       0.180034
     9666.505600       0.182807
     9675.858700       0.185603
     9685.230000       0.188421
     9694.619500       0.191264
     9704.027200       0.194129
     9713.453100       0.197017
     9722.897400       0.199928
     9732.360100       0.202862
     9741.841200       0.205819
     9751.340800       0.208799
     9760.859000       0.211802
     9770.395700       0.214827
     9779.951100       0.217875
     9789.525200       0.220945
     9799.118100       0.224038
     9808.729800       0.227153
     9818.360300       0.230290
     9828.009800       0.233449
     9837.678300       0.236631
     9847.365800       0.239834
     9857.072400       0.243059
     9866.798200       0.246306
     9876.543200       0.249574
     9886.307500       0.252864
     9896.091000       0.256175
     9905.894000       0.259507
     9915.716400       0.262860
     9925.558300       0.266234
     9935.419800       0.269629
     9945.300800       0.273044
     9955.201600       0.276480
     9965.122100       0.279936
     9975.062300       0.283412
     9985.022500       0.286908
     9995.002500       0.290424
    10005.002500       0.293960
    10015.022500       0.297515
    10025.062700       0.301089
    10035.122900       0.304682
    10045.203400       0.308294
    10055.304200       0.311925
    10065.425300       0.315574
    10075.566800       0.319242
    10085.728700       0.322927
    10095.911200       0.326631
    10106.114200       0.330352
    10116.337900       0.334090
    10126.582300       0.337846
    10136.847400       0.341618
    10147.133400       0.345407
    10157.440300       0.349213
    10167.768200       0.353035
    10178.117000       0.356873
    10188.487000       0.360726
    10198.878100       0.364596
    10209.290500       0.368480
    10219.724100       0.372380
    10230.179000       0.376294
    10240.655400       0.380222
    10251.153300       0.384165
    10261.672700       0.388122
    10272.213700       0.392092
    10282.776300       0.396075
    10293.360800       0.400072
    10303.967000       0.404082
    10314.595200       0.408103
    10325.245200       0.412137
    10335.917300       0.416184
    10346.611500       0.420241
    10357.327800       0.424310
    10368.066400       0.428389
    10378.827200       0.432480
    10389.610400       0.436581
    10400.416000       0.440691
    10411.244100       0.444812
    10422.094800       0.448941
    10432.968200       0.453080
    10443.864200       0.457228
    10454.783100       0.461384
    10465.724800       0.465548
    10476.689400       0.469719
    10487.677000       0.473898
    10498.687700       0.478084
    10509.721500       0.482277
    10520.778500       0.486476
    10531.858900       0.490680
    10542.962600       0.494891
    10554.089700       0.499107
    10565.240400       0.503327
    10576.414600       0.507552
    10587.612500       0.511782
    10598.834100       0.516015
    10610.079600       0.520251
    10621.348900       0.524491
    10632.642200       0.528733
    10643.959600       0.532977
    10655.301000       0.537224
    10666.666700       0.541471
    10678.056600       0.545720
    10689.470900       0.549970
    10700.909600       0.554221
    10712.372800       0.558471
    10723.860600       0.562721
    10735.373100       0.566970
    10746.910300       0.571218
    10758.472300       0.575464
    10770.059200       0.579709
    10781.671200       0.583951
    10793.308100       0.588190
    10804.970300       0.592427
    10816.657700       0.596660
    10828.370300       0.600888
    10840.108400       0.605113
    10851.871900       0.609333
    10863.661100       0.613548
    10875.475800       0.617757
    10887.316300       0.621961
    10899.182600       0.626158
    10911.074700       0.630348
    10922.992900       0.634532
    10934.937100       0.638708
    10946.907500       0.642876
    10958.904100       0.647035
    10970.927000       0.651186
    10982.976400       0.655328
    10995.052200       0.659461
    11007.154700       0.663583
    11019.283700       0.667696
    11031.439600       0.671798
    11043.622300       0.675888
    11055.832000       0.679967
    11068.068600       0.684035
    11080.332400       0.688090
    11092.623400       0.692132
    11104.941700       0.696161
    11117.287400       0.700177
    11129.660500       0.704179
    11142.061300       0.708168
    11154.489700       0.712141
    11166.945800       0.716099
    11179.429800       0.720042
    11191.941800       0.723970
    11204.481800       0.727881
    11217.049900       0.731776
    11229.646300       0.735653
    11242.270900       0.739514
    11254.924000       0.743357
    11267.605600       0.747182
    11280.315800       0.750988
    11293.054800       0.754776
    11305.822500       0.758545
    11318.619100       0.762294
    11331.444800       0.766024
    11344.299500       0.769733
    11357.183400       0.773422
    11370.096600       0.777090
    11383.039300       0.780737
    11396.011400       0.784362
    11409.013100       0.787965
    11422.044500       0.791546
    11435.105800       0.795104
    11448.196900       0.798640
    11461.318100       0.802152
    11474.469300       0.805641
    11487.650800       0.809105
    11500.862600       0.812546
    11514.104800       0.815962
    11527.377500       0.819353
    11540.680900       0.822719
    11554.015000       0.826059
    11567.380000       0.829374
    11580.775900       0.832662
    11594.202900       0.835925
    11607.661100       0.839160
    11621.150500       0.842369
    11634.671300       0.845550
    11648.223600       0.848704
    11661.807600       0.851830
    11675.423200       0.854928
    11689.070700       0.857998
    11702.750100       0.861039
    11716.461600       0.864051
    11730.205300       0.867034
    11743.981200       0.869988
    11757.789500       0.872912
    11771.630400       0.875806
    11785.503800       0.878670
    11799.410000       0.881504
    11813.349100       0.884308
    11827.321100       0.887081
    11841.326200       0.889822
    11855.364600       0.892533
    11869.436200       0.895212
    11883.541300       0.897860
    11897.680000       0.900476
    11911.852300       0.903060
    11926.058400       0.905611
    11940.298500       0.908131
    11954.572600       0.910618
    11968.880900       0.913072
    11983.223500       0.915493
    11997.600500       0.917882
    12012.012000       0.920237
    12026.458200       0.922559
    12040.939200       0.924848
    12055.455100       0.927103
    12070.006000       0.929325
    12084.592100       0.931512
    12099.213600       0.933666
    12113.870400       0.935785
    12128.562800       0.937871
    12143.290800       0.939922
    12158.054700       0.941939
    12172.854500       0.943921
    12187.690400       0.945869
    12202.562500       0.947782
    12217.471000       0.949661
    12232.415900       0.951504
    12247.397400       0.953313
    12262.415700       0.955087
    12277.470800       0.956827
    12292.563000       0.958531
    12307.692300       0.960200
    12322.858900       0.961834
    12338.062900       0.963434
    12353.304500       0.964998
    12368.583800       0.966527
    12383.900900       0.968021
    12399.256000       0.969480
    12414.649300       0.970903
    12430.080800       0.972292
    12445.550700       0.973646
    12461.059200       0.974964
    12476.606400       0.976248
    12492.192400       0.977497
    12507.817400       0.978710
    12523.481500       0.979889
    12539.185000       0.981033
    12554.927800       0.982143
    12570.710200       0.983217
    12586.532400       0.984257
    12602.394500       0.985263
    12618.296500       0.986234
    12634.238800       0.987170
    12650.221400       0.988073
    12666.244500       0.988941
    12682.308200       0.989775
    12698.412700       0.990575
    12714.558200       0.991341
    12730.744700       0.992074
    12746.972600       0.992773
    12763.241900       0.993439
    12779.552700       0.994071
    12795.905300       0.994670
    12812.299800       0.995237
    12828.736400       0.995770
    12845.215200       0.996271
    12861.736300       0.996739
    12878.300100       0.997175
    12894.906500       0.997579
    12911.555800       0.997951
    12928.248200       0.998291
    12944.983800       0.998600
    12961.762800       0.998877
    12978.585300       0.999123
    12995.451600       0.999339
    13012.361700       0.999523
    13029.316000       0.999677
    13046.314400       0.999801
    13063.357300       0.999895
    13080.444700       0.999960
    13097.576900       0.999994
    13114.754100       1.000000
    13131.976400       0.999977
    13149.243900       0.999924
    13166.556900       0.999844
    13183.915600       0.999735
    13201.320100       0.999599
    13218.770700       0.999434
    13236.267400       0.999243
    13253.810500       0.999024
    13271.400100       0.998779
    13289.036500       0.998507
    13306.719900       0.998209
    13324.450400       0.997886
    13342.228200       0.997536
    13360.053400       0.997162
    13377.926400       0.996763
    13395.847300       0.996339
    13413.816200       0.995891
    13431.833400       0.995419
    13449.899100       0.994924
    13468.013500       0.994406
    13486.176700       0.993864
    13504.388900       0.993300
    13522.650400       0.992714
    13540.961400       0.992107
    13559.322000       0.991477
    13577.732500       0.990827
    13596.193100       0.990156
    13614.703900       0.989465
    13633.265200       0.988754
    13651.877100       0.988023
    13670.540000       0.987273
    13689.253900       0.986504
    13708.019200       0.985717
    13726.836000       0.984912
    13745.704500       0.984089
    13764.624900       0.983249
    13783.597500       0.982392
    13802.622500       0.981519
    13821.700100       0.980629
    13840.830400       0.979724
    13860.013900       0.978803
    13879.250500       0.977868
    13898.540700       0.976918
    13917.884500       0.975954
    13937.282200       0.974977
    13956.734100       0.973986
    13976.240400       0.972982
    13995.801300       0.971967
    14015.417000       0.970939
    14035.087700       0.969899
    14054.813800       0.968848
    14074.595400       0.967787
    14094.432700       0.966715
    14114.326000       0.965633
    14134.275600       0.964542
    14154.281700       0.963442
    14174.344400       0.962333
    14194.464200       0.961216
    14214.641100       0.960091
    14234.875400       0.958958
    14255.167500       0.957819
    14275.517500       0.956673
    14295.925700       0.955521
    14316.392300       0.954363
    14336.917600       0.953200
    14357.501800       0.952032
    14378.145200       0.950859
    14398.848100       0.949683
    14419.610700       0.948502
    14440.433200       0.947319
    14461.316000       0.946133
    14482.259200       0.944944
    14503.263200       0.943753
    14524.328200       0.942561
    14545.454500       0.941367
    14566.642400       0.940172
    14587.892000       0.938978
    14609.203800       0.937783
    14630.577900       0.936588
    14652.014700       0.935394
    14673.514300       0.934202
    14695.077100       0.933011
    14716.703500       0.931822
    14738.393500       0.930635
    14760.147600       0.929451
    14781.966000       0.928270
    14803.849000       0.927092
    14825.796900       0.925918
    14847.809900       0.924748
    14869.888500       0.923583
    14892.032800       0.922423
    14914.243100       0.921268
    14936.519800       0.920119
    14958.863100       0.918975
    14981.273400       0.917838
    15003.750900       0.916707
    15026.296000       0.915583
    15048.909000       0.914467
    15071.590100       0.913358
    15094.339600       0.912257
    15117.158000       0.911164
    15140.045400       0.910080
    15163.002300       0.909005
    15186.028900       0.907938
    15209.125500       0.906881
    15232.292500       0.905834
    15255.530100       0.904797
    15278.838800       0.903770
    15302.218800       0.902754
    15325.670500       0.901748
    15349.194200       0.900753
    15372.790200       0.899770
    15396.458800       0.898798
    15420.200500       0.897838
    15444.015400       0.896890
    15467.904100       0.895954
    15491.866800       0.895031
    15515.903800       0.894120
    15540.015500       0.893222
    15564.202300       0.892337
    15588.464500       0.891465
    15612.802500       0.890607
    15637.216600       0.889762
    15661.707100       0.888931
    15686.274500       0.888114
    15710.919100       0.887311
    15735.641200       0.886522
    15760.441300       0.885748
    15785.319700       0.884988
    15810.276700       0.884243
    15835.312700       0.883512
    15860.428200       0.882796
    15885.623500       0.882095
    15910.899000       0.881409
    15936.255000       0.880737
    15961.691900       0.880082
    15987.210200       0.879441
    16012.810200       0.878815
    16038.492400       0.878205
    16064.257000       0.877610
    16090.104600       0.877030
    16116.035500       0.876465
    16142.050000       0.875916
    16168.148700       0.875382
    16194.332000       0.874864
    16220.600200       0.874361
    16246.953700       0.873873
    16273.393000       0.873400
    16299.918500       0.872942
    16326.530600       0.872500
    16353.229800       0.872072
    16380.016400       0.871659
    16406.890900       0.871262
    16433.853700       0.870879
    16460.905300       0.870510
    16488.046200       0.870156
    16515.276600       0.869816
    16542.597200       0.869491
    16570.008300       0.869180
    16597.510400       0.868882
    16625.103900       0.868598
    16652.789300       0.868328
    16680.567100       0.868071
    16708.437800       0.867827
    16736.401700       0.867596
    16764.459300       0.867378
    16792.611300       0.867172
    16820.857900       0.866979
    16849.199700       0.866797
    16877.637100       0.866627
    16906.170800       0.866469
    16934.801000       0.866321
    16963.528400       0.866184
    16992.353400       0.866058
    17021.276600       0.865942
    17050.298400       0.865835
    17079.419300       0.865739
    17108.639900       0.865651
    17137.960600       0.865572
    17167.382000       0.865501
    17196.904600       0.865438
    17226.528900       0.865383
    17256.255400       0.865335
    17286.084700       0.865294
