  30 , eos_02_modis_30.flt
Number of data points:
313
Wavenumber (cm-1)   Filter response
      996.000000       0.000000
      996.250000       0.000000
      996.500000       0.010232
      996.750000       0.010466
      997.000000       0.011401
      997.250000       0.011561
      997.500000       0.012536
      997.750000       0.012655
      998.000000       0.012661
      998.250000       0.013604
      998.500000       0.014749
      998.750000       0.016125
      999.000000       0.017760
      999.250000       0.019682
      999.500000       0.021893
      999.750000       0.024360
     1000.000000       0.027064
     1000.250000       0.029983
     1000.500000       0.033075
     1000.750000       0.036340
     1001.000000       0.039757
     1001.250000       0.043377
     1001.500000       0.047255
     1001.750000       0.051443
     1002.000000       0.055996
     1002.250000       0.060968
     1002.500000       0.066401
     1002.750000       0.072307
     1003.000000       0.078699
     1003.250000       0.085567
     1003.500000       0.092873
     1003.750000       0.100636
     1004.000000       0.108859
     1004.250000       0.117540
     1004.500000       0.126677
     1004.750000       0.136269
     1005.000000       0.146315
     1005.250000       0.156811
     1005.500000       0.167773
     1005.750000       0.179241
     1006.000000       0.191231
     1006.250000       0.203719
     1006.500000       0.216698
     1006.750000       0.230137
     1007.000000       0.244085
     1007.250000       0.258464
     1007.500000       0.273182
     1007.750000       0.288145
     1008.000000       0.303260
     1008.250000       0.318435
     1008.500000       0.333596
     1008.750000       0.348771
     1009.000000       0.363972
     1009.250000       0.379189
     1009.500000       0.394515
     1009.750000       0.409900
     1010.000000       0.425373
     1010.250000       0.440872
     1010.500000       0.456299
     1010.750000       0.471554
     1011.000000       0.486541
     1011.250000       0.501161
     1011.500000       0.515323
     1011.750000       0.529004
     1012.000000       0.542199
     1012.250000       0.554913
     1012.500000       0.567228
     1012.750000       0.579160
     1013.000000       0.590691
     1013.250000       0.601812
     1013.500000       0.612514
     1013.750000       0.622787
     1014.000000       0.632621
     1014.250000       0.642007
     1014.500000       0.650932
     1014.750000       0.659369
     1015.000000       0.667295
     1015.250000       0.674713
     1015.500000       0.681627
     1015.750000       0.688047
     1016.000000       0.693995
     1016.250000       0.699477
     1016.500000       0.704584
     1016.750000       0.709407
     1017.000000       0.714036
     1017.250000       0.718563
     1017.500000       0.723079
     1017.750000       0.727653
     1018.000000       0.732286
     1018.250000       0.736983
     1018.500000       0.741735
     1018.750000       0.746455
     1019.000000       0.751170
     1019.250000       0.755863
     1019.500000       0.760560
     1019.750000       0.765302
     1020.000000       0.770131
     1020.250000       0.775086
     1020.500000       0.780210
     1020.750000       0.785543
     1021.000000       0.791128
     1021.250000       0.796991
     1021.500000       0.803135
     1021.750000       0.809540
     1022.000000       0.816180
     1022.250000       0.823045
     1022.500000       0.830120
     1022.750000       0.837345
     1023.000000       0.844657
     1023.250000       0.851995
     1023.500000       0.859297
     1023.750000       0.866502
     1024.000000       0.873556
     1024.250000       0.880433
     1024.500000       0.887130
     1024.750000       0.893650
     1025.000000       0.900074
     1025.250000       0.906396
     1025.500000       0.912664
     1025.750000       0.918871
     1026.000000       0.924986
     1026.250000       0.930980
     1026.500000       0.936825
     1026.750000       0.942492
     1027.000000       0.947950
     1027.250000       0.953174
     1027.500000       0.958150
     1027.750000       0.962874
     1028.000000       0.967372
     1028.250000       0.971700
     1028.500000       0.975825
     1028.750000       0.979738
     1029.000000       0.983401
     1029.250000       0.986775
     1029.500000       0.989819
     1029.750000       0.992495
     1030.000000       0.994763
     1030.250000       0.996589
     1030.500000       0.998016
     1030.750000       0.999060
     1031.000000       0.999718
     1031.250000       1.000000
     1031.500000       0.999890
     1031.750000       0.999344
     1032.000000       0.998323
     1032.250000       0.996803
     1032.500000       0.994758
     1032.750000       0.992165
     1033.000000       0.988998
     1033.250000       0.985233
     1033.500000       0.980867
     1033.750000       0.975989
     1034.000000       0.970630
     1034.250000       0.964796
     1034.500000       0.958433
     1034.750000       0.951534
     1035.000000       0.944074
     1035.250000       0.936046
     1035.500000       0.927479
     1035.750000       0.918401
     1036.000000       0.908841
     1036.250000       0.898828
     1036.500000       0.888389
     1036.750000       0.877542
     1037.000000       0.866281
     1037.250000       0.854643
     1037.500000       0.842631
     1037.750000       0.830194
     1038.000000       0.817374
     1038.250000       0.804190
     1038.500000       0.790682
     1038.750000       0.776914
     1039.000000       0.762945
     1039.250000       0.748837
     1039.500000       0.734653
     1039.750000       0.720453
     1040.000000       0.706240
     1040.250000       0.691914
     1040.500000       0.677463
     1040.750000       0.662873
     1041.000000       0.648118
     1041.250000       0.633245
     1041.500000       0.618310
     1041.750000       0.603360
     1042.000000       0.588444
     1042.250000       0.573610
     1042.500000       0.558907
     1042.750000       0.544382
     1043.000000       0.530084
     1043.250000       0.516016
     1043.500000       0.502092
     1043.750000       0.488261
     1044.000000       0.474510
     1044.250000       0.460809
     1044.500000       0.447170
     1044.750000       0.433624
     1045.000000       0.420206
     1045.250000       0.406953
     1045.500000       0.393901
     1045.750000       0.381086
     1046.000000       0.368545
     1046.250000       0.356314
     1046.500000       0.344421
     1046.750000       0.332857
     1047.000000       0.321610
     1047.250000       0.310681
     1047.500000       0.300065
     1047.750000       0.289749
     1048.000000       0.279702
     1048.250000       0.269901
     1048.500000       0.260348
     1048.750000       0.251040
     1049.000000       0.241980
     1049.250000       0.233165
     1049.500000       0.224598
     1049.750000       0.216280
     1050.000000       0.208232
     1050.250000       0.200467
     1050.500000       0.192994
     1050.750000       0.185831
     1051.000000       0.178976
     1051.250000       0.172408
     1051.500000       0.166096
     1051.750000       0.160026
     1052.000000       0.154179
     1052.250000       0.148541
     1052.500000       0.143094
     1052.750000       0.137821
     1053.000000       0.132708
     1053.250000       0.127766
     1053.500000       0.123009
     1053.750000       0.118444
     1054.000000       0.114079
     1054.250000       0.109927
     1054.500000       0.105977
     1054.750000       0.102226
     1055.000000       0.098657
     1055.250000       0.095250
     1055.500000       0.091987
     1055.750000       0.088846
     1056.000000       0.085809
     1056.250000       0.082856
     1056.500000       0.079978
     1056.750000       0.077185
     1057.000000       0.074477
     1057.250000       0.071854
     1057.500000       0.069326
     1057.750000       0.066889
     1058.000000       0.064547
     1058.250000       0.062301
     1058.500000       0.060143
     1058.750000       0.058065
     1059.000000       0.056060
     1059.250000       0.054121
     1059.500000       0.052239
     1059.750000       0.050410
     1060.000000       0.048638
     1060.250000       0.046931
     1060.500000       0.045289
     1060.750000       0.043714
     1061.000000       0.042209
     1061.250000       0.040769
     1061.500000       0.039398
     1061.750000       0.038090
     1062.000000       0.036838
     1062.250000       0.035637
     1062.500000       0.034480
     1062.750000       0.033361
     1063.000000       0.032273
     1063.250000       0.031215
     1063.500000       0.030191
     1063.750000       0.029202
     1064.000000       0.028246
     1064.250000       0.027324
     1064.500000       0.026434
     1064.750000       0.025579
     1065.000000       0.024757
     1065.250000       0.023966
     1065.500000       0.023203
     1065.750000       0.022463
     1066.000000       0.021745
     1066.250000       0.021044
     1066.500000       0.020359
     1066.750000       0.019696
     1067.000000       0.019061
     1067.250000       0.018454
     1067.500000       0.017873
     1067.750000       0.017318
     1068.000000       0.016787
     1068.250000       0.016988
     1068.500000       0.016470
     1068.750000       0.016726
     1069.000000       0.016204
     1069.250000       0.015697
     1069.500000       0.015201
     1069.750000       0.014715
     1070.000000       0.014863
     1070.250000       0.014395
     1070.500000       0.013938
     1070.750000       0.013494
     1071.000000       0.013066
     1071.250000       0.012655
     1071.500000       0.012263
     1071.750000       0.011892
     1072.000000       0.011791
     1072.250000       0.011442
     1072.500000       0.011365
     1072.750000       0.011019
     1073.000000       0.010688
     1073.250000       0.010369
     1073.500000       0.010143
     1073.750000       0.000000
     1074.000000       0.000000
