   8  ,noaa_17_hirs_08.flt
Number of data points:
114
Wavenumber (cm-1)   Filter response
      840.000000       0.000000
      841.000000       0.000728
      842.000000       0.002660
      843.000000       0.003656
      844.000000       0.003543
      845.000000       0.002744
      846.000000       0.001666
      847.000000       0.003132
      848.000000       0.003283
      849.000000       0.002673
      850.000000       0.003579
      851.000000       0.004046
      852.000000       0.003437
      853.000000       0.005082
      854.000000       0.005907
      855.000000       0.004942
      856.000000       0.005576
      857.000000       0.006276
      858.000000       0.007228
      859.000000       0.006439
      860.000000       0.006554
      861.000000       0.008753
      862.000000       0.010773
      863.000000       0.012316
      864.000000       0.014322
      865.000000       0.015934
      866.000000       0.019146
      867.000000       0.025100
      868.000000       0.028397
      869.000000       0.034315
      870.000000       0.042584
      871.000000       0.053099
      872.000000       0.064901
      873.000000       0.081087
      874.000000       0.102350
      875.000000       0.127080
      876.000000       0.159240
      877.000000       0.197890
      878.000000       0.255810
      879.000000       0.315420
      880.000000       0.381640
      881.000000       0.453980
      882.000000       0.527890
      883.000000       0.602880
      884.000000       0.677190
      885.000000       0.730930
      886.000000       0.784520
      887.000000       0.832510
      888.000000       0.870350
      889.000000       0.901590
      890.000000       0.923960
      891.000000       0.939530
      892.000000       0.948670
      893.000000       0.958340
      894.000000       0.963700
      895.000000       0.968900
      896.000000       0.971660
      897.000000       0.976970
      898.000000       0.981330
      899.000000       0.985430
      900.000000       0.990730
      901.000000       0.994240
      902.000000       0.996570
      903.000000       1.000000
      904.000000       0.998720
      905.000000       0.995790
      906.000000       0.987480
      907.000000       0.977240
      908.000000       0.962700
      909.000000       0.940420
      910.000000       0.913070
      911.000000       0.881940
      912.000000       0.844940
      913.000000       0.801170
      914.000000       0.749130
      915.000000       0.691230
      916.000000       0.627800
      917.000000       0.563170
      918.000000       0.494760
      919.000000       0.426970
      920.000000       0.362570
      921.000000       0.305600
      922.000000       0.252040
      923.000000       0.206070
      924.000000       0.169680
      925.000000       0.136250
      926.000000       0.109410
      927.000000       0.088023
      928.000000       0.070927
      929.000000       0.056923
      930.000000       0.045730
      931.000000       0.037804
      932.000000       0.031079
      933.000000       0.026209
      934.000000       0.020509
      935.000000       0.017451
      936.000000       0.015171
      937.000000       0.012886
      938.000000       0.011757
      939.000000       0.010463
      940.000000       0.007755
      941.000000       0.007873
      942.000000       0.006752
      943.000000       0.005638
      944.000000       0.005697
      945.000000       0.005290
      946.000000       0.005179
      947.000000       0.004471
      948.000000       0.005252
      949.000000       0.005322
      950.000000       0.004969
      951.000000       0.003115
      952.000000       0.000600
      953.000000       0.000000
