43,   43, MVIRI VIS channel from srf_MET5_1996213_1996214_1801-Release_S10EL_10.dat
Number of data points:
806
Wavenumber (cm-1)   Filter response
     8350.730700       0.000000
     8357.710000       0.000000
     8364.701000       0.000000
     8371.703600       0.000002
     8378.718100       0.000004
     8385.744200       0.000009
     8392.782200       0.000016
     8399.832000       0.000027
     8406.893700       0.000041
     8413.967200       0.000059
     8421.052600       0.000082
     8428.150000       0.000110
     8435.259400       0.000143
     8442.380800       0.000183
     8449.514200       0.000228
     8456.659600       0.000281
     8463.817200       0.000341
     8470.986900       0.000408
     8478.168700       0.000483
     8485.362700       0.000567
     8492.569000       0.000659
     8499.787500       0.000760
     8507.018300       0.000870
     8514.261400       0.000990
     8521.516800       0.001120
     8528.784600       0.001260
     8536.064900       0.001410
     8543.357500       0.001571
     8550.662700       0.001743
     8557.980300       0.001926
     8565.310500       0.002121
     8572.653200       0.002327
     8580.008600       0.002545
     8587.376600       0.002775
     8594.757200       0.003018
     8602.150500       0.003273
     8609.556600       0.003541
     8616.975400       0.003822
     8624.407100       0.004116
     8631.851500       0.004423
     8639.308900       0.004744
     8646.779100       0.005079
     8654.262200       0.005427
     8661.758300       0.005789
     8669.267400       0.006166
     8676.789600       0.006557
     8684.324800       0.006962
     8691.873100       0.007382
     8699.434500       0.007817
     8707.009100       0.008267
     8714.596900       0.008732
     8722.198000       0.009212
     8729.812300       0.009707
     8737.439900       0.010218
     8745.080900       0.010745
     8752.735200       0.011287
     8760.403000       0.011846
     8768.084200       0.012420
     8775.778900       0.013010
     8783.487000       0.013617
     8791.208800       0.014240
     8798.944100       0.014879
     8806.693100       0.015535
     8814.455700       0.016208
     8822.232000       0.016897
     8830.022100       0.017604
     8837.825900       0.018328
     8845.643500       0.019069
     8853.475000       0.019827
     8861.320300       0.020602
     8869.179600       0.021395
     8877.052800       0.022206
     8884.940000       0.023034
     8892.841300       0.023880
     8900.756600       0.024744
     8908.686000       0.025627
     8916.629500       0.026527
     8924.587200       0.027446
     8932.559200       0.028382
     8940.545400       0.029338
     8948.545900       0.030312
     8956.560700       0.031304
     8964.589900       0.032316
     8972.633500       0.033346
     8980.691500       0.034395
     8988.764000       0.035464
     8996.851100       0.036551
     9004.952700       0.037658
     9013.068900       0.038784
     9021.199800       0.039930
     9029.345400       0.041095
     9037.505600       0.042280
     9045.680700       0.043484
     9053.870500       0.044709
     9062.075200       0.045954
     9070.294800       0.047218
     9078.529300       0.048503
     9086.778700       0.049808
     9095.043200       0.051133
     9103.322700       0.052479
     9111.617300       0.053846
     9119.927000       0.055233
     9128.251900       0.056641
     9136.592100       0.058070
     9144.947400       0.059519
     9153.318100       0.060990
     9161.704100       0.062482
     9170.105500       0.063994
     9178.522300       0.065529
     9186.954500       0.067084
     9195.402300       0.068662
     9203.865600       0.070260
     9212.344500       0.071881
     9220.839100       0.073523
     9229.349300       0.075187
     9237.875300       0.076872
     9246.417000       0.078580
     9254.974500       0.080310
     9263.547900       0.082062
     9272.137200       0.083836
     9280.742500       0.085632
     9289.363700       0.087451
     9298.000900       0.089292
     9306.654300       0.091156
     9315.323700       0.093042
     9324.009300       0.094951
     9332.711200       0.096883
     9341.429200       0.098837
     9350.163600       0.100814
     9358.914400       0.102814
     9367.681500       0.104837
     9376.465100       0.106883
     9385.265100       0.108952
     9394.081700       0.111045
     9402.914900       0.113160
     9411.764700       0.115298
     9420.631200       0.117460
     9429.514400       0.119645
     9438.414300       0.121853
     9447.331100       0.124085
     9456.264800       0.126340
     9465.215300       0.128619
     9474.182900       0.130920
     9483.167400       0.133246
     9492.169000       0.135595
     9501.187600       0.137967
     9510.223500       0.140363
     9519.276500       0.142783
     9528.346800       0.145226
     9537.434400       0.147693
     9546.539400       0.150183
     9555.661700       0.152697
     9564.801500       0.155234
     9573.958800       0.157795
     9583.133700       0.160380
     9592.326100       0.162988
     9601.536200       0.165620
     9610.764100       0.168275
     9620.009600       0.170953
     9629.273000       0.173656
     9638.554200       0.176381
     9647.853400       0.179131
     9657.170400       0.181903
     9666.505600       0.184699
     9675.858700       0.187518
     9685.230000       0.190360
     9694.619500       0.193226
     9704.027200       0.196115
     9713.453100       0.199027
     9722.897400       0.201962
     9732.360100       0.204920
     9741.841200       0.207901
     9751.340800       0.210905
     9760.859000       0.213931
     9770.395700       0.216981
     9779.951100       0.220052
     9789.525200       0.223147
     9799.118100       0.226264
     9808.729800       0.229403
     9818.360300       0.232564
     9828.009800       0.235747
     9837.678300       0.238953
     9847.365800       0.242181
     9857.072400       0.245430
     9866.798200       0.248701
     9876.543200       0.251993
     9886.307500       0.255307
     9896.091000       0.258642
     9905.894000       0.261998
     9915.716400       0.265376
     9925.558300       0.268774
     9935.419800       0.272193
     9945.300800       0.275632
     9955.201600       0.279092
     9965.122100       0.282572
     9975.062300       0.286072
     9985.022500       0.289592
     9995.002500       0.293132
    10005.002500       0.296691
    10015.022500       0.300270
    10025.062700       0.303868
    10035.122900       0.307485
    10045.203400       0.311120
    10055.304200       0.314775
    10065.425300       0.318447
    10075.566800       0.322138
    10085.728700       0.325847
    10095.911200       0.329573
    10106.114200       0.333317
    10116.337900       0.337079
    10126.582300       0.340857
    10136.847400       0.344652
    10147.133400       0.348464
    10157.440300       0.352292
    10167.768200       0.356136
    10178.117000       0.359996
    10188.487000       0.363872
    10198.878100       0.367763
    10209.290500       0.371670
    10219.724100       0.375591
    10230.179000       0.379526
    10240.655400       0.383476
    10251.153300       0.387440
    10261.672700       0.391418
    10272.213700       0.395409
    10282.776300       0.399413
    10293.360800       0.403431
    10303.967000       0.407460
    10314.595200       0.411502
    10325.245200       0.415556
    10335.917300       0.419622
    10346.611500       0.423699
    10357.327800       0.427787
    10368.066400       0.431886
    10378.827200       0.435995
    10389.610400       0.440115
    10400.416000       0.444244
    10411.244100       0.448383
    10422.094800       0.452531
    10432.968200       0.456687
    10443.864200       0.460852
    10454.783100       0.465026
    10465.724800       0.469206
    10476.689400       0.473395
    10487.677000       0.477591
    10498.687700       0.481793
    10509.721500       0.486001
    10520.778500       0.490216
    10531.858900       0.494436
    10542.962600       0.498662
    10554.089700       0.502893
    10565.240400       0.507128
    10576.414600       0.511367
    10587.612500       0.515611
    10598.834100       0.519858
    10610.079600       0.524107
    10621.348900       0.528360
    10632.642200       0.532615
    10643.959600       0.536872
    10655.301000       0.541131
    10666.666700       0.545390
    10678.056600       0.549651
    10689.470900       0.553912
    10700.909600       0.558173
    10712.372800       0.562434
    10723.860600       0.566694
    10735.373100       0.570953
    10746.910300       0.575211
    10758.472300       0.579466
    10770.059200       0.583719
    10781.671200       0.587970
    10793.308100       0.592218
    10804.970300       0.596462
    10816.657700       0.600702
    10828.370300       0.604938
    10840.108400       0.609169
    10851.871900       0.613395
    10863.661100       0.617616
    10875.475800       0.621831
    10887.316300       0.626039
    10899.182600       0.630241
    10911.074700       0.634436
    10922.992900       0.638623
    10934.937100       0.642803
    10946.907500       0.646974
    10958.904100       0.651136
    10970.927000       0.655290
    10982.976400       0.659433
    10995.052200       0.663567
    11007.154700       0.667691
    11019.283700       0.671804
    11031.439600       0.675906
    11043.622300       0.679996
    11055.832000       0.684075
    11068.068600       0.688141
    11080.332400       0.692195
    11092.623400       0.696235
    11104.941700       0.700262
    11117.287400       0.704275
    11129.660500       0.708274
    11142.061300       0.712259
    11154.489700       0.716228
    11166.945800       0.720182
    11179.429800       0.724120
    11191.941800       0.728042
    11204.481800       0.731947
    11217.049900       0.735836
    11229.646300       0.739707
    11242.270900       0.743560
    11254.924000       0.747395
    11267.605600       0.751212
    11280.315800       0.755010
    11293.054800       0.758789
    11305.822500       0.762548
    11318.619100       0.766288
    11331.444800       0.770007
    11344.299500       0.773706
    11357.183400       0.777383
    11370.096600       0.781040
    11383.039300       0.784674
    11396.011400       0.788287
    11409.013100       0.791877
    11422.044500       0.795444
    11435.105800       0.798989
    11448.196900       0.802510
    11461.318100       0.806007
    11474.469300       0.809481
    11487.650800       0.812930
    11500.862600       0.816354
    11514.104800       0.819753
    11527.377500       0.823127
    11540.680900       0.826475
    11554.015000       0.829798
    11567.380000       0.833094
    11580.775900       0.836364
    11594.202900       0.839607
    11607.661100       0.842822
    11621.150500       0.846011
    11634.671300       0.849171
    11648.223600       0.852304
    11661.807600       0.855409
    11675.423200       0.858484
    11689.070700       0.861532
    11702.750100       0.864550
    11716.461600       0.867539
    11730.205300       0.870498
    11743.981200       0.873428
    11757.789500       0.876327
    11771.630400       0.879197
    11785.503800       0.882036
    11799.410000       0.884844
    11813.349100       0.887621
    11827.321100       0.890367
    11841.326200       0.893081
    11855.364600       0.895764
    11869.436200       0.898416
    11883.541300       0.901035
    11897.680000       0.903622
    11911.852300       0.906177
    11926.058400       0.908699
    11940.298500       0.911189
    11954.572600       0.913645
    11968.880900       0.916069
    11983.223500       0.918459
    11997.600500       0.920816
    12012.012000       0.923140
    12026.458200       0.925429
    12040.939200       0.927685
    12055.455100       0.929907
    12070.006000       0.932095
    12084.592100       0.934249
    12099.213600       0.936369
    12113.870400       0.938454
    12128.562800       0.940504
    12143.290800       0.942520
    12158.054700       0.944501
    12172.854500       0.946448
    12187.690400       0.948359
    12202.562500       0.950236
    12217.471000       0.952078
    12232.415900       0.953884
    12247.397400       0.955655
    12262.415700       0.957392
    12277.470800       0.959093
    12292.563000       0.960758
    12307.692300       0.962389
    12322.858900       0.963984
    12338.062900       0.965543
    12353.304500       0.967068
    12368.583800       0.968557
    12383.900900       0.970010
    12399.256000       0.971429
    12414.649300       0.972812
    12430.080800       0.974159
    12445.550700       0.975471
    12461.059200       0.976748
    12476.606400       0.977990
    12492.192400       0.979196
    12507.817400       0.980367
    12523.481500       0.981503
    12539.185000       0.982604
    12554.927800       0.983670
    12570.710200       0.984701
    12586.532400       0.985698
    12602.394500       0.986659
    12618.296500       0.987586
    12634.238800       0.988478
    12650.221400       0.989336
    12666.244500       0.990159
    12682.308200       0.990948
    12698.412700       0.991703
    12714.558200       0.992424
    12730.744700       0.993111
    12746.972600       0.993764
    12763.241900       0.994384
    12779.552700       0.994970
    12795.905300       0.995522
    12812.299800       0.996042
    12828.736400       0.996529
    12845.215200       0.996983
    12861.736300       0.997404
    12878.300100       0.997793
    12894.906500       0.998149
    12911.555800       0.998473
    12928.248200       0.998766
    12944.983800       0.999027
    12961.762800       0.999256
    12978.585300       0.999454
    12995.451600       0.999622
    13012.361700       0.999758
    13029.316000       0.999864
    13046.314400       0.999939
    13063.357300       0.999984
    13080.444700       1.000000
    13097.576900       0.999986
    13114.754100       0.999943
    13131.976400       0.999870
    13149.243900       0.999769
    13166.556900       0.999639
    13183.915600       0.999481
    13201.320100       0.999295
    13218.770700       0.999082
    13236.267400       0.998840
    13253.810500       0.998572
    13271.400100       0.998277
    13289.036500       0.997956
    13306.719900       0.997608
    13324.450400       0.997235
    13342.228200       0.996836
    13360.053400       0.996412
    13377.926400       0.995963
    13395.847300       0.995489
    13413.816200       0.994991
    13431.833400       0.994470
    13449.899100       0.993924
    13468.013500       0.993356
    13486.176700       0.992764
    13504.388900       0.992150
    13522.650400       0.991514
    13540.961400       0.990857
    13559.322000       0.990177
    13577.732500       0.989477
    13596.193100       0.988756
    13614.703900       0.988015
    13633.265200       0.987253
    13651.877100       0.986473
    13670.540000       0.985673
    13689.253900       0.984854
    13708.019200       0.984017
    13726.836000       0.983161
    13745.704500       0.982289
    13764.624900       0.981398
    13783.597500       0.980492
    13802.622500       0.979568
    13821.700100       0.978629
    13840.830400       0.977674
    13860.013900       0.976703
    13879.250500       0.975718
    13898.540700       0.974719
    13917.884500       0.973705
    13937.282200       0.972678
    13956.734100       0.971638
    13976.240400       0.970584
    13995.801300       0.969519
    14015.417000       0.968441
    14035.087700       0.967352
    14054.813800       0.966252
    14074.595400       0.965141
    14094.432700       0.964020
    14114.326000       0.962889
    14134.275600       0.961749
    14154.281700       0.960599
    14174.344400       0.959441
    14194.464200       0.958275
    14214.641100       0.957101
    14234.875400       0.955919
    14255.167500       0.954731
    14275.517500       0.953536
    14295.925700       0.952335
    14316.392300       0.951128
    14336.917600       0.949916
    14357.501800       0.948700
    14378.145200       0.947478
    14398.848100       0.946253
    14419.610700       0.945024
    14440.433200       0.943792
    14461.316000       0.942557
    14482.259200       0.941320
    14503.263200       0.940081
    14524.328200       0.938840
    14545.454500       0.937598
    14566.642400       0.936355
    14587.892000       0.935112
    14609.203800       0.933869
    14630.577900       0.932626
    14652.014700       0.931384
    14673.514300       0.930144
    14695.077100       0.928904
    14716.703500       0.927667
    14738.393500       0.926432
    14760.147600       0.925200
    14781.966000       0.923971
    14803.849000       0.922745
    14825.796900       0.921524
    14847.809900       0.920306
    14869.888500       0.919093
    14892.032800       0.917885
    14914.243100       0.916682
    14936.519800       0.915484
    14958.863100       0.914293
    14981.273400       0.913108
    15003.750900       0.911929
    15026.296000       0.910757
    15048.909000       0.909593
    15071.590100       0.908436
    15094.339600       0.907287
    15117.158000       0.906146
    15140.045400       0.905014
    15163.002300       0.903891
    15186.028900       0.902776
    15209.125500       0.901671
    15232.292500       0.900576
    15255.530100       0.899491
    15278.838800       0.898416
    15302.218800       0.897351
    15325.670500       0.896297
    15349.194200       0.895254
    15372.790200       0.894222
    15396.458800       0.893202
    15420.200500       0.892193
    15444.015400       0.891197
    15467.904100       0.890212
    15491.866800       0.889240
    15515.903800       0.888281
    15540.015500       0.887334
    15564.202300       0.886400
    15588.464500       0.885479
    15612.802500       0.884572
    15637.216600       0.883678
    15661.707100       0.882798
    15686.274500       0.881932
    15710.919100       0.881079
    15735.641200       0.880241
    15760.441300       0.879417
    15785.319700       0.878607
    15810.276700       0.877811
    15835.312700       0.877031
    15860.428200       0.876265
    15885.623500       0.875513
    15910.899000       0.874777
    15936.255000       0.874055
    15961.691900       0.873348
    15987.210200       0.872657
    16012.810200       0.871980
    16038.492400       0.871319
    16064.257000       0.870672
    16090.104600       0.870041
    16116.035500       0.869425
    16142.050000       0.868824
    16168.148700       0.868239
    16194.332000       0.867668
    16220.600200       0.867113
    16246.953700       0.866573
    16273.393000       0.866047
    16299.918500       0.865537
    16326.530600       0.865041
    16353.229800       0.864561
    16380.016400       0.864095
    16406.890900       0.863644
    16433.853700       0.863207
    16460.905300       0.862785
    16488.046200       0.862377
    16515.276600       0.861983
    16542.597200       0.861603
    16570.008300       0.861237
    16597.510400       0.860885
    16625.103900       0.860546
    16652.789300       0.860221
    16680.567100       0.859909
    16708.437800       0.859609
    16736.401700       0.859323
    16764.459300       0.859049
    16792.611300       0.858787
    16820.857900       0.858537
    16849.199700       0.858299
    16877.637100       0.858072
    16906.170800       0.857856
    16934.801000       0.857652
    16963.528400       0.857458
    16992.353400       0.857274
    17021.276600       0.857100
    17050.298400       0.856936
    17079.419300       0.856781
    17108.639900       0.856635
    17137.960600       0.856497
    17167.382000       0.856368
    17196.904600       0.856246
    17226.528900       0.856132
    17256.255400       0.856025
    17286.084700       0.855924
