6,   6, MVIRI VIS channel from srf_MET2_1982303_1982304_1801-Release_S10EL_10.dat
Number of data points:
730
Wavenumber (cm-1)   Filter response
     8916.629500       0.000000
     8924.587200       0.000000
     8932.559200       0.000002
     8940.545400       0.000011
     8948.545900       0.000032
     8956.560700       0.000068
     8964.589900       0.000124
     8972.633500       0.000205
     8980.691500       0.000314
     8988.764000       0.000454
     8996.851100       0.000631
     9004.952700       0.000846
     9013.068900       0.001103
     9021.199800       0.001406
     9029.345400       0.001758
     9037.505600       0.002161
     9045.680700       0.002617
     9053.870500       0.003131
     9062.075200       0.003703
     9070.294800       0.004337
     9078.529300       0.005035
     9086.778700       0.005798
     9095.043200       0.006629
     9103.322700       0.007529
     9111.617300       0.008501
     9119.927000       0.009545
     9128.251900       0.010664
     9136.592100       0.011859
     9144.947400       0.013130
     9153.318100       0.014480
     9161.704100       0.015909
     9170.105500       0.017419
     9178.522300       0.019009
     9186.954500       0.020682
     9195.402300       0.022437
     9203.865600       0.024276
     9212.344500       0.026199
     9220.839100       0.028206
     9229.349300       0.030298
     9237.875300       0.032475
     9246.417000       0.034738
     9254.974500       0.037086
     9263.547900       0.039519
     9272.137200       0.042038
     9280.742500       0.044644
     9289.363700       0.047334
     9298.000900       0.050110
     9306.654300       0.052971
     9315.323700       0.055917
     9324.009300       0.058947
     9332.711200       0.062062
     9341.429200       0.065260
     9350.163600       0.068541
     9358.914400       0.071905
     9367.681500       0.075351
     9376.465100       0.078879
     9385.265100       0.082487
     9394.081700       0.086175
     9402.914900       0.089942
     9411.764700       0.093788
     9420.631200       0.097712
     9429.514400       0.101712
     9438.414300       0.105788
     9447.331100       0.109939
     9456.264800       0.114164
     9465.215300       0.118462
     9474.182900       0.122831
     9483.167400       0.127271
     9492.169000       0.131781
     9501.187600       0.136360
     9510.223500       0.141006
     9519.276500       0.145717
     9528.346800       0.150495
     9537.434400       0.155336
     9546.539400       0.160239
     9555.661700       0.165204
     9564.801500       0.170229
     9573.958800       0.175313
     9583.133700       0.180454
     9592.326100       0.185652
     9601.536200       0.190904
     9610.764100       0.196210
     9620.009600       0.201568
     9629.273000       0.206978
     9638.554200       0.212436
     9647.853400       0.217943
     9657.170400       0.223496
     9666.505600       0.229095
     9675.858700       0.234739
     9685.230000       0.240424
     9694.619500       0.246151
     9704.027200       0.251917
     9713.453100       0.257722
     9722.897400       0.263564
     9732.360100       0.269441
     9741.841200       0.275353
     9751.340800       0.281297
     9760.859000       0.287273
     9770.395700       0.293279
     9779.951100       0.299313
     9789.525200       0.305375
     9799.118100       0.311462
     9808.729800       0.317574
     9818.360300       0.323708
     9828.009800       0.329864
     9837.678300       0.336041
     9847.365800       0.342237
     9857.072400       0.348449
     9866.798200       0.354678
     9876.543200       0.360922
     9886.307500       0.367179
     9896.091000       0.373449
     9905.894000       0.379729
     9915.716400       0.386019
     9925.558300       0.392317
     9935.419800       0.398622
     9945.300800       0.404933
     9955.201600       0.411247
     9965.122100       0.417565
     9975.062300       0.423885
     9985.022500       0.430206
     9995.002500       0.436526
    10005.002500       0.442844
    10015.022500       0.449159
    10025.062700       0.455470
    10035.122900       0.461775
    10045.203400       0.468074
    10055.304200       0.474366
    10065.425300       0.480648
    10075.566800       0.486921
    10085.728700       0.493183
    10095.911200       0.499433
    10106.114200       0.505669
    10116.337900       0.511891
    10126.582300       0.518098
    10136.847400       0.524288
    10147.133400       0.530462
    10157.440300       0.536617
    10167.768200       0.542753
    10178.117000       0.548868
    10188.487000       0.554962
    10198.878100       0.561034
    10209.290500       0.567083
    10219.724100       0.573108
    10230.179000       0.579109
    10240.655400       0.585083
    10251.153300       0.591031
    10261.672700       0.596952
    10272.213700       0.602844
    10282.776300       0.608707
    10293.360800       0.614541
    10303.967000       0.620344
    10314.595200       0.626115
    10325.245200       0.631854
    10335.917300       0.637561
    10346.611500       0.643234
    10357.327800       0.648873
    10368.066400       0.654477
    10378.827200       0.660045
    10389.610400       0.665578
    10400.416000       0.671073
    10411.244100       0.676531
    10422.094800       0.681951
    10432.968200       0.687332
    10443.864200       0.692674
    10454.783100       0.697977
    10465.724800       0.703239
    10476.689400       0.708460
    10487.677000       0.713641
    10498.687700       0.718779
    10509.721500       0.723875
    10520.778500       0.728929
    10531.858900       0.733939
    10542.962600       0.738907
    10554.089700       0.743830
    10565.240400       0.748708
    10576.414600       0.753542
    10587.612500       0.758331
    10598.834100       0.763075
    10610.079600       0.767773
    10621.348900       0.772424
    10632.642200       0.777030
    10643.959600       0.781589
    10655.301000       0.786100
    10666.666700       0.790565
    10678.056600       0.794982
    10689.470900       0.799351
    10700.909600       0.803673
    10712.372800       0.807947
    10723.860600       0.812172
    10735.373100       0.816348
    10746.910300       0.820476
    10758.472300       0.824556
    10770.059200       0.828586
    10781.671200       0.832567
    10793.308100       0.836499
    10804.970300       0.840381
    10816.657700       0.844214
    10828.370300       0.847998
    10840.108400       0.851732
    10851.871900       0.855416
    10863.661100       0.859051
    10875.475800       0.862636
    10887.316300       0.866171
    10899.182600       0.869656
    10911.074700       0.873092
    10922.992900       0.876478
    10934.937100       0.879814
    10946.907500       0.883100
    10958.904100       0.886337
    10970.927000       0.889524
    10982.976400       0.892661
    10995.052200       0.895749
    11007.154700       0.898787
    11019.283700       0.901775
    11031.439600       0.904715
    11043.622300       0.907605
    11055.832000       0.910446
    11068.068600       0.913238
    11080.332400       0.915981
    11092.623400       0.918676
    11104.941700       0.921322
    11117.287400       0.923919
    11129.660500       0.926468
    11142.061300       0.928969
    11154.489700       0.931421
    11166.945800       0.933826
    11179.429800       0.936184
    11191.941800       0.938494
    11204.481800       0.940756
    11217.049900       0.942972
    11229.646300       0.945140
    11242.270900       0.947262
    11254.924000       0.949338
    11267.605600       0.951367
    11280.315800       0.953350
    11293.054800       0.955288
    11305.822500       0.957180
    11318.619100       0.959027
    11331.444800       0.960829
    11344.299500       0.962585
    11357.183400       0.964298
    11370.096600       0.965966
    11383.039300       0.967590
    11396.011400       0.969171
    11409.013100       0.970708
    11422.044500       0.972201
    11435.105800       0.973652
    11448.196900       0.975061
    11461.318100       0.976426
    11474.469300       0.977750
    11487.650800       0.979032
    11500.862600       0.980273
    11514.104800       0.981473
    11527.377500       0.982631
    11540.680900       0.983749
    11554.015000       0.984827
    11567.380000       0.985865
    11580.775900       0.986863
    11594.202900       0.987822
    11607.661100       0.988742
    11621.150500       0.989623
    11634.671300       0.990466
    11648.223600       0.991270
    11661.807600       0.992037
    11675.423200       0.992767
    11689.070700       0.993459
    11702.750100       0.994114
    11716.461600       0.994733
    11730.205300       0.995316
    11743.981200       0.995863
    11757.789500       0.996375
    11771.630400       0.996851
    11785.503800       0.997292
    11799.410000       0.997699
    11813.349100       0.998071
    11827.321100       0.998410
    11841.326200       0.998715
    11855.364600       0.998987
    11869.436200       0.999225
    11883.541300       0.999431
    11897.680000       0.999605
    11911.852300       0.999747
    11926.058400       0.999857
    11940.298500       0.999936
    11954.572600       0.999983
    11968.880900       1.000000
    11983.223500       0.999986
    11997.600500       0.999943
    12012.012000       0.999869
    12026.458200       0.999766
    12040.939200       0.999634
    12055.455100       0.999472
    12070.006000       0.999283
    12084.592100       0.999065
    12099.213600       0.998818
    12113.870400       0.998545
    12128.562800       0.998243
    12143.290800       0.997915
    12158.054700       0.997560
    12172.854500       0.997178
    12187.690400       0.996770
    12202.562500       0.996336
    12217.471000       0.995877
    12232.415900       0.995392
    12247.397400       0.994882
    12262.415700       0.994347
    12277.470800       0.993787
    12292.563000       0.993203
    12307.692300       0.992596
    12322.858900       0.991964
    12338.062900       0.991309
    12353.304500       0.990631
    12368.583800       0.989929
    12383.900900       0.989205
    12399.256000       0.988459
    12414.649300       0.987690
    12430.080800       0.986899
    12445.550700       0.986087
    12461.059200       0.985253
    12476.606400       0.984398
    12492.192400       0.983521
    12507.817400       0.982624
    12523.481500       0.981707
    12539.185000       0.980769
    12554.927800       0.979811
    12570.710200       0.978833
    12586.532400       0.977835
    12602.394500       0.976818
    12618.296500       0.975782
    12634.238800       0.974726
    12650.221400       0.973652
    12666.244500       0.972560
    12682.308200       0.971448
    12698.412700       0.970319
    12714.558200       0.969171
    12730.744700       0.968006
    12746.972600       0.966823
    12763.241900       0.965623
    12779.552700       0.964405
    12795.905300       0.963170
    12812.299800       0.961918
    12828.736400       0.960650
    12845.215200       0.959365
    12861.736300       0.958063
    12878.300100       0.956745
    12894.906500       0.955412
    12911.555800       0.954062
    12928.248200       0.952696
    12944.983800       0.951315
    12961.762800       0.949918
    12978.585300       0.948506
    12995.451600       0.947079
    13012.361700       0.945637
    13029.316000       0.944180
    13046.314400       0.942708
    13063.357300       0.941222
    13080.444700       0.939721
    13097.576900       0.938205
    13114.754100       0.936676
    13131.976400       0.935132
    13149.243900       0.933574
    13166.556900       0.932003
    13183.915600       0.930418
    13201.320100       0.928819
    13218.770700       0.927206
    13236.267400       0.925581
    13253.810500       0.923941
    13271.400100       0.922289
    13289.036500       0.920624
    13306.719900       0.918945
    13324.450400       0.917254
    13342.228200       0.915550
    13360.053400       0.913833
    13377.926400       0.912104
    13395.847300       0.910362
    13413.816200       0.908608
    13431.833400       0.906841
    13449.899100       0.905062
    13468.013500       0.903272
    13486.176700       0.901469
    13504.388900       0.899653
    13522.650400       0.897826
    13540.961400       0.895988
    13559.322000       0.894137
    13577.732500       0.892275
    13596.193100       0.890401
    13614.703900       0.888516
    13633.265200       0.886619
    13651.877100       0.884711
    13670.540000       0.882791
    13689.253900       0.880861
    13708.019200       0.878919
    13726.836000       0.876966
    13745.704500       0.875001
    13764.624900       0.873026
    13783.597500       0.871040
    13802.622500       0.869043
    13821.700100       0.867036
    13840.830400       0.865017
    13860.013900       0.862988
    13879.250500       0.860948
    13898.540700       0.858898
    13917.884500       0.856837
    13937.282200       0.854766
    13956.734100       0.852684
    13976.240400       0.850592
    13995.801300       0.848490
    14015.417000       0.846377
    14035.087700       0.844255
    14054.813800       0.842122
    14074.595400       0.839979
    14094.432700       0.837826
    14114.326000       0.835663
    14134.275600       0.833491
    14154.281700       0.831308
    14174.344400       0.829116
    14194.464200       0.826914
    14214.641100       0.824702
    14234.875400       0.822481
    14255.167500       0.820250
    14275.517500       0.818009
    14295.925700       0.815759
    14316.392300       0.813500
    14336.917600       0.811231
    14357.501800       0.808953
    14378.145200       0.806666
    14398.848100       0.804370
    14419.610700       0.802065
    14440.433200       0.799750
    14461.316000       0.797427
    14482.259200       0.795094
    14503.263200       0.792753
    14524.328200       0.790403
    14545.454500       0.788044
    14566.642400       0.785677
    14587.892000       0.783301
    14609.203800       0.780916
    14630.577900       0.778523
    14652.014700       0.776121
    14673.514300       0.773711
    14695.077100       0.771293
    14716.703500       0.768867
    14738.393500       0.766432
    14760.147600       0.763990
    14781.966000       0.761539
    14803.849000       0.759080
    14825.796900       0.756614
    14847.809900       0.754140
    14869.888500       0.751658
    14892.032800       0.749169
    14914.243100       0.746672
    14936.519800       0.744167
    14958.863100       0.741655
    14981.273400       0.739136
    15003.750900       0.736610
    15026.296000       0.734076
    15048.909000       0.731536
    15071.590100       0.728989
    15094.339600       0.726434
    15117.158000       0.723873
    15140.045400       0.721306
    15163.002300       0.718731
    15186.028900       0.716151
    15209.125500       0.713564
    15232.292500       0.710970
    15255.530100       0.708371
    15278.838800       0.705765
    15302.218800       0.703154
    15325.670500       0.700536
    15349.194200       0.697913
    15372.790200       0.695284
    15396.458800       0.692649
    15420.200500       0.690010
    15444.015400       0.687364
    15467.904100       0.684714
    15491.866800       0.682058
    15515.903800       0.679398
    15540.015500       0.676732
    15564.202300       0.674062
    15588.464500       0.671387
    15612.802500       0.668708
    15637.216600       0.666024
    15661.707100       0.663336
    15686.274500       0.660644
    15710.919100       0.657948
    15735.641200       0.655248
    15760.441300       0.652544
    15785.319700       0.649836
    15810.276700       0.647125
    15835.312700       0.644411
    15860.428200       0.641694
    15885.623500       0.638973
    15910.899000       0.636249
    15936.255000       0.633522
    15961.691900       0.630793
    15987.210200       0.628061
    16012.810200       0.625327
    16038.492400       0.622590
    16064.257000       0.619852
    16090.104600       0.617111
    16116.035500       0.614368
    16142.050000       0.611624
    16168.148700       0.608878
    16194.332000       0.606130
    16220.600200       0.603382
    16246.953700       0.600632
    16273.393000       0.597881
    16299.918500       0.595129
    16326.530600       0.592377
    16353.229800       0.589624
    16380.016400       0.586870
    16406.890900       0.584116
    16433.853700       0.581363
    16460.905300       0.578609
    16488.046200       0.575855
    16515.276600       0.573102
    16542.597200       0.570349
    16570.008300       0.567596
    16597.510400       0.564845
    16625.103900       0.562094
    16652.789300       0.559345
    16680.567100       0.556596
    16708.437800       0.553849
    16736.401700       0.551104
    16764.459300       0.548360
    16792.611300       0.545618
    16820.857900       0.542877
    16849.199700       0.540139
    16877.637100       0.537403
    16906.170800       0.534670
    16934.801000       0.531939
    16963.528400       0.529210
    16992.353400       0.526485
    17021.276600       0.523762
    17050.298400       0.521043
    17079.419300       0.518326
    17108.639900       0.515613
    17137.960600       0.512904
    17167.382000       0.510198
    17196.904600       0.507496
    17226.528900       0.504797
    17256.255400       0.502103
    17286.084700       0.499413
    17316.017300       0.496727
    17346.053800       0.494046
    17376.194600       0.491369
    17406.440400       0.488696
    17436.791600       0.486029
    17467.248900       0.483366
    17497.812800       0.480708
    17528.483800       0.478056
    17559.262500       0.475408
    17590.149500       0.472766
    17621.145400       0.470130
    17652.250700       0.467499
    17683.466000       0.464873
    17714.791900       0.462253
    17746.228900       0.459640
    17777.777800       0.457032
    17809.439000       0.454430
    17841.213200       0.451834
    17873.101000       0.449244
    17905.103000       0.446661
    17937.219700       0.444084
    17969.451900       0.441513
    18001.800200       0.438949
    18034.265100       0.436392
    18066.847300       0.433841
    18099.547500       0.431297
    18132.366300       0.428759
    18165.304300       0.426229
    18198.362100       0.423705
    18231.540600       0.421188
    18264.840200       0.418679
    18298.261700       0.416176
    18331.805700       0.413680
    18365.472900       0.411191
    18399.264000       0.408710
    18433.179700       0.406236
    18467.220700       0.403768
    18501.387600       0.401308
    18535.681200       0.398855
    18570.102100       0.396410
    18604.651200       0.393971
    18639.329000       0.391540
    18674.136300       0.389116
    18709.073900       0.386699
    18744.142500       0.384290
    18779.342700       0.381888
    18814.675400       0.379492
    18850.141400       0.377104
    18885.741300       0.374723
    18921.475900       0.372349
    18957.346000       0.369982
    18993.352300       0.367622
    19029.495700       0.365269
    19065.776900       0.362923
    19102.196800       0.360584
    19138.756000       0.358252
    19175.455400       0.355926
    19212.295900       0.353607
    19249.278200       0.351294
    19286.403100       0.348988
    19323.671500       0.346688
    19361.084200       0.344395
    19398.642100       0.342108
    19436.346000       0.339826
    19474.196700       0.337551
    19512.195100       0.335282
    19550.342100       0.333018
    19588.638600       0.330761
    19627.085400       0.328508
    19665.683400       0.326261
    19704.433500       0.324020
    19743.336600       0.321783
    19782.393700       0.319551
    19821.605600       0.317325
    19860.973200       0.315102
    19900.497500       0.312885
