12,   12, MVIRI VIS channel from srf_MET4_1990348_1990349_1801-Release_S10EL_10.dat
Number of data points:
752
Wavenumber (cm-1)   Filter response
     8745.080900       0.000000
     8752.735200       0.000000
     8760.403000       0.000001
     8768.084200       0.000059
     8775.778900       0.000198
     8783.487000       0.000417
     8791.208800       0.000713
     8798.944100       0.001085
     8806.693100       0.001529
     8814.455700       0.002044
     8822.232000       0.002627
     8830.022100       0.003277
     8837.825900       0.003991
     8845.643500       0.004768
     8853.475000       0.005605
     8861.320300       0.006501
     8869.179600       0.007454
     8877.052800       0.008463
     8884.940000       0.009525
     8892.841300       0.010638
     8900.756600       0.011803
     8908.686000       0.013016
     8916.629500       0.014277
     8924.587200       0.015584
     8932.559200       0.016936
     8940.545400       0.018331
     8948.545900       0.019769
     8956.560700       0.021247
     8964.589900       0.022765
     8972.633500       0.024322
     8980.691500       0.025916
     8988.764000       0.027547
     8996.851100       0.029213
     9004.952700       0.030914
     9013.068900       0.032648
     9021.199800       0.034414
     9029.345400       0.036213
     9037.505600       0.038042
     9045.680700       0.039902
     9053.870500       0.041791
     9062.075200       0.043708
     9070.294800       0.045654
     9078.529300       0.047626
     9086.778700       0.049626
     9095.043200       0.051651
     9103.322700       0.053701
     9111.617300       0.055776
     9119.927000       0.057875
     9128.251900       0.059999
     9136.592100       0.062145
     9144.947400       0.064314
     9153.318100       0.066505
     9161.704100       0.068719
     9170.105500       0.070954
     9178.522300       0.073209
     9186.954500       0.075486
     9195.402300       0.077783
     9203.865600       0.080100
     9212.344500       0.082437
     9220.839100       0.084794
     9229.349300       0.087169
     9237.875300       0.089564
     9246.417000       0.091977
     9254.974500       0.094409
     9263.547900       0.096859
     9272.137200       0.099327
     9280.742500       0.101814
     9289.363700       0.104318
     9298.000900       0.106839
     9306.654300       0.109379
     9315.323700       0.111935
     9324.009300       0.114509
     9332.711200       0.117100
     9341.429200       0.119708
     9350.163600       0.122333
     9358.914400       0.124975
     9367.681500       0.127634
     9376.465100       0.130309
     9385.265100       0.133001
     9394.081700       0.135710
     9402.914900       0.138435
     9411.764700       0.141177
     9420.631200       0.143936
     9429.514400       0.146711
     9438.414300       0.149503
     9447.331100       0.152310
     9456.264800       0.155135
     9465.215300       0.157977
     9474.182900       0.160834
     9483.167400       0.163708
     9492.169000       0.166599
     9501.187600       0.169506
     9510.223500       0.172430
     9519.276500       0.175370
     9528.346800       0.178327
     9537.434400       0.181301
     9546.539400       0.184291
     9555.661700       0.187298
     9564.801500       0.190321
     9573.958800       0.193362
     9583.133700       0.196419
     9592.326100       0.199492
     9601.536200       0.202583
     9610.764100       0.205690
     9620.009600       0.208815
     9629.273000       0.211956
     9638.554200       0.215113
     9647.853400       0.218288
     9657.170400       0.221480
     9666.505600       0.224689
     9675.858700       0.227914
     9685.230000       0.231157
     9694.619500       0.234416
     9704.027200       0.237692
     9713.453100       0.240986
     9722.897400       0.244297
     9732.360100       0.247624
     9741.841200       0.250969
     9751.340800       0.254330
     9760.859000       0.257708
     9770.395700       0.261104
     9779.951100       0.264516
     9789.525200       0.267945
     9799.118100       0.271391
     9808.729800       0.274854
     9818.360300       0.278334
     9828.009800       0.281830
     9837.678300       0.285343
     9847.365800       0.288874
     9857.072400       0.292420
     9866.798200       0.295983
     9876.543200       0.299563
     9886.307500       0.303159
     9896.091000       0.306772
     9905.894000       0.310401
     9915.716400       0.314046
     9925.558300       0.317707
     9935.419800       0.321384
     9945.300800       0.325078
     9955.201600       0.328787
     9965.122100       0.332512
     9975.062300       0.336252
     9985.022500       0.340009
     9995.002500       0.343781
    10005.002500       0.347567
    10015.022500       0.351369
    10025.062700       0.355186
    10035.122900       0.359018
    10045.203400       0.362865
    10055.304200       0.366726
    10065.425300       0.370601
    10075.566800       0.374491
    10085.728700       0.378395
    10095.911200       0.382313
    10106.114200       0.386244
    10116.337900       0.390189
    10126.582300       0.394147
    10136.847400       0.398119
    10147.133400       0.402103
    10157.440300       0.406100
    10167.768200       0.410110
    10178.117000       0.414132
    10188.487000       0.418165
    10198.878100       0.422211
    10209.290500       0.426268
    10219.724100       0.430337
    10230.179000       0.434416
    10240.655400       0.438507
    10251.153300       0.442608
    10261.672700       0.446720
    10272.213700       0.450841
    10282.776300       0.454972
    10293.360800       0.459113
    10303.967000       0.463263
    10314.595200       0.467422
    10325.245200       0.471589
    10335.917300       0.475765
    10346.611500       0.479949
    10357.327800       0.484140
    10368.066400       0.488339
    10378.827200       0.492545
    10389.610400       0.496758
    10400.416000       0.500977
    10411.244100       0.505203
    10422.094800       0.509434
    10432.968200       0.513671
    10443.864200       0.517913
    10454.783100       0.522159
    10465.724800       0.526410
    10476.689400       0.530665
    10487.677000       0.534924
    10498.687700       0.539186
    10509.721500       0.543451
    10520.778500       0.547719
    10531.858900       0.551989
    10542.962600       0.556261
    10554.089700       0.560534
    10565.240400       0.564809
    10576.414600       0.569084
    10587.612500       0.573359
    10598.834100       0.577635
    10610.079600       0.581910
    10621.348900       0.586185
    10632.642200       0.590458
    10643.959600       0.594729
    10655.301000       0.598999
    10666.666700       0.603266
    10678.056600       0.607530
    10689.470900       0.611791
    10700.909600       0.616048
    10712.372800       0.620302
    10723.860600       0.624550
    10735.373100       0.628794
    10746.910300       0.633033
    10758.472300       0.637266
    10770.059200       0.641493
    10781.671200       0.645713
    10793.308100       0.649926
    10804.970300       0.654132
    10816.657700       0.658330
    10828.370300       0.662520
    10840.108400       0.666701
    10851.871900       0.670873
    10863.661100       0.675035
    10875.475800       0.679188
    10887.316300       0.683330
    10899.182600       0.687461
    10911.074700       0.691581
    10922.992900       0.695689
    10934.937100       0.699786
    10946.907500       0.703869
    10958.904100       0.707940
    10970.927000       0.711998
    10982.976400       0.716041
    10995.052200       0.720070
    11007.154700       0.724085
    11019.283700       0.728084
    11031.439600       0.732069
    11043.622300       0.736037
    11055.832000       0.739989
    11068.068600       0.743923
    11080.332400       0.747841
    11092.623400       0.751742
    11104.941700       0.755624
    11117.287400       0.759487
    11129.660500       0.763332
    11142.061300       0.767158
    11154.489700       0.770964
    11166.945800       0.774749
    11179.429800       0.778515
    11191.941800       0.782259
    11204.481800       0.785982
    11217.049900       0.789683
    11229.646300       0.793363
    11242.270900       0.797019
    11254.924000       0.800654
    11267.605600       0.804264
    11280.315800       0.807851
    11293.054800       0.811414
    11305.822500       0.814952
    11318.619100       0.818466
    11331.444800       0.821955
    11344.299500       0.825418
    11357.183400       0.828855
    11370.096600       0.832266
    11383.039300       0.835650
    11396.011400       0.839007
    11409.013100       0.842337
    11422.044500       0.845639
    11435.105800       0.848914
    11448.196900       0.852159
    11461.318100       0.855376
    11474.469300       0.858564
    11487.650800       0.861723
    11500.862600       0.864852
    11514.104800       0.867951
    11527.377500       0.871019
    11540.680900       0.874057
    11554.015000       0.877064
    11567.380000       0.880040
    11580.775900       0.882984
    11594.202900       0.885896
    11607.661100       0.888776
    11621.150500       0.891624
    11634.671300       0.894439
    11648.223600       0.897221
    11661.807600       0.899970
    11675.423200       0.902685
    11689.070700       0.905366
    11702.750100       0.908014
    11716.461600       0.910627
    11730.205300       0.913205
    11743.981200       0.915749
    11757.789500       0.918258
    11771.630400       0.920732
    11785.503800       0.923170
    11799.410000       0.925572
    11813.349100       0.927939
    11827.321100       0.930270
    11841.326200       0.932564
    11855.364600       0.934822
    11869.436200       0.937043
    11883.541300       0.939228
    11897.680000       0.941375
    11911.852300       0.943485
    11926.058400       0.945558
    11940.298500       0.947593
    11954.572600       0.949591
    11968.880900       0.951551
    11983.223500       0.953473
    11997.600500       0.955357
    12012.012000       0.957203
    12026.458200       0.959010
    12040.939200       0.960779
    12055.455100       0.962510
    12070.006000       0.964201
    12084.592100       0.965854
    12099.213600       0.967469
    12113.870400       0.969044
    12128.562800       0.970580
    12143.290800       0.972078
    12158.054700       0.973536
    12172.854500       0.974955
    12187.690400       0.976335
    12202.562500       0.977675
    12217.471000       0.978977
    12232.415900       0.980238
    12247.397400       0.981461
    12262.415700       0.982644
    12277.470800       0.983788
    12292.563000       0.984892
    12307.692300       0.985957
    12322.858900       0.986983
    12338.062900       0.987969
    12353.304500       0.988916
    12368.583800       0.989823
    12383.900900       0.990692
    12399.256000       0.991520
    12414.649300       0.992310
    12430.080800       0.993061
    12445.550700       0.993772
    12461.059200       0.994445
    12476.606400       0.995078
    12492.192400       0.995673
    12507.817400       0.996229
    12523.481500       0.996746
    12539.185000       0.997224
    12554.927800       0.997664
    12570.710200       0.998066
    12586.532400       0.998429
    12602.394500       0.998755
    12618.296500       0.999042
    12634.238800       0.999291
    12650.221400       0.999503
    12666.244500       0.999677
    12682.308200       0.999813
    12698.412700       0.999913
    12714.558200       0.999975
    12730.744700       1.000000
    12746.972600       0.999988
    12763.241900       0.999940
    12779.552700       0.999856
    12795.905300       0.999735
    12812.299800       0.999579
    12828.736400       0.999386
    12845.215200       0.999158
    12861.736300       0.998895
    12878.300100       0.998596
    12894.906500       0.998263
    12911.555800       0.997895
    12928.248200       0.997493
    12944.983800       0.997056
    12961.762800       0.996586
    12978.585300       0.996082
    12995.451600       0.995544
    13012.361700       0.994974
    13029.316000       0.994370
    13046.314400       0.993735
    13063.357300       0.993066
    13080.444700       0.992366
    13097.576900       0.991634
    13114.754100       0.990871
    13131.976400       0.990077
    13149.243900       0.989252
    13166.556900       0.988396
    13183.915600       0.987511
    13201.320100       0.986595
    13218.770700       0.985650
    13236.267400       0.984676
    13253.810500       0.983673
    13271.400100       0.982642
    13289.036500       0.981583
    13306.719900       0.980496
    13324.450400       0.979381
    13342.228200       0.978239
    13360.053400       0.977071
    13377.926400       0.975876
    13395.847300       0.974656
    13413.816200       0.973410
    13431.833400       0.972138
    13449.899100       0.970842
    13468.013500       0.969522
    13486.176700       0.968177
    13504.388900       0.966809
    13522.650400       0.965417
    13540.961400       0.964003
    13559.322000       0.962566
    13577.732500       0.961107
    13596.193100       0.959627
    13614.703900       0.958125
    13633.265200       0.956602
    13651.877100       0.955059
    13670.540000       0.953497
    13689.253900       0.951914
    13708.019200       0.950312
    13726.836000       0.948692
    13745.704500       0.947054
    13764.624900       0.945397
    13783.597500       0.943723
    13802.622500       0.942032
    13821.700100       0.940325
    13840.830400       0.938602
    13860.013900       0.936862
    13879.250500       0.935108
    13898.540700       0.933339
    13917.884500       0.931555
    13937.282200       0.929758
    13956.734100       0.927947
    13976.240400       0.926123
    13995.801300       0.924286
    14015.417000       0.922438
    14035.087700       0.920578
    14054.813800       0.918706
    14074.595400       0.916824
    14094.432700       0.914931
    14114.326000       0.913029
    14134.275600       0.911117
    14154.281700       0.909196
    14174.344400       0.907267
    14194.464200       0.905330
    14214.641100       0.903385
    14234.875400       0.901432
    14255.167500       0.899474
    14275.517500       0.897509
    14295.925700       0.895538
    14316.392300       0.893561
    14336.917600       0.891580
    14357.501800       0.889594
    14378.145200       0.887605
    14398.848100       0.885612
    14419.610700       0.883615
    14440.433200       0.881616
    14461.316000       0.879615
    14482.259200       0.877612
    14503.263200       0.875607
    14524.328200       0.873601
    14545.454500       0.871595
    14566.642400       0.869589
    14587.892000       0.867584
    14609.203800       0.865578
    14630.577900       0.863575
    14652.014700       0.861572
    14673.514300       0.859572
    14695.077100       0.857574
    14716.703500       0.855580
    14738.393500       0.853588
    14760.147600       0.851600
    14781.966000       0.849616
    14803.849000       0.847637
    14825.796900       0.845662
    14847.809900       0.843693
    14869.888500       0.841729
    14892.032800       0.839772
    14914.243100       0.837821
    14936.519800       0.835876
    14958.863100       0.833939
    14981.273400       0.832010
    15003.750900       0.830088
    15026.296000       0.828175
    15048.909000       0.826270
    15071.590100       0.824374
    15094.339600       0.822488
    15117.158000       0.820611
    15140.045400       0.818744
    15163.002300       0.816888
    15186.028900       0.815042
    15209.125500       0.813207
    15232.292500       0.811384
    15255.530100       0.809572
    15278.838800       0.807772
    15302.218800       0.805984
    15325.670500       0.804209
    15349.194200       0.802447
    15372.790200       0.800698
    15396.458800       0.798962
    15420.200500       0.797240
    15444.015400       0.795532
    15467.904100       0.793838
    15491.866800       0.792158
    15515.903800       0.790493
    15540.015500       0.788843
    15564.202300       0.787208
    15588.464500       0.785589
    15612.802500       0.783985
    15637.216600       0.782397
    15661.707100       0.780825
    15686.274500       0.779269
    15710.919100       0.777729
    15735.641200       0.776207
    15760.441300       0.774701
    15785.319700       0.773211
    15810.276700       0.771739
    15835.312700       0.770285
    15860.428200       0.768847
    15885.623500       0.767428
    15910.899000       0.766026
    15936.255000       0.764641
    15961.691900       0.763275
    15987.210200       0.761927
    16012.810200       0.760596
    16038.492400       0.759284
    16064.257000       0.757991
    16090.104600       0.756716
    16116.035500       0.755459
    16142.050000       0.754220
    16168.148700       0.753001
    16194.332000       0.751799
    16220.600200       0.750617
    16246.953700       0.749453
    16273.393000       0.748308
    16299.918500       0.747181
    16326.530600       0.746073
    16353.229800       0.744984
    16380.016400       0.743914
    16406.890900       0.742862
    16433.853700       0.741829
    16460.905300       0.740814
    16488.046200       0.739818
    16515.276600       0.738840
    16542.597200       0.737880
    16570.008300       0.736939
    16597.510400       0.736016
    16625.103900       0.735111
    16652.789300       0.734224
    16680.567100       0.733354
    16708.437800       0.732503
    16736.401700       0.731669
    16764.459300       0.730852
    16792.611300       0.730053
    16820.857900       0.729271
    16849.199700       0.728506
    16877.637100       0.727757
    16906.170800       0.727025
    16934.801000       0.726310
    16963.528400       0.725610
    16992.353400       0.724927
    17021.276600       0.724259
    17050.298400       0.723606
    17079.419300       0.722969
    17108.639900       0.722347
    17137.960600       0.721739
    17167.382000       0.721145
    17196.904600       0.720566
    17226.528900       0.720000
    17256.255400       0.719448
    17286.084700       0.718909
    17316.017300       0.718383
    17346.053800       0.717869
    17376.194600       0.717368
    17406.440400       0.716878
    17436.791600       0.716399
    17467.248900       0.715932
    17497.812800       0.715475
    17528.483800       0.715028
    17559.262500       0.714592
    17590.149500       0.714164
    17621.145400       0.713746
    17652.250700       0.713336
    17683.466000       0.712935
    17714.791900       0.712541
    17746.228900       0.712154
    17777.777800       0.711775
    17809.439000       0.711401
    17841.213200       0.711033
    17873.101000       0.710671
    17905.103000       0.710313
    17937.219700       0.709960
    17969.451900       0.709611
    18001.800200       0.709264
    18034.265100       0.708921
    18066.847300       0.708580
    18099.547500       0.708240
    18132.366300       0.707901
    18165.304300       0.707563
    18198.362100       0.707225
    18231.540600       0.706886
    18264.840200       0.706546
    18298.261700       0.706205
    18331.805700       0.705860
    18365.472900       0.705513
    18399.264000       0.705162
    18433.179700       0.704807
    18467.220700       0.704447
    18501.387600       0.704081
    18535.681200       0.703710
    18570.102100       0.703331
    18604.651200       0.702945
    18639.329000       0.702550
    18674.136300       0.702147
    18709.073900       0.701735
    18744.142500       0.701312
    18779.342700       0.700878
    18814.675400       0.700433
    18850.141400       0.699975
    18885.741300       0.699504
    18921.475900       0.699020
    18957.346000       0.698522
    18993.352300       0.698008
    19029.495700       0.697478
    19065.776900       0.696932
