73,   73, MVIRI VIS channel from srf_MET7_2006258_2006259_1801-Release_S10EE_10.dat
Number of data points:
793
Wavenumber (cm-1)   Filter response
     8442.380800       0.000000
     8449.514200       0.000000
     8456.659600       0.000004
     8463.817200       0.000055
     8470.986900       0.000163
     8478.168700       0.000327
     8485.362700       0.000544
     8492.569000       0.000813
     8499.787500       0.001133
     8507.018300       0.001502
     8514.261400       0.001919
     8521.516800       0.002383
     8528.784600       0.002891
     8536.064900       0.003443
     8543.357500       0.004038
     8550.662700       0.004674
     8557.980300       0.005351
     8565.310500       0.006066
     8572.653200       0.006820
     8580.008600       0.007611
     8587.376600       0.008438
     8594.757200       0.009301
     8602.150500       0.010198
     8609.556600       0.011128
     8616.975400       0.012091
     8624.407100       0.013086
     8631.851500       0.014112
     8639.308900       0.015169
     8646.779100       0.016255
     8654.262200       0.017371
     8661.758300       0.018515
     8669.267400       0.019687
     8676.789600       0.020886
     8684.324800       0.022113
     8691.873100       0.023365
     8699.434500       0.024644
     8707.009100       0.025948
     8714.596900       0.027277
     8722.198000       0.028630
     8729.812300       0.030008
     8737.439900       0.031410
     8745.080900       0.032835
     8752.735200       0.034283
     8760.403000       0.035754
     8768.084200       0.037248
     8775.778900       0.038765
     8783.487000       0.040303
     8791.208800       0.041864
     8798.944100       0.043446
     8806.693100       0.045050
     8814.455700       0.046675
     8822.232000       0.048322
     8830.022100       0.049989
     8837.825900       0.051678
     8845.643500       0.053388
     8853.475000       0.055118
     8861.320300       0.056869
     8869.179600       0.058641
     8877.052800       0.060433
     8884.940000       0.062247
     8892.841300       0.064080
     8900.756600       0.065934
     8908.686000       0.067809
     8916.629500       0.069704
     8924.587200       0.071620
     8932.559200       0.073556
     8940.545400       0.075512
     8948.545900       0.077490
     8956.560700       0.079487
     8964.589900       0.081506
     8972.633500       0.083545
     8980.691500       0.085605
     8988.764000       0.087686
     8996.851100       0.089787
     9004.952700       0.091910
     9013.068900       0.094053
     9021.199800       0.096217
     9029.345400       0.098403
     9037.505600       0.100610
     9045.680700       0.102838
     9053.870500       0.105087
     9062.075200       0.107358
     9070.294800       0.109651
     9078.529300       0.111965
     9086.778700       0.114301
     9095.043200       0.116659
     9103.322700       0.119038
     9111.617300       0.121440
     9119.927000       0.123863
     9128.251900       0.126309
     9136.592100       0.128778
     9144.947400       0.131268
     9153.318100       0.133781
     9161.704100       0.136316
     9170.105500       0.138875
     9178.522300       0.141456
     9186.954500       0.144059
     9195.402300       0.146686
     9203.865600       0.149335
     9212.344500       0.152007
     9220.839100       0.154703
     9229.349300       0.157421
     9237.875300       0.160163
     9246.417000       0.162928
     9254.974500       0.165717
     9263.547900       0.168529
     9272.137200       0.171364
     9280.742500       0.174223
     9289.363700       0.177105
     9298.000900       0.180011
     9306.654300       0.182941
     9315.323700       0.185893
     9324.009300       0.188870
     9332.711200       0.191871
     9341.429200       0.194894
     9350.163600       0.197942
     9358.914400       0.201013
     9367.681500       0.204108
     9376.465100       0.207227
     9385.265100       0.210369
     9394.081700       0.213535
     9402.914900       0.216725
     9411.764700       0.219938
     9420.631200       0.223175
     9429.514400       0.226435
     9438.414300       0.229718
     9447.331100       0.233025
     9456.264800       0.236355
     9465.215300       0.239709
     9474.182900       0.243086
     9483.167400       0.246486
     9492.169000       0.249908
     9501.187600       0.253354
     9510.223500       0.256823
     9519.276500       0.260314
     9528.346800       0.263828
     9537.434400       0.267365
     9546.539400       0.270923
     9555.661700       0.274504
     9564.801500       0.278107
     9573.958800       0.281732
     9583.133700       0.285380
     9592.326100       0.289048
     9601.536200       0.292738
     9610.764100       0.296449
     9620.009600       0.300182
     9629.273000       0.303936
     9638.554200       0.307709
     9647.853400       0.311505
     9657.170400       0.315319
     9666.505600       0.319155
     9675.858700       0.323011
     9685.230000       0.326885
     9694.619500       0.330780
     9704.027200       0.334694
     9713.453100       0.338627
     9722.897400       0.342579
     9732.360100       0.346549
     9741.841200       0.350538
     9751.340800       0.354544
     9760.859000       0.358569
     9770.395700       0.362611
     9779.951100       0.366670
     9789.525200       0.370746
     9799.118100       0.374839
     9808.729800       0.378948
     9818.360300       0.383073
     9828.009800       0.387213
     9837.678300       0.391370
     9847.365800       0.395541
     9857.072400       0.399727
     9866.798200       0.403928
     9876.543200       0.408142
     9886.307500       0.412371
     9896.091000       0.416613
     9905.894000       0.420868
     9915.716400       0.425136
     9925.558300       0.429415
     9935.419800       0.433708
     9945.300800       0.438012
     9955.201600       0.442326
     9965.122100       0.446652
     9975.062300       0.450989
     9985.022500       0.455335
     9995.002500       0.459692
    10005.002500       0.464057
    10015.022500       0.468432
    10025.062700       0.472815
    10035.122900       0.477206
    10045.203400       0.481605
    10055.304200       0.486012
    10065.425300       0.490425
    10075.566800       0.494844
    10085.728700       0.499270
    10095.911200       0.503702
    10106.114200       0.508139
    10116.337900       0.512580
    10126.582300       0.517026
    10136.847400       0.521475
    10147.133400       0.525929
    10157.440300       0.530385
    10167.768200       0.534844
    10178.117000       0.539305
    10188.487000       0.543767
    10198.878100       0.548231
    10209.290500       0.552696
    10219.724100       0.557161
    10230.179000       0.561626
    10240.655400       0.566091
    10251.153300       0.570554
    10261.672700       0.575016
    10272.213700       0.579475
    10282.776300       0.583933
    10293.360800       0.588388
    10303.967000       0.592839
    10314.595200       0.597286
    10325.245200       0.601729
    10335.917300       0.606168
    10346.611500       0.610601
    10357.327800       0.615029
    10368.066400       0.619450
    10378.827200       0.623865
    10389.610400       0.628273
    10400.416000       0.632673
    10411.244100       0.637065
    10422.094800       0.641448
    10432.968200       0.645823
    10443.864200       0.650188
    10454.783100       0.654543
    10465.724800       0.658888
    10476.689400       0.663222
    10487.677000       0.667545
    10498.687700       0.671856
    10509.721500       0.676155
    10520.778500       0.680441
    10531.858900       0.684714
    10542.962600       0.688973
    10554.089700       0.693218
    10565.240400       0.697449
    10576.414600       0.701664
    10587.612500       0.705865
    10598.834100       0.710049
    10610.079600       0.714217
    10621.348900       0.718368
    10632.642200       0.722502
    10643.959600       0.726619
    10655.301000       0.730717
    10666.666700       0.734796
    10678.056600       0.738857
    10689.470900       0.742898
    10700.909600       0.746920
    10712.372800       0.750921
    10723.860600       0.754901
    10735.373100       0.758860
    10746.910300       0.762798
    10758.472300       0.766713
    10770.059200       0.770607
    10781.671200       0.774477
    10793.308100       0.778325
    10804.970300       0.782148
    10816.657700       0.785948
    10828.370300       0.789723
    10840.108400       0.793474
    10851.871900       0.797199
    10863.661100       0.800900
    10875.475800       0.804573
    10887.316300       0.808221
    10899.182600       0.811842
    10911.074700       0.815436
    10922.992900       0.819003
    10934.937100       0.822542
    10946.907500       0.826052
    10958.904100       0.829535
    10970.927000       0.832988
    10982.976400       0.836413
    10995.052200       0.839808
    11007.154700       0.843173
    11019.283700       0.846508
    11031.439600       0.849813
    11043.622300       0.853086
    11055.832000       0.856329
    11068.068600       0.859541
    11080.332400       0.862721
    11092.623400       0.865869
    11104.941700       0.868984
    11117.287400       0.872067
    11129.660500       0.875118
    11142.061300       0.878135
    11154.489700       0.881119
    11166.945800       0.884070
    11179.429800       0.886986
    11191.941800       0.889869
    11204.481800       0.892717
    11217.049900       0.895531
    11229.646300       0.898310
    11242.270900       0.901053
    11254.924000       0.903762
    11267.605600       0.906435
    11280.315800       0.909073
    11293.054800       0.911675
    11305.822500       0.914240
    11318.619100       0.916770
    11331.444800       0.919263
    11344.299500       0.921720
    11357.183400       0.924140
    11370.096600       0.926523
    11383.039300       0.928868
    11396.011400       0.931177
    11409.013100       0.933448
    11422.044500       0.935682
    11435.105800       0.937879
    11448.196900       0.940037
    11461.318100       0.942158
    11474.469300       0.944241
    11487.650800       0.946285
    11500.862600       0.948292
    11514.104800       0.950260
    11527.377500       0.952190
    11540.680900       0.954082
    11554.015000       0.955935
    11567.380000       0.957750
    11580.775900       0.959526
    11594.202900       0.961263
    11607.661100       0.962962
    11621.150500       0.964622
    11634.671300       0.966243
    11648.223600       0.967826
    11661.807600       0.969369
    11675.423200       0.970874
    11689.070700       0.972341
    11702.750100       0.973768
    11716.461600       0.975157
    11730.205300       0.976507
    11743.981200       0.977818
    11757.789500       0.979090
    11771.630400       0.980324
    11785.503800       0.981520
    11799.410000       0.982676
    11813.349100       0.983794
    11827.321100       0.984874
    11841.326200       0.985916
    11855.364600       0.986919
    11869.436200       0.987884
    11883.541300       0.988811
    11897.680000       0.989699
    11911.852300       0.990550
    11926.058400       0.991364
    11940.298500       0.992139
    11954.572600       0.992877
    11968.880900       0.993578
    11983.223500       0.994241
    11997.600500       0.994867
    12012.012000       0.995456
    12026.458200       0.996009
    12040.939200       0.996524
    12055.455100       0.997003
    12070.006000       0.997446
    12084.592100       0.997853
    12099.213600       0.998224
    12113.870400       0.998559
    12128.562800       0.998858
    12143.290800       0.999122
    12158.054700       0.999351
    12172.854500       0.999545
    12187.690400       0.999705
    12202.562500       0.999830
    12217.471000       0.999920
    12232.415900       0.999977
    12247.397400       1.000000
    12262.415700       0.999989
    12277.470800       0.999946
    12292.563000       0.999869
    12307.692300       0.999759
    12322.858900       0.999617
    12338.062900       0.999443
    12353.304500       0.999237
    12368.583800       0.999000
    12383.900900       0.998731
    12399.256000       0.998431
    12414.649300       0.998101
    12430.080800       0.997740
    12445.550700       0.997349
    12461.059200       0.996928
    12476.606400       0.996478
    12492.192400       0.995999
    12507.817400       0.995491
    12523.481500       0.994955
    12539.185000       0.994390
    12554.927800       0.993798
    12570.710200       0.993179
    12586.532400       0.992532
    12602.394500       0.991859
    12618.296500       0.991159
    12634.238800       0.990434
    12650.221400       0.989683
    12666.244500       0.988906
    12682.308200       0.988105
    12698.412700       0.987280
    12714.558200       0.986430
    12730.744700       0.985557
    12746.972600       0.984661
    12763.241900       0.983741
    12779.552700       0.982800
    12795.905300       0.981836
    12812.299800       0.980850
    12828.736400       0.979844
    12845.215200       0.978816
    12861.736300       0.977768
    12878.300100       0.976700
    12894.906500       0.975612
    12911.555800       0.974506
    12928.248200       0.973380
    12944.983800       0.972236
    12961.762800       0.971074
    12978.585300       0.969895
    12995.451600       0.968699
    13012.361700       0.967486
    13029.316000       0.966257
    13046.314400       0.965012
    13063.357300       0.963752
    13080.444700       0.962478
    13097.576900       0.961188
    13114.754100       0.959885
    13131.976400       0.958568
    13149.243900       0.957239
    13166.556900       0.955896
    13183.915600       0.954542
    13201.320100       0.953176
    13218.770700       0.951798
    13236.267400       0.950410
    13253.810500       0.949011
    13271.400100       0.947602
    13289.036500       0.946184
    13306.719900       0.944757
    13324.450400       0.943322
    13342.228200       0.941878
    13360.053400       0.940427
    13377.926400       0.938968
    13395.847300       0.937503
    13413.816200       0.936031
    13431.833400       0.934554
    13449.899100       0.933071
    13468.013500       0.931583
    13486.176700       0.930091
    13504.388900       0.928594
    13522.650400       0.927094
    13540.961400       0.925591
    13559.322000       0.924085
    13577.732500       0.922577
    13596.193100       0.921067
    13614.703900       0.919556
    13633.265200       0.918043
    13651.877100       0.916531
    13670.540000       0.915018
    13689.253900       0.913505
    13708.019200       0.911993
    13726.836000       0.910482
    13745.704500       0.908973
    13764.624900       0.907466
    13783.597500       0.905962
    13802.622500       0.904460
    13821.700100       0.902962
    13840.830400       0.901467
    13860.013900       0.899976
    13879.250500       0.898490
    13898.540700       0.897009
    13917.884500       0.895533
    13937.282200       0.894063
    13956.734100       0.892599
    13976.240400       0.891142
    13995.801300       0.889691
    14015.417000       0.888247
    14035.087700       0.886811
    14054.813800       0.885384
    14074.595400       0.883964
    14094.432700       0.882553
    14114.326000       0.881152
    14134.275600       0.879760
    14154.281700       0.878377
    14174.344400       0.877005
    14194.464200       0.875643
    14214.641100       0.874292
    14234.875400       0.872952
    14255.167500       0.871624
    14275.517500       0.870307
    14295.925700       0.869002
    14316.392300       0.867710
    14336.917600       0.866431
    14357.501800       0.865164
    14378.145200       0.863911
    14398.848100       0.862671
    14419.610700       0.861446
    14440.433200       0.860234
    14461.316000       0.859037
    14482.259200       0.857854
    14503.263200       0.856687
    14524.328200       0.855534
    14545.454500       0.854397
    14566.642400       0.853276
    14587.892000       0.852170
    14609.203800       0.851081
    14630.577900       0.850008
    14652.014700       0.848951
    14673.514300       0.847911
    14695.077100       0.846888
    14716.703500       0.845883
    14738.393500       0.844894
    14760.147600       0.843923
    14781.966000       0.842970
    14803.849000       0.842034
    14825.796900       0.841117
    14847.809900       0.840217
    14869.888500       0.839336
    14892.032800       0.838473
    14914.243100       0.837628
    14936.519800       0.836802
    14958.863100       0.835995
    14981.273400       0.835206
    15003.750900       0.834437
    15026.296000       0.833686
    15048.909000       0.832954
    15071.590100       0.832242
    15094.339600       0.831549
    15117.158000       0.830874
    15140.045400       0.830219
    15163.002300       0.829584
    15186.028900       0.828967
    15209.125500       0.828370
    15232.292500       0.827792
    15255.530100       0.827234
    15278.838800       0.826695
    15302.218800       0.826175
    15325.670500       0.825674
    15349.194200       0.825192
    15372.790200       0.824730
    15396.458800       0.824286
    15420.200500       0.823862
    15444.015400       0.823457
    15467.904100       0.823070
    15491.866800       0.822702
    15515.903800       0.822353
    15540.015500       0.822023
    15564.202300       0.821711
    15588.464500       0.821417
    15612.802500       0.821141
    15637.216600       0.820883
    15661.707100       0.820643
    15686.274500       0.820421
    15710.919100       0.820216
    15735.641200       0.820029
    15760.441300       0.819859
    15785.319700       0.819705
    15810.276700       0.819569
    15835.312700       0.819448
    15860.428200       0.819344
    15885.623500       0.819256
    15910.899000       0.819184
    15936.255000       0.819127
    15961.691900       0.819086
    15987.210200       0.819059
    16012.810200       0.819047
    16038.492400       0.819049
    16064.257000       0.819065
    16090.104600       0.819095
    16116.035500       0.819139
    16142.050000       0.819195
    16168.148700       0.819264
    16194.332000       0.819345
    16220.600200       0.819439
    16246.953700       0.819544
    16273.393000       0.819660
    16299.918500       0.819787
    16326.530600       0.819924
    16353.229800       0.820071
    16380.016400       0.820228
    16406.890900       0.820394
    16433.853700       0.820569
    16460.905300       0.820752
    16488.046200       0.820943
    16515.276600       0.821141
    16542.597200       0.821346
    16570.008300       0.821557
    16597.510400       0.821775
    16625.103900       0.821997
    16652.789300       0.822225
    16680.567100       0.822457
    16708.437800       0.822692
    16736.401700       0.822931
    16764.459300       0.823173
    16792.611300       0.823417
    16820.857900       0.823663
    16849.199700       0.823910
    16877.637100       0.824157
    16906.170800       0.824404
    16934.801000       0.824650
    16963.528400       0.824896
    16992.353400       0.825139
    17021.276600       0.825380
    17050.298400       0.825618
    17079.419300       0.825852
    17108.639900       0.826081
    17137.960600       0.826306
    17167.382000       0.826525
    17196.904600       0.826738
    17226.528900       0.826944
    17256.255400       0.827142
    17286.084700       0.827332
    17316.017300       0.827512
    17346.053800       0.827683
    17376.194600       0.827844
    17406.440400       0.827994
    17436.791600       0.828132
    17467.248900       0.828257
    17497.812800       0.828370
    17528.483800       0.828468
    17559.262500       0.828551
    17590.149500       0.828620
    17621.145400       0.828672
    17652.250700       0.828707
    17683.466000       0.828725
