1,   	#Band6 extracted from MSU-MR-SRFs.txt (received July 2018)
Number of data points:
127
Wavenumber (cm-1)   Filter response
      746.268700       0.000000
      747.384200       0.002000
      748.503000       0.004000
      749.625200       0.007000
      750.750800       0.010000
      751.879700       0.013000
      753.012000       0.016000
      754.147800       0.020000
      755.287000       0.024000
      756.429700       0.029000
      757.575800       0.035000
      758.725300       0.041000
      759.878400       0.046000
      761.035000       0.052000
      762.195100       0.058000
      763.358800       0.064000
      764.526000       0.071000
      765.696800       0.079000
      766.871200       0.087000
      768.049200       0.097000
      769.230800       0.108000
      770.416000       0.120000
      771.604900       0.133000
      772.797500       0.147000
      773.993800       0.162000
      775.193800       0.177000
      776.397500       0.194000
      777.605000       0.210000
      778.816200       0.227000
      780.031200       0.245000
      781.250000       0.263000
      782.472600       0.283000
      783.699100       0.304000
      784.929400       0.327000
      786.163500       0.352000
      787.401600       0.376000
      788.643500       0.402000
      789.889400       0.427000
      791.139200       0.452000
      792.393000       0.476000
      793.650800       0.498000
      794.912600       0.521000
      796.178300       0.546000
      797.448200       0.571000
      798.722000       0.598000
      800.000000       0.624000
      801.282100       0.650000
      802.568200       0.676000
      803.858500       0.700000
      805.153000       0.722000
      806.451600       0.742000
      807.754400       0.760000
      809.061500       0.778000
      810.372800       0.796000
      811.688300       0.813000
      813.008100       0.829000
      814.332200       0.845000
      815.660700       0.860000
      816.993500       0.874000
      818.330600       0.887000
      819.672100       0.899000
      821.018100       0.909000
      822.368400       0.918000
      823.723200       0.926000
      825.082500       0.932000
      826.446300       0.938000
      827.814600       0.943000
      829.187400       0.947000
      830.564800       0.951000
      831.946800       0.956000
      833.333300       0.960000
      834.724500       0.965000
      836.120400       0.971000
      837.520900       0.977000
      838.926200       0.984000
      840.336100       0.990000
      841.750800       0.995000
      843.170300       0.998000
      844.594600       1.000000
      846.023700       0.999000
      847.457600       0.995000
      848.896400       0.989000
      850.340100       0.983000
      851.788800       0.976000
      853.242300       0.968000
      854.700900       0.960000
      856.164400       0.949000
      857.632900       0.937000
      859.106500       0.923000
      860.585200       0.907000
      862.069000       0.888000
      863.557900       0.865000
      865.051900       0.836000
      866.551100       0.804000
      868.055600       0.768000
      869.565200       0.730000
      871.080100       0.692000
      872.600300       0.653000
      874.125900       0.616000
      875.656700       0.581000
      877.193000       0.550000
      878.734600       0.519000
      880.281700       0.484000
      881.834200       0.447000
      883.392200       0.409000
      884.955800       0.369000
      886.524800       0.331000
      888.099500       0.294000
      889.679700       0.259000
      891.265600       0.228000
      892.857100       0.202000
      894.454400       0.180000
      896.057300       0.159000
      897.666100       0.141000
      899.280600       0.124000
      900.900900       0.108000
      902.527100       0.094000
      904.159100       0.081000
      905.797100       0.068000
      907.441000       0.057000
      909.090900       0.045000
      910.746800       0.034000
      912.408800       0.025000
      914.076800       0.016000
      915.750900       0.009000
      917.431200       0.003000
      919.117600       0.000000
