15, channel 15 SRF extracted from AHI-8_SpectralResponsivity_Data.xlsx (release Sept 2013)
Number of data points:
1631
Wavenumber (cm-1)   Filter response
      732.000000       0.000875
      732.100000       0.000883
      732.200000       0.000889
      732.300000       0.000896
      732.400000       0.000900
      732.500000       0.000904
      732.600000       0.000907
      732.700000       0.000908
      732.800000       0.000909
      732.900000       0.000909
      733.000000       0.000908
      733.100000       0.000907
      733.200000       0.000906
      733.300000       0.000905
      733.400000       0.000905
      733.500000       0.000905
      733.600000       0.000906
      733.700000       0.000908
      733.800000       0.000911
      733.900000       0.000916
      734.000000       0.000921
      734.100000       0.000927
      734.200000       0.000935
      734.300000       0.000943
      734.400000       0.000953
      734.500000       0.000963
      734.600000       0.000973
      734.700000       0.000985
      734.800000       0.000997
      734.900000       0.001010
      735.000000       0.001023
      735.100000       0.001037
      735.200000       0.001052
      735.300000       0.001068
      735.400000       0.001084
      735.500000       0.001101
      735.600000       0.001118
      735.700000       0.001136
      735.800000       0.001155
      735.900000       0.001174
      736.000000       0.001194
      736.100000       0.001213
      736.200000       0.001233
      736.300000       0.001252
      736.400000       0.001270
      736.500000       0.001288
      736.600000       0.001305
      736.700000       0.001321
      736.800000       0.001336
      736.900000       0.001348
      737.000000       0.001360
      737.100000       0.001370
      737.200000       0.001378
      737.300000       0.001386
      737.400000       0.001392
      737.500000       0.001397
      737.600000       0.001402
      737.700000       0.001407
      737.800000       0.001411
      737.900000       0.001416
      738.000000       0.001421
      738.100000       0.001427
      738.200000       0.001433
      738.300000       0.001441
      738.400000       0.001449
      738.500000       0.001459
      738.600000       0.001470
      738.700000       0.001481
      738.800000       0.001494
      738.900000       0.001507
      739.000000       0.001521
      739.100000       0.001535
      739.200000       0.001549
      739.300000       0.001564
      739.400000       0.001579
      739.500000       0.001593
      739.600000       0.001608
      739.700000       0.001622
      739.800000       0.001636
      739.900000       0.001650
      740.000000       0.001664
      740.100000       0.001678
      740.200000       0.001692
      740.300000       0.001705
      740.400000       0.001718
      740.500000       0.001731
      740.600000       0.001744
      740.700000       0.001757
      740.800000       0.001770
      740.900000       0.001782
      741.000000       0.001794
      741.100000       0.001805
      741.200000       0.001816
      741.300000       0.001827
      741.400000       0.001837
      741.500000       0.001847
      741.600000       0.001856
      741.700000       0.001865
      741.800000       0.001875
      741.900000       0.001883
      742.000000       0.001892
      742.100000       0.001902
      742.200000       0.001912
      742.300000       0.001922
      742.400000       0.001934
      742.500000       0.001945
      742.600000       0.001959
      742.700000       0.001973
      742.800000       0.001988
      742.900000       0.002005
      743.000000       0.002022
      743.100000       0.002041
      743.200000       0.002061
      743.300000       0.002081
      743.400000       0.002102
      743.500000       0.002124
      743.600000       0.002146
      743.700000       0.002169
      743.800000       0.002191
      743.900000       0.002214
      744.000000       0.002237
      744.100000       0.002259
      744.200000       0.002282
      744.300000       0.002304
      744.400000       0.002326
      744.500000       0.002349
      744.600000       0.002370
      744.700000       0.002392
      744.800000       0.002414
      744.900000       0.002435
      745.000000       0.002456
      745.100000       0.002476
      745.200000       0.002497
      745.300000       0.002517
      745.400000       0.002537
      745.500000       0.002557
      745.600000       0.002576
      745.700000       0.002596
      745.800000       0.002615
      745.900000       0.002635
      746.000000       0.002655
      746.100000       0.002676
      746.200000       0.002697
      746.300000       0.002720
      746.400000       0.002745
      746.500000       0.002771
      746.600000       0.002800
      746.700000       0.002830
      746.800000       0.002864
      746.900000       0.002901
      747.000000       0.002939
      747.100000       0.002982
      747.200000       0.003027
      747.300000       0.003075
      747.400000       0.003125
      747.500000       0.003177
      747.600000       0.003232
      747.700000       0.003289
      747.800000       0.003346
      747.900000       0.003404
      748.000000       0.003462
      748.100000       0.003521
      748.200000       0.003579
      748.300000       0.003636
      748.400000       0.003693
      748.500000       0.003749
      748.600000       0.003803
      748.700000       0.003858
      748.800000       0.003910
      748.900000       0.003962
      749.000000       0.004014
      749.100000       0.004065
      749.200000       0.004117
      749.300000       0.004169
      749.400000       0.004222
      749.500000       0.004276
      749.600000       0.004331
      749.700000       0.004387
      749.800000       0.004446
      749.900000       0.004507
      750.000000       0.004569
      750.100000       0.004634
      750.200000       0.004700
      750.300000       0.004769
      750.400000       0.004840
      750.500000       0.004913
      750.600000       0.004989
      750.700000       0.005065
      750.800000       0.005144
      750.900000       0.005224
      751.000000       0.005306
      751.100000       0.005390
      751.200000       0.005476
      751.300000       0.005563
      751.400000       0.005652
      751.500000       0.005742
      751.600000       0.005835
      751.700000       0.005929
      751.800000       0.006025
      751.900000       0.006122
      752.000000       0.006221
      752.100000       0.006321
      752.200000       0.006423
      752.300000       0.006527
      752.400000       0.006632
      752.500000       0.006738
      752.600000       0.006845
      752.700000       0.006953
      752.800000       0.007061
      752.900000       0.007172
      753.000000       0.007283
      753.100000       0.007395
      753.200000       0.007508
      753.300000       0.007623
      753.400000       0.007739
      753.500000       0.007858
      753.600000       0.007979
      753.700000       0.008103
      753.800000       0.008229
      753.900000       0.008351
      754.000000       0.008475
      754.100000       0.008604
      754.200000       0.008735
      754.300000       0.008871
      754.400000       0.009010
      754.500000       0.009153
      754.600000       0.009300
      754.700000       0.009451
      754.800000       0.009606
      754.900000       0.009766
      755.000000       0.009928
      755.100000       0.010096
      755.200000       0.010267
      755.300000       0.010442
      755.400000       0.010621
      755.500000       0.010804
      755.600000       0.010990
      755.700000       0.011181
      755.800000       0.011376
      755.900000       0.011574
      756.000000       0.011776
      756.100000       0.011981
      756.200000       0.012190
      756.300000       0.012404
      756.400000       0.012621
      756.500000       0.012842
      756.600000       0.013067
      756.700000       0.013295
      756.800000       0.013528
      756.900000       0.013765
      757.000000       0.014005
      757.100000       0.014248
      757.200000       0.014496
      757.300000       0.014747
      757.400000       0.015001
      757.500000       0.015259
      757.600000       0.015521
      757.700000       0.015785
      757.800000       0.016053
      757.900000       0.016324
      758.000000       0.016599
      758.100000       0.016876
      758.200000       0.017158
      758.300000       0.017448
      758.400000       0.017764
      758.500000       0.018087
      758.600000       0.018415
      758.700000       0.018749
      758.800000       0.019089
      758.900000       0.019437
      759.000000       0.019790
      759.100000       0.020151
      759.200000       0.020519
      759.300000       0.020895
      759.400000       0.021279
      759.500000       0.021671
      759.600000       0.022070
      759.700000       0.022479
      759.800000       0.022897
      759.900000       0.023322
      760.000000       0.023757
      760.100000       0.024201
      760.200000       0.024654
      760.300000       0.025116
      760.400000       0.025585
      760.500000       0.026064
      760.600000       0.026552
      760.700000       0.027065
      760.800000       0.027619
      760.900000       0.028184
      761.000000       0.028761
      761.100000       0.029349
      761.200000       0.029949
      761.300000       0.030561
      761.400000       0.031187
      761.500000       0.031823
      761.600000       0.032472
      761.700000       0.033135
      761.800000       0.033810
      761.900000       0.034500
      762.000000       0.035204
      762.100000       0.035921
      762.200000       0.036653
      762.300000       0.037402
      762.400000       0.038166
      762.500000       0.038948
      762.600000       0.039744
      762.700000       0.040554
      762.800000       0.041380
      762.900000       0.042220
      763.000000       0.043078
      763.100000       0.043953
      763.200000       0.044844
      763.300000       0.045756
      763.400000       0.046726
      763.500000       0.047734
      763.600000       0.048763
      763.700000       0.049814
      763.800000       0.050890
      763.900000       0.051986
      764.000000       0.053105
      764.100000       0.054249
      764.200000       0.055416
      764.300000       0.056608
      764.400000       0.057824
      764.500000       0.059066
      764.600000       0.060332
      764.700000       0.061625
      764.800000       0.062942
      764.900000       0.064288
      765.000000       0.065662
      765.100000       0.067062
      765.200000       0.068488
      765.300000       0.069940
      765.400000       0.071418
      765.500000       0.072923
      765.600000       0.074464
      765.700000       0.076072
      765.800000       0.077719
      765.900000       0.079394
      766.000000       0.081102
      766.100000       0.082842
      766.200000       0.084624
      766.300000       0.086477
      766.400000       0.088360
      766.500000       0.090280
      766.600000       0.092236
      766.700000       0.094230
      766.800000       0.096268
      766.900000       0.098344
      767.000000       0.100464
      767.100000       0.102625
      767.200000       0.104815
      767.300000       0.107045
      767.400000       0.109311
      767.500000       0.111626
      767.600000       0.113982
      767.700000       0.116380
      767.800000       0.118824
      767.900000       0.121307
      768.000000       0.123853
      768.100000       0.126450
      768.200000       0.129090
      768.300000       0.131790
      768.400000       0.134565
      768.500000       0.137395
      768.600000       0.140263
      768.700000       0.143200
      768.800000       0.146204
      768.900000       0.149226
      769.000000       0.152315
      769.100000       0.155458
      769.200000       0.158653
      769.300000       0.161875
      769.400000       0.165125
      769.500000       0.168396
      769.600000       0.171676
      769.700000       0.174987
      769.800000       0.178309
      769.900000       0.181667
      770.000000       0.185023
      770.100000       0.188403
      770.200000       0.191801
      770.300000       0.195220
      770.400000       0.198694
      770.500000       0.202175
      770.600000       0.205698
      770.700000       0.209228
      770.800000       0.212811
      770.900000       0.216428
      771.000000       0.220113
      771.100000       0.223868
      771.200000       0.227679
      771.300000       0.231565
      771.400000       0.235477
      771.500000       0.239504
      771.600000       0.243557
      771.700000       0.247713
      771.800000       0.251888
      771.900000       0.256138
      772.000000       0.260424
      772.100000       0.264742
      772.200000       0.269131
      772.300000       0.273534
      772.400000       0.278003
      772.500000       0.282482
      772.600000       0.286993
      772.700000       0.291486
      772.800000       0.295974
      772.900000       0.300435
      773.000000       0.304884
      773.100000       0.309291
      773.200000       0.313687
      773.300000       0.318010
      773.400000       0.322329
      773.500000       0.326551
      773.600000       0.330792
      773.700000       0.334978
      773.800000       0.339175
      773.900000       0.343353
      774.000000       0.347556
      774.100000       0.351747
      774.200000       0.355991
      774.300000       0.360231
      774.400000       0.364550
      774.500000       0.368844
      774.600000       0.373256
      774.700000       0.377637
      774.800000       0.382147
      774.900000       0.386640
      775.000000       0.391269
      775.100000       0.395911
      775.200000       0.400649
      775.300000       0.405383
      775.400000       0.410155
      775.500000       0.414942
      775.600000       0.419670
      775.700000       0.424398
      775.800000       0.429025
      775.900000       0.433661
      776.000000       0.438273
      776.100000       0.442849
      776.200000       0.447449
      776.300000       0.452040
      776.400000       0.456685
      776.500000       0.461344
      776.600000       0.466092
      776.700000       0.470918
      776.800000       0.475832
      776.900000       0.480834
      777.000000       0.485920
      777.100000       0.491112
      777.200000       0.496488
      777.300000       0.501966
      777.400000       0.507633
      777.500000       0.513324
      777.600000       0.518919
      777.700000       0.524397
      777.800000       0.529687
      777.900000       0.534871
      778.000000       0.539989
      778.100000       0.545098
      778.200000       0.550239
      778.300000       0.555557
      778.400000       0.560961
      778.500000       0.566666
      778.600000       0.572488
      778.700000       0.578432
      778.800000       0.584492
      778.900000       0.590708
      779.000000       0.597076
      779.100000       0.603089
      779.200000       0.608804
      779.300000       0.613744
      779.400000       0.618478
      779.500000       0.622793
      779.600000       0.627049
      779.700000       0.631123
      779.800000       0.635185
      779.900000       0.639396
      780.000000       0.643640
      780.100000       0.648139
      780.200000       0.652771
      780.300000       0.657474
      780.400000       0.662213
      780.500000       0.666971
      780.600000       0.671734
      780.700000       0.676464
      780.800000       0.681171
      780.900000       0.685553
      781.000000       0.689397
      781.100000       0.693209
      781.200000       0.696506
      781.300000       0.699639
      781.400000       0.702741
      781.500000       0.705600
      781.600000       0.708312
      781.700000       0.711011
      781.800000       0.713651
      781.900000       0.716064
      782.000000       0.718425
      782.100000       0.720777
      782.200000       0.723134
      782.300000       0.725624
      782.400000       0.728160
      782.500000       0.730707
      782.600000       0.733291
      782.700000       0.736110
      782.800000       0.739011
      782.900000       0.741932
      783.000000       0.744841
      783.100000       0.747715
      783.200000       0.750602
      783.300000       0.753506
      783.400000       0.756283
      783.500000       0.758976
      783.600000       0.761652
      783.700000       0.764290
      783.800000       0.766658
      783.900000       0.768756
      784.000000       0.770814
      784.100000       0.772841
      784.200000       0.774846
      784.300000       0.776762
      784.400000       0.778384
      784.500000       0.779905
      784.600000       0.781406
      784.700000       0.782915
      784.800000       0.784435
      784.900000       0.785978
      785.000000       0.787616
      785.100000       0.789479
      785.200000       0.791433
      785.300000       0.793401
      785.400000       0.795373
      785.500000       0.797337
      785.600000       0.799309
      785.700000       0.801363
      785.800000       0.803422
      785.900000       0.805465
      786.000000       0.807479
      786.100000       0.809444
      786.200000       0.811305
      786.300000       0.813096
      786.400000       0.814854
      786.500000       0.816588
      786.600000       0.818288
      786.700000       0.819914
      786.800000       0.821276
      786.900000       0.822437
      787.000000       0.823555
      787.100000       0.824661
      787.200000       0.825742
      787.300000       0.826799
      787.400000       0.827847
      787.500000       0.828910
      787.600000       0.830109
      787.700000       0.831724
      787.800000       0.833403
      787.900000       0.835065
      788.000000       0.836732
      788.100000       0.838397
      788.200000       0.840157
      788.300000       0.841944
      788.400000       0.843732
      788.500000       0.845508
      788.600000       0.847264
      788.700000       0.848636
      788.800000       0.849791
      788.900000       0.850932
      789.000000       0.852070
      789.100000       0.853255
      789.200000       0.854514
      789.300000       0.855823
      789.400000       0.857198
      789.500000       0.858500
      789.600000       0.859768
      789.700000       0.861056
      789.800000       0.862350
      789.900000       0.863643
      790.000000       0.864972
      790.100000       0.866354
      790.200000       0.867766
      790.300000       0.869168
      790.400000       0.870632
      790.500000       0.872401
      790.600000       0.874470
      790.700000       0.876511
      790.800000       0.878512
      790.900000       0.880478
      791.000000       0.882388
      791.100000       0.884372
      791.200000       0.885593
      791.300000       0.887028
      791.400000       0.888369
      791.500000       0.889601
      791.600000       0.890740
      791.700000       0.891769
      791.800000       0.892705
      791.900000       0.893535
      792.000000       0.894297
      792.100000       0.894997
      792.200000       0.895663
      792.300000       0.896297
      792.400000       0.896933
      792.500000       0.897593
      792.600000       0.898295
      792.700000       0.899053
      792.800000       0.899886
      792.900000       0.900780
      793.000000       0.901758
      793.100000       0.902813
      793.200000       0.903939
      793.300000       0.905117
      793.400000       0.906338
      793.500000       0.907571
      793.600000       0.908784
      793.700000       0.909978
      793.800000       0.911114
      793.900000       0.912188
