31,   31, MVIRI VIS channel from srf_MET4_1993123_1993124_1801-Release_S10EL_10.dat
Number of data points:
752
Wavenumber (cm-1)   Filter response
     8745.080900       0.000000
     8752.735200       0.000000
     8760.403000       0.000001
     8768.084200       0.000060
     8775.778900       0.000201
     8783.487000       0.000424
     8791.208800       0.000725
     8798.944100       0.001103
     8806.693100       0.001554
     8814.455700       0.002078
     8822.232000       0.002670
     8830.022100       0.003331
     8837.825900       0.004056
     8845.643500       0.004846
     8853.475000       0.005696
     8861.320300       0.006606
     8869.179600       0.007574
     8877.052800       0.008599
     8884.940000       0.009677
     8892.841300       0.010809
     8900.756600       0.011991
     8908.686000       0.013224
     8916.629500       0.014504
     8924.587200       0.015831
     8932.559200       0.017204
     8940.545400       0.018620
     8948.545900       0.020080
     8956.560700       0.021580
     8964.589900       0.023121
     8972.633500       0.024701
     8980.691500       0.026319
     8988.764000       0.027975
     8996.851100       0.029665
     9004.952700       0.031391
     9013.068900       0.033151
     9021.199800       0.034944
     9029.345400       0.036768
     9037.505600       0.038624
     9045.680700       0.040511
     9053.870500       0.042426
     9062.075200       0.044371
     9070.294800       0.046344
     9078.529300       0.048345
     9086.778700       0.050372
     9095.043200       0.052426
     9103.322700       0.054505
     9111.617300       0.056609
     9119.927000       0.058737
     9128.251900       0.060889
     9136.592100       0.063065
     9144.947400       0.065263
     9153.318100       0.067485
     9161.704100       0.069727
     9170.105500       0.071992
     9178.522300       0.074278
     9186.954500       0.076585
     9195.402300       0.078912
     9203.865600       0.081259
     9212.344500       0.083627
     9220.839100       0.086014
     9229.349300       0.088420
     9237.875300       0.090845
     9246.417000       0.093289
     9254.974500       0.095752
     9263.547900       0.098233
     9272.137200       0.100732
     9280.742500       0.103249
     9289.363700       0.105784
     9298.000900       0.108337
     9306.654300       0.110907
     9315.323700       0.113495
     9324.009300       0.116100
     9332.711200       0.118722
     9341.429200       0.121361
     9350.163600       0.124017
     9358.914400       0.126690
     9367.681500       0.129380
     9376.465100       0.132087
     9385.265100       0.134810
     9394.081700       0.137550
     9402.914900       0.140306
     9411.764700       0.143079
     9420.631200       0.145869
     9429.514400       0.148675
     9438.414300       0.151498
     9447.331100       0.154337
     9456.264800       0.157192
     9465.215300       0.160065
     9474.182900       0.162953
     9483.167400       0.165858
     9492.169000       0.168779
     9501.187600       0.171718
     9510.223500       0.174672
     9519.276500       0.177643
     9528.346800       0.180631
     9537.434400       0.183635
     9546.539400       0.186656
     9555.661700       0.189694
     9564.801500       0.192747
     9573.958800       0.195818
     9583.133700       0.198906
     9592.326100       0.202010
     9601.536200       0.205131
     9610.764100       0.208268
     9620.009600       0.211422
     9629.273000       0.214593
     9638.554200       0.217781
     9647.853400       0.220986
     9657.170400       0.224207
     9666.505600       0.227446
     9675.858700       0.230701
     9685.230000       0.233973
     9694.619500       0.237262
     9704.027200       0.240568
     9713.453100       0.243891
     9722.897400       0.247231
     9732.360100       0.250587
     9741.841200       0.253961
     9751.340800       0.257351
     9760.859000       0.260758
     9770.395700       0.264182
     9779.951100       0.267623
     9789.525200       0.271081
     9799.118100       0.274555
     9808.729800       0.278046
     9818.360300       0.281554
     9828.009800       0.285078
     9837.678300       0.288620
     9847.365800       0.292177
     9857.072400       0.295751
     9866.798200       0.299342
     9876.543200       0.302949
     9886.307500       0.306573
     9896.091000       0.310212
     9905.894000       0.313868
     9915.716400       0.317540
     9925.558300       0.321227
     9935.419800       0.324931
     9945.300800       0.328651
     9955.201600       0.332386
     9965.122100       0.336137
     9975.062300       0.339903
     9985.022500       0.343685
     9995.002500       0.347482
    10005.002500       0.351294
    10015.022500       0.355121
    10025.062700       0.358963
    10035.122900       0.362819
    10045.203400       0.366690
    10055.304200       0.370575
    10065.425300       0.374475
    10075.566800       0.378388
    10085.728700       0.382315
    10095.911200       0.386256
    10106.114200       0.390211
    10116.337900       0.394178
    10126.582300       0.398159
    10136.847400       0.402153
    10147.133400       0.406159
    10157.440300       0.410178
    10167.768200       0.414209
    10178.117000       0.418252
    10188.487000       0.422307
    10198.878100       0.426373
    10209.290500       0.430451
    10219.724100       0.434540
    10230.179000       0.438639
    10240.655400       0.442749
    10251.153300       0.446870
    10261.672700       0.451000
    10272.213700       0.455140
    10282.776300       0.459289
    10293.360800       0.463448
    10303.967000       0.467616
    10314.595200       0.471792
    10325.245200       0.475976
    10335.917300       0.480169
    10346.611500       0.484369
    10357.327800       0.488577
    10368.066400       0.492791
    10378.827200       0.497013
    10389.610400       0.501241
    10400.416000       0.505475
    10411.244100       0.509714
    10422.094800       0.513959
    10432.968200       0.518210
    10443.864200       0.522465
    10454.783100       0.526724
    10465.724800       0.530987
    10476.689400       0.535254
    10487.677000       0.539525
    10498.687700       0.543798
    10509.721500       0.548074
    10520.778500       0.552352
    10531.858900       0.556632
    10542.962600       0.560914
    10554.089700       0.565196
    10565.240400       0.569480
    10576.414600       0.573763
    10587.612500       0.578046
    10598.834100       0.582330
    10610.079600       0.586612
    10621.348900       0.590893
    10632.642200       0.595172
    10643.959600       0.599449
    10655.301000       0.603724
    10666.666700       0.607995
    10678.056600       0.612264
    10689.470900       0.616529
    10700.909600       0.620790
    10712.372800       0.625046
    10723.860600       0.629297
    10735.373100       0.633543
    10746.910300       0.637783
    10758.472300       0.642017
    10770.059200       0.646244
    10781.671200       0.650464
    10793.308100       0.654677
    10804.970300       0.658882
    10816.657700       0.663079
    10828.370300       0.667266
    10840.108400       0.671445
    10851.871900       0.675614
    10863.661100       0.679773
    10875.475800       0.683921
    10887.316300       0.688059
    10899.182600       0.692185
    10911.074700       0.696300
    10922.992900       0.700402
    10934.937100       0.704492
    10946.907500       0.708568
    10958.904100       0.712631
    10970.927000       0.716681
    10982.976400       0.720715
    10995.052200       0.724736
    11007.154700       0.728740
    11019.283700       0.732730
    11031.439600       0.736703
    11043.622300       0.740660
    11055.832000       0.744600
    11068.068600       0.748522
    11080.332400       0.752427
    11092.623400       0.756314
    11104.941700       0.760182
    11117.287400       0.764031
    11129.660500       0.767861
    11142.061300       0.771671
    11154.489700       0.775461
    11166.945800       0.779230
    11179.429800       0.782978
    11191.941800       0.786705
    11204.481800       0.790410
    11217.049900       0.794092
    11229.646300       0.797752
    11242.270900       0.801389
    11254.924000       0.805003
    11267.605600       0.808593
    11280.315800       0.812158
    11293.054800       0.815699
    11305.822500       0.819215
    11318.619100       0.822706
    11331.444800       0.826171
    11344.299500       0.829610
    11357.183400       0.833022
    11370.096600       0.836408
    11383.039300       0.839767
    11396.011400       0.843098
    11409.013100       0.846401
    11422.044500       0.849676
    11435.105800       0.852922
    11448.196900       0.856140
    11461.318100       0.859328
    11474.469300       0.862487
    11487.650800       0.865616
    11500.862600       0.868715
    11514.104800       0.871783
    11527.377500       0.874820
    11540.680900       0.877826
    11554.015000       0.880801
    11567.380000       0.883744
    11580.775900       0.886655
    11594.202900       0.889534
    11607.661100       0.892379
    11621.150500       0.895193
    11634.671300       0.897973
    11648.223600       0.900719
    11661.807600       0.903432
    11675.423200       0.906110
    11689.070700       0.908755
    11702.750100       0.911365
    11716.461600       0.913940
    11730.205300       0.916481
    11743.981200       0.918986
    11757.789500       0.921455
    11771.630400       0.923890
    11785.503800       0.926288
    11799.410000       0.928650
    11813.349100       0.930976
    11827.321100       0.933265
    11841.326200       0.935518
    11855.364600       0.937733
    11869.436200       0.939912
    11883.541300       0.942054
    11897.680000       0.944158
    11911.852300       0.946224
    11926.058400       0.948253
    11940.298500       0.950244
    11954.572600       0.952197
    11968.880900       0.954112
    11983.223500       0.955989
    11997.600500       0.957827
    12012.012000       0.959626
    12026.458200       0.961387
    12040.939200       0.963109
    12055.455100       0.964793
    12070.006000       0.966437
    12084.592100       0.968042
    12099.213600       0.969608
    12113.870400       0.971135
    12128.562800       0.972623
    12143.290800       0.974071
    12158.054700       0.975480
    12172.854500       0.976849
    12187.690400       0.978179
    12202.562500       0.979470
    12217.471000       0.980720
    12232.415900       0.981932
    12247.397400       0.983103
    12262.415700       0.984235
    12277.470800       0.985327
    12292.563000       0.986380
    12307.692300       0.987393
    12322.858900       0.988366
    12338.062900       0.989300
    12353.304500       0.990194
    12368.583800       0.991049
    12383.900900       0.991864
    12399.256000       0.992640
    12414.649300       0.993377
    12430.080800       0.994074
    12445.550700       0.994731
    12461.059200       0.995350
    12476.606400       0.995929
    12492.192400       0.996470
    12507.817400       0.996971
    12523.481500       0.997434
    12539.185000       0.997858
    12554.927800       0.998243
    12570.710200       0.998590
    12586.532400       0.998898
    12602.394500       0.999168
    12618.296500       0.999400
    12634.238800       0.999594
    12650.221400       0.999750
    12666.244500       0.999869
    12682.308200       0.999950
    12698.412700       0.999994
    12714.558200       1.000000
    12730.744700       0.999969
    12746.972600       0.999902
    12763.241900       0.999798
    12779.552700       0.999658
    12795.905300       0.999481
    12812.299800       0.999268
    12828.736400       0.999020
    12845.215200       0.998736
    12861.736300       0.998417
    12878.300100       0.998062
    12894.906500       0.997673
    12911.555800       0.997249
    12928.248200       0.996790
    12944.983800       0.996298
    12961.762800       0.995771
    12978.585300       0.995211
    12995.451600       0.994618
    13012.361700       0.993991
    13029.316000       0.993332
    13046.314400       0.992640
    13063.357300       0.991916
    13080.444700       0.991161
    13097.576900       0.990373
    13114.754100       0.989554
    13131.976400       0.988705
    13149.243900       0.987824
    13166.556900       0.986913
    13183.915600       0.985972
    13201.320100       0.985002
    13218.770700       0.984002
    13236.267400       0.982973
    13253.810500       0.981915
    13271.400100       0.980829
    13289.036500       0.979715
    13306.719900       0.978573
    13324.450400       0.977404
    13342.228200       0.976208
    13360.053400       0.974986
    13377.926400       0.973737
    13395.847300       0.972463
    13413.816200       0.971163
    13431.833400       0.969838
    13449.899100       0.968489
    13468.013500       0.967115
    13486.176700       0.965717
    13504.388900       0.964296
    13522.650400       0.962852
    13540.961400       0.961385
    13559.322000       0.959896
    13577.732500       0.958385
    13596.193100       0.956852
    13614.703900       0.955298
    13633.265200       0.953724
    13651.877100       0.952130
    13670.540000       0.950515
    13689.253900       0.948882
    13708.019200       0.947229
    13726.836000       0.945558
    13745.704500       0.943869
    13764.624900       0.942162
    13783.597500       0.940438
    13802.622500       0.938697
    13821.700100       0.936940
    13840.830400       0.935167
    13860.013900       0.933379
    13879.250500       0.931575
    13898.540700       0.929757
    13917.884500       0.927925
    13937.282200       0.926079
    13956.734100       0.924220
    13976.240400       0.922348
    13995.801300       0.920464
    14015.417000       0.918567
    14035.087700       0.916660
    14054.813800       0.914741
    14074.595400       0.912812
    14094.432700       0.910872
    14114.326000       0.908924
    14134.275600       0.906965
    14154.281700       0.904998
    14174.344400       0.903023
    14194.464200       0.901040
    14214.641100       0.899050
    14234.875400       0.897052
    14255.167500       0.895049
    14275.517500       0.893039
    14295.925700       0.891023
    14316.392300       0.889002
    14336.917600       0.886977
    14357.501800       0.884948
    14378.145200       0.882914
    14398.848100       0.880877
    14419.610700       0.878838
    14440.433200       0.876795
    14461.316000       0.874751
    14482.259200       0.872705
    14503.263200       0.870658
    14524.328200       0.868610
    14545.454500       0.866562
    14566.642400       0.864514
    14587.892000       0.862467
    14609.203800       0.860420
    14630.577900       0.858375
    14652.014700       0.856331
    14673.514300       0.854290
    14695.077100       0.852252
    14716.703500       0.850216
    14738.393500       0.848184
    14760.147600       0.846156
    14781.966000       0.844132
    14803.849000       0.842112
    14825.796900       0.840098
    14847.809900       0.838089
    14869.888500       0.836086
    14892.032800       0.834089
    14914.243100       0.832099
    14936.519800       0.830116
    14958.863100       0.828140
    14981.273400       0.826171
    15003.750900       0.824211
    15026.296000       0.822259
    15048.909000       0.820316
    15071.590100       0.818382
    15094.339600       0.816457
    15117.158000       0.814543
    15140.045400       0.812638
    15163.002300       0.810744
    15186.028900       0.808860
    15209.125500       0.806988
    15232.292500       0.805127
    15255.530100       0.803278
    15278.838800       0.801441
    15302.218800       0.799616
    15325.670500       0.797804
    15349.194200       0.796004
    15372.790200       0.794218
    15396.458800       0.792445
    15420.200500       0.790686
    15444.015400       0.788941
    15467.904100       0.787210
    15491.866800       0.785494
    15515.903800       0.783792
    15540.015500       0.782106
    15564.202300       0.780434
    15588.464500       0.778778
    15612.802500       0.777138
    15637.216600       0.775513
    15661.707100       0.773904
    15686.274500       0.772312
    15710.919100       0.770736
    15735.641200       0.769177
    15760.441300       0.767634
    15785.319700       0.766108
    15810.276700       0.764600
    15835.312700       0.763109
    15860.428200       0.761635
    15885.623500       0.760178
    15910.899000       0.758739
    15936.255000       0.757318
    15961.691900       0.755915
    15987.210200       0.754530
    16012.810200       0.753163
    16038.492400       0.751814
    16064.257000       0.750484
    16090.104600       0.749171
    16116.035500       0.747878
    16142.050000       0.746602
    16168.148700       0.745345
    16194.332000       0.744107
    16220.600200       0.742887
    16246.953700       0.741685
    16273.393000       0.740502
    16299.918500       0.739338
    16326.530600       0.738193
    16353.229800       0.737066
    16380.016400       0.735957
    16406.890900       0.734867
    16433.853700       0.733796
    16460.905300       0.732743
    16488.046200       0.731708
    16515.276600       0.730692
    16542.597200       0.729693
    16570.008300       0.728713
    16597.510400       0.727751
    16625.103900       0.726807
    16652.789300       0.725881
    16680.567100       0.724973
    16708.437800       0.724082
    16736.401700       0.723208
    16764.459300       0.722352
    16792.611300       0.721513
    16820.857900       0.720691
    16849.199700       0.719885
    16877.637100       0.719097
    16906.170800       0.718324
    16934.801000       0.717568
    16963.528400       0.716828
    16992.353400       0.716103
    17021.276600       0.715394
    17050.298400       0.714701
    17079.419300       0.714022
    17108.639900       0.713358
    17137.960600       0.712709
    17167.382000       0.712074
    17196.904600       0.711452
    17226.528900       0.710845
    17256.255400       0.710250
    17286.084700       0.709669
    17316.017300       0.709100
    17346.053800       0.708544
    17376.194600       0.708000
    17406.440400       0.707467
    17436.791600       0.706945
    17467.248900       0.706435
    17497.812800       0.705935
    17528.483800       0.705445
    17559.262500       0.704965
    17590.149500       0.704494
    17621.145400       0.704032
    17652.250700       0.703578
    17683.466000       0.703133
    17714.791900       0.702695
    17746.228900       0.702264
    17777.777800       0.701840
    17809.439000       0.701422
    17841.213200       0.701010
    17873.101000       0.700603
    17905.103000       0.700201
    17937.219700       0.699803
    17969.451900       0.699409
    18001.800200       0.699018
    18034.265100       0.698630
    18066.847300       0.698244
    18099.547500       0.697860
    18132.366300       0.697476
    18165.304300       0.697093
    18198.362100       0.696711
    18231.540600       0.696327
    18264.840200       0.695942
    18298.261700       0.695556
    18331.805700       0.695167
    18365.472900       0.694775
    18399.264000       0.694379
    18433.179700       0.693980
    18467.220700       0.693575
    18501.387600       0.693165
    18535.681200       0.692749
    18570.102100       0.692326
    18604.651200       0.691896
    18639.329000       0.691458
    18674.136300       0.691011
    18709.073900       0.690554
    18744.142500       0.690088
    18779.342700       0.689611
    18814.675400       0.689123
    18850.141400       0.688622
    18885.741300       0.688109
    18921.475900       0.687583
    18957.346000       0.687042
    18993.352300       0.686486
    19029.495700       0.685915
    19065.776900       0.685328
