   9  ,noaa_19_hirs_09.flt
Number of data points:
643
Wavenumber (cm-1)   Filter response
      997.230000       0.000000
      997.330000       0.000029
      997.430000       0.000075
      997.530000       0.000123
      997.630000       0.000175
      997.730000       0.000229
      997.830000       0.000290
      997.930000       0.000353
      998.030000       0.000417
      998.130000       0.000482
      998.230000       0.000551
      998.330000       0.000623
      998.430000       0.000695
      998.530000       0.000768
      998.630000       0.000844
      998.730000       0.000924
      998.830000       0.001007
      998.930000       0.001103
      999.030000       0.001208
      999.130000       0.001314
      999.230000       0.001426
      999.330000       0.001544
      999.430000       0.001675
      999.530000       0.001814
      999.630000       0.001954
      999.730000       0.002096
      999.830000       0.002241
      999.930000       0.002389
     1000.030000       0.002543
     1000.130000       0.002698
     1000.230000       0.002854
     1000.330000       0.003014
     1000.430000       0.003181
     1000.530000       0.003348
     1000.630000       0.003518
     1000.730000       0.003696
     1000.830000       0.003881
     1000.930000       0.004074
     1001.030000       0.004283
     1001.130000       0.004493
     1001.230000       0.004719
     1001.330000       0.004946
     1001.430000       0.005179
     1001.530000       0.005412
     1001.630000       0.005650
     1001.730000       0.005889
     1001.830000       0.006134
     1001.930000       0.006381
     1002.030000       0.006630
     1002.130000       0.006880
     1002.230000       0.007131
     1002.330000       0.007382
     1002.430000       0.007634
     1002.530000       0.007886
     1002.630000       0.008144
     1002.730000       0.008406
     1002.830000       0.008669
     1002.930000       0.008945
     1003.030000       0.009230
     1003.130000       0.009517
     1003.230000       0.009805
     1003.330000       0.010101
     1003.430000       0.010398
     1003.530000       0.010703
     1003.630000       0.011015
     1003.730000       0.011330
     1003.830000       0.011646
     1003.930000       0.011964
     1004.030000       0.012282
     1004.130000       0.012610
     1004.230000       0.012946
     1004.330000       0.013285
     1004.430000       0.013624
     1004.530000       0.013967
     1004.630000       0.014323
     1004.730000       0.014689
     1004.830000       0.015061
     1004.930000       0.015437
     1005.030000       0.015823
     1005.130000       0.016212
     1005.230000       0.016624
     1005.330000       0.017082
     1005.430000       0.017550
     1005.530000       0.018026
     1005.630000       0.018579
     1005.730000       0.019161
     1005.830000       0.019745
     1005.930000       0.020348
     1006.030000       0.020961
     1006.130000       0.021584
     1006.230000       0.022211
     1006.330000       0.022847
     1006.430000       0.023488
     1006.530000       0.024144
     1006.630000       0.024822
     1006.730000       0.025515
     1006.830000       0.026212
     1006.930000       0.026915
     1007.030000       0.027627
     1007.130000       0.028373
     1007.230000       0.029162
     1007.330000       0.029964
     1007.430000       0.030802
     1007.530000       0.031682
     1007.630000       0.032596
     1007.730000       0.033525
     1007.830000       0.034480
     1007.930000       0.035454
     1008.030000       0.036440
     1008.130000       0.037446
     1008.230000       0.038457
     1008.330000       0.039470
     1008.430000       0.040504
     1008.530000       0.041543
     1008.630000       0.042586
     1008.730000       0.043656
     1008.830000       0.044728
     1008.930000       0.045801
     1009.030000       0.046884
     1009.130000       0.047988
     1009.230000       0.049094
     1009.330000       0.050208
     1009.430000       0.051429
     1009.530000       0.052812
     1009.630000       0.054365
     1009.730000       0.056009
     1009.830000       0.057718
     1009.930000       0.059528
     1010.030000       0.061497
     1010.130000       0.063572
     1010.230000       0.065703
     1010.330000       0.067874
     1010.430000       0.070080
     1010.530000       0.072296
     1010.630000       0.074505
     1010.730000       0.076782
     1010.830000       0.079189
     1010.930000       0.081684
     1011.030000       0.084262
     1011.130000       0.086942
     1011.230000       0.089763
     1011.330000       0.092715
     1011.430000       0.095798
     1011.530000       0.099000
     1011.630000       0.102358
     1011.730000       0.105812
     1011.830000       0.109319
     1011.930000       0.112911
     1012.030000       0.116642
     1012.130000       0.120492
     1012.230000       0.124452
     1012.330000       0.128509
     1012.430000       0.132691
     1012.530000       0.137000
     1012.630000       0.141455
     1012.730000       0.146058
     1012.830000       0.150846
     1012.930000       0.155751
     1013.030000       0.160780
     1013.130000       0.165941
     1013.230000       0.171214
     1013.330000       0.176648
     1013.430000       0.182307
     1013.530000       0.188186
     1013.630000       0.194316
     1013.730000       0.200636
     1013.830000       0.207140
     1013.930000       0.213830
     1014.030000       0.220743
     1014.130000       0.227920
     1014.230000       0.235397
     1014.330000       0.243070
     1014.430000       0.250908
     1014.530000       0.258893
     1014.630000       0.267034
     1014.730000       0.275321
     1014.830000       0.283724
     1014.930000       0.292270
     1015.030000       0.301004
     1015.130000       0.309955
     1015.230000       0.319186
     1015.330000       0.328681
     1015.430000       0.338443
     1015.530000       0.348415
     1015.630000       0.358610
     1015.730000       0.368988
     1015.830000       0.379558
     1015.930000       0.390320
     1016.030000       0.401249
     1016.130000       0.412250
     1016.230000       0.423325
     1016.330000       0.434491
     1016.430000       0.445778
     1016.530000       0.457150
     1016.630000       0.468605
     1016.730000       0.480159
     1016.830000       0.491786
     1016.930000       0.503448
     1017.030000       0.515196
     1017.130000       0.527028
     1017.230000       0.538961
     1017.330000       0.550924
     1017.430000       0.562896
     1017.530000       0.574858
     1017.630000       0.586776
     1017.730000       0.598596
     1017.830000       0.610348
     1017.930000       0.622048
     1018.030000       0.633685
     1018.130000       0.645186
     1018.230000       0.656568
     1018.330000       0.667830
     1018.430000       0.678991
     1018.530000       0.690017
     1018.630000       0.700882
     1018.730000       0.711580
     1018.830000       0.722105
     1018.930000       0.732450
     1019.030000       0.742706
     1019.130000       0.752799
     1019.230000       0.762710
     1019.330000       0.772438
     1019.430000       0.781931
     1019.530000       0.791174
     1019.630000       0.800189
     1019.730000       0.808971
     1019.830000       0.817601
     1019.930000       0.826042
     1020.030000       0.834226
     1020.130000       0.842151
     1020.230000       0.849861
     1020.330000       0.857319
     1020.430000       0.864563
     1020.530000       0.871595
     1020.630000       0.878390
     1020.730000       0.884919
     1020.830000       0.891184
     1020.930000       0.897228
     1021.030000       0.903104
     1021.130000       0.908791
     1021.230000       0.914264
     1021.330000       0.919484
     1021.430000       0.924426
     1021.530000       0.929137
     1021.630000       0.933721
     1021.730000       0.938141
     1021.830000       0.942368
     1021.930000       0.946334
     1022.030000       0.949990
     1022.130000       0.953366
     1022.230000       0.956549
     1022.330000       0.959568
     1022.430000       0.962468
     1022.530000       0.965203
     1022.630000       0.967769
     1022.730000       0.970184
     1022.830000       0.972514
     1022.930000       0.974800
     1023.030000       0.977073
     1023.130000       0.979273
     1023.230000       0.981340
     1023.330000       0.983229
     1023.430000       0.984854
     1023.530000       0.986265
     1023.630000       0.987530
     1023.730000       0.988710
     1023.830000       0.989845
     1023.930000       0.990915
     1024.030000       0.991927
     1024.130000       0.992859
     1024.230000       0.993773
     1024.330000       0.994616
     1024.430000       0.995338
     1024.530000       0.995934
     1024.630000       0.996404
     1024.730000       0.996807
     1024.830000       0.997187
     1024.930000       0.997615
     1025.030000       0.998151
     1025.130000       0.998662
     1025.230000       0.999053
     1025.330000       0.999317
     1025.430000       0.999462
     1025.530000       0.999565
     1025.630000       0.999646
     1025.730000       0.999737
     1025.830000       0.999878
     1025.930000       0.999969
     1026.030000       0.999950
     1026.130000       0.999899
     1026.230000       0.999917
     1026.330000       0.999967
     1026.430000       1.000000
     1026.530000       0.999982
     1026.630000       0.999922
     1026.730000       0.999810
     1026.830000       0.999597
     1026.930000       0.999318
     1027.030000       0.999024
     1027.130000       0.998658
     1027.230000       0.998193
     1027.330000       0.997659
     1027.430000       0.997065
     1027.530000       0.996492
     1027.630000       0.995974
     1027.730000       0.995418
     1027.830000       0.994770
     1027.930000       0.994012
     1028.030000       0.993156
     1028.130000       0.992258
     1028.230000       0.991378
     1028.330000       0.990498
     1028.430000       0.989592
     1028.530000       0.988653
     1028.630000       0.987674
     1028.730000       0.986701
     1028.830000       0.985769
     1028.930000       0.984825
     1029.030000       0.983830
     1029.130000       0.982733
     1029.230000       0.981503
     1029.330000       0.980173
     1029.430000       0.978801
     1029.530000       0.977482
     1029.630000       0.976252
     1029.730000       0.975072
     1029.830000       0.973899
     1029.930000       0.972719
     1030.030000       0.971517
     1030.130000       0.970274
     1030.230000       0.969015
     1030.330000       0.967694
     1030.430000       0.966294
     1030.530000       0.964863
     1030.630000       0.963420
     1030.730000       0.961982
     1030.830000       0.960560
     1030.930000       0.959135
     1031.030000       0.957683
     1031.130000       0.956123
     1031.230000       0.954400
     1031.330000       0.952601
     1031.430000       0.950749
     1031.530000       0.948862
     1031.630000       0.946971
     1031.730000       0.945087
     1031.830000       0.943193
     1031.930000       0.941263
     1032.030000       0.939286
     1032.130000       0.937308
     1032.230000       0.935414
     1032.330000       0.933512
     1032.430000       0.931566
     1032.530000       0.929585
     1032.630000       0.927509
     1032.730000       0.925320
     1032.830000       0.923053
     1032.930000       0.920748
     1033.030000       0.918400
     1033.130000       0.915953
     1033.230000       0.913404
     1033.330000       0.910751
     1033.430000       0.907987
     1033.530000       0.905127
     1033.630000       0.902191
     1033.730000       0.899137
     1033.830000       0.895918
     1033.930000       0.892603
     1034.030000       0.889267
     1034.130000       0.885828
     1034.230000       0.882277
     1034.330000       0.878567
     1034.430000       0.874698
     1034.530000       0.870669
     1034.630000       0.866465
     1034.730000       0.862092
     1034.830000       0.857543
     1034.930000       0.852790
     1035.030000       0.847821
     1035.130000       0.842684
     1035.230000       0.837409
     1035.330000       0.832037
     1035.430000       0.826628
     1035.530000       0.821102
     1035.630000       0.815416
     1035.730000       0.809519
     1035.830000       0.803396
     1035.930000       0.797072
     1036.030000       0.790573
     1036.130000       0.783911
     1036.230000       0.777161
     1036.330000       0.770283
     1036.430000       0.763223
     1036.530000       0.755993
     1036.630000       0.748587
     1036.730000       0.741007
     1036.830000       0.733303
     1036.930000       0.725449
     1037.030000       0.717462
     1037.130000       0.709317
     1037.230000       0.700995
     1037.330000       0.692517
     1037.430000       0.683875
     1037.530000       0.675074
     1037.630000       0.666134
     1037.730000       0.657037
     1037.830000       0.647784
     1037.930000       0.638420
     1038.030000       0.629001
     1038.130000       0.619526
     1038.230000       0.610031
     1038.330000       0.600456
     1038.430000       0.590796
     1038.530000       0.581038
     1038.630000       0.571179
     1038.730000       0.561278
     1038.830000       0.551353
     1038.930000       0.541387
     1039.030000       0.531418
     1039.130000       0.521459
     1039.230000       0.511526
     1039.330000       0.501619
     1039.430000       0.491776
     1039.530000       0.481990
     1039.630000       0.472241
     1039.730000       0.462495
     1039.830000       0.452741
     1039.930000       0.443053
     1040.030000       0.433440
     1040.130000       0.423858
     1040.230000       0.414381
     1040.330000       0.405022
     1040.430000       0.395763
     1040.530000       0.386595
     1040.630000       0.377541
     1040.730000       0.368588
     1040.830000       0.359715
     1040.930000       0.350935
     1041.030000       0.342282
     1041.130000       0.333779
     1041.230000       0.325455
     1041.330000       0.317308
     1041.430000       0.309360
     1041.530000       0.301550
     1041.630000       0.293859
     1041.730000       0.286317
     1041.830000       0.278923
     1041.930000       0.271687
     1042.030000       0.264603
     1042.130000       0.257662
     1042.230000       0.250903
     1042.330000       0.244250
     1042.430000       0.237708
     1042.530000       0.231297
     1042.630000       0.224991
     1042.730000       0.218827
     1042.830000       0.212827
     1042.930000       0.206958
     1043.030000       0.201228
     1043.130000       0.195598
     1043.230000       0.190066
     1043.330000       0.184627
     1043.430000       0.179253
     1043.530000       0.173982
     1043.630000       0.168872
     1043.730000       0.163915
     1043.830000       0.159142
     1043.930000       0.154550
     1044.030000       0.150129
     1044.130000       0.145819
     1044.230000       0.141596
     1044.330000       0.137458
     1044.430000       0.133435
     1044.530000       0.129511
     1044.630000       0.125681
     1044.730000       0.121941
     1044.830000       0.118292
     1044.930000       0.114742
     1045.030000       0.111282
     1045.130000       0.107907
     1045.230000       0.104656
     1045.330000       0.101520
     1045.430000       0.098496
     1045.530000       0.095542
     1045.630000       0.092670
     1045.730000       0.089874
     1045.830000       0.087133
     1045.930000       0.084455
     1046.030000       0.081813
     1046.130000       0.079243
     1046.230000       0.076802
     1046.330000       0.074439
     1046.430000       0.072143
     1046.530000       0.069930
     1046.630000       0.067806
     1046.730000       0.065739
     1046.830000       0.063698
     1046.930000       0.061728
     1047.030000       0.059866
     1047.130000       0.058102
     1047.230000       0.056468
     1047.330000       0.054924
     1047.430000       0.053421
     1047.530000       0.051931
     1047.630000       0.050414
     1047.730000       0.048903
     1047.830000       0.047476
     1047.930000       0.046114
     1048.030000       0.044797
     1048.130000       0.043542
     1048.230000       0.042344
     1048.330000       0.041188
     1048.430000       0.040094
     1048.530000       0.039019
     1048.630000       0.037979
     1048.730000       0.036964
     1048.830000       0.035921
     1048.930000       0.034851
     1049.030000       0.033755
     1049.130000       0.032640
     1049.230000       0.031525
     1049.330000       0.030403
     1049.430000       0.029264
     1049.530000       0.028163
     1049.630000       0.027113
     1049.730000       0.026096
     1049.830000       0.025147
     1049.930000       0.024226
     1050.030000       0.023311
     1050.130000       0.022402
     1050.230000       0.021504
     1050.330000       0.020627
     1050.430000       0.019791
     1050.530000       0.018989
     1050.630000       0.018260
     1050.730000       0.017593
     1050.830000       0.016976
     1050.930000       0.016403
     1051.030000       0.015874
     1051.130000       0.015412
     1051.230000       0.015018
     1051.330000       0.014665
     1051.430000       0.014349
     1051.530000       0.014042
     1051.630000       0.013748
     1051.730000       0.013459
     1051.830000       0.013184
     1051.930000       0.012917
     1052.030000       0.012651
     1052.130000       0.012390
     1052.230000       0.012131
     1052.330000       0.011873
     1052.430000       0.011617
     1052.530000       0.011364
     1052.630000       0.011121
     1052.730000       0.010881
     1052.830000       0.010641
     1052.930000       0.010403
     1053.030000       0.010167
     1053.130000       0.009934
     1053.230000       0.009707
     1053.330000       0.009482
     1053.430000       0.009258
     1053.530000       0.009035
     1053.630000       0.008816
     1053.730000       0.008602
     1053.830000       0.008388
     1053.930000       0.008175
     1054.030000       0.007968
     1054.130000       0.007765
     1054.230000       0.007566
     1054.330000       0.007368
     1054.430000       0.007176
     1054.530000       0.006986
     1054.630000       0.006800
     1054.730000       0.006616
     1054.830000       0.006434
     1054.930000       0.006261
     1055.030000       0.006089
     1055.130000       0.005919
     1055.230000       0.005752
     1055.330000       0.005586
     1055.430000       0.005434
     1055.530000       0.005283
     1055.630000       0.005138
     1055.730000       0.004995
     1055.830000       0.004853
     1055.930000       0.004711
     1056.030000       0.004574
     1056.130000       0.004438
     1056.230000       0.004303
     1056.330000       0.004169
     1056.430000       0.004036
     1056.530000       0.003904
     1056.630000       0.003777
     1056.730000       0.003651
     1056.830000       0.003526
     1056.930000       0.003403
     1057.030000       0.003283
     1057.130000       0.003163
     1057.230000       0.003046
     1057.330000       0.002928
     1057.430000       0.002812
     1057.530000       0.002699
     1057.630000       0.002592
     1057.730000       0.002486
     1057.830000       0.002380
     1057.930000       0.002276
     1058.030000       0.002173
     1058.130000       0.002072
     1058.230000       0.001971
     1058.330000       0.001873
     1058.430000       0.001778
     1058.530000       0.001686
     1058.630000       0.001595
     1058.730000       0.001507
     1058.830000       0.001421
     1058.930000       0.001336
     1059.030000       0.001257
     1059.130000       0.001179
     1059.230000       0.001103
     1059.330000       0.001031
