68,   68, MVIRI VIS channel from srf_MET7_2006033_2006034_1801-Release_S10EE_10.dat
Number of data points:
793
Wavenumber (cm-1)   Filter response
     8442.380800       0.000000
     8449.514200       0.000000
     8456.659600       0.000004
     8463.817200       0.000055
     8470.986900       0.000163
     8478.168700       0.000326
     8485.362700       0.000542
     8492.569000       0.000811
     8499.787500       0.001130
     8507.018300       0.001497
     8514.261400       0.001913
     8521.516800       0.002375
     8528.784600       0.002881
     8536.064900       0.003432
     8543.357500       0.004024
     8550.662700       0.004659
     8557.980300       0.005333
     8565.310500       0.006046
     8572.653200       0.006798
     8580.008600       0.007586
     8587.376600       0.008411
     8594.757200       0.009270
     8602.150500       0.010164
     8609.556600       0.011092
     8616.975400       0.012051
     8624.407100       0.013043
     8631.851500       0.014066
     8639.308900       0.015120
     8646.779100       0.016203
     8654.262200       0.017315
     8661.758300       0.018455
     8669.267400       0.019624
     8676.789600       0.020819
     8684.324800       0.022042
     8691.873100       0.023290
     8699.434500       0.024565
     8707.009100       0.025865
     8714.596900       0.027190
     8722.198000       0.028539
     8729.812300       0.029913
     8737.439900       0.031310
     8745.080900       0.032731
     8752.735200       0.034175
     8760.403000       0.035642
     8768.084200       0.037131
     8775.778900       0.038643
     8783.487000       0.040177
     8791.208800       0.041733
     8798.944100       0.043311
     8806.693100       0.044910
     8814.455700       0.046530
     8822.232000       0.048172
     8830.022100       0.049835
     8837.825900       0.051519
     8845.643500       0.053223
     8853.475000       0.054949
     8861.320300       0.056695
     8869.179600       0.058462
     8877.052800       0.060249
     8884.940000       0.062057
     8892.841300       0.063885
     8900.756600       0.065734
     8908.686000       0.067604
     8916.629500       0.069494
     8924.587200       0.071404
     8932.559200       0.073335
     8940.545400       0.075286
     8948.545900       0.077258
     8956.560700       0.079250
     8964.589900       0.081263
     8972.633500       0.083297
     8980.691500       0.085351
     8988.764000       0.087427
     8996.851100       0.089522
     9004.952700       0.091639
     9013.068900       0.093777
     9021.199800       0.095936
     9029.345400       0.098116
     9037.505600       0.100317
     9045.680700       0.102539
     9053.870500       0.104783
     9062.075200       0.107048
     9070.294800       0.109335
     9078.529300       0.111643
     9086.778700       0.113973
     9095.043200       0.116325
     9103.322700       0.118698
     9111.617300       0.121094
     9119.927000       0.123511
     9128.251900       0.125951
     9136.592100       0.128413
     9144.947400       0.130898
     9153.318100       0.133405
     9161.704100       0.135934
     9170.105500       0.138486
     9178.522300       0.141061
     9186.954500       0.143658
     9195.402300       0.146278
     9203.865600       0.148921
     9212.344500       0.151587
     9220.839100       0.154277
     9229.349300       0.156989
     9237.875300       0.159724
     9246.417000       0.162483
     9254.974500       0.165265
     9263.547900       0.168071
     9272.137200       0.170899
     9280.742500       0.173752
     9289.363700       0.176628
     9298.000900       0.179527
     9306.654300       0.182450
     9315.323700       0.185396
     9324.009300       0.188367
     9332.711200       0.191361
     9341.429200       0.194378
     9350.163600       0.197419
     9358.914400       0.200484
     9367.681500       0.203572
     9376.465100       0.206684
     9385.265100       0.209820
     9394.081700       0.212979
     9402.914900       0.216162
     9411.764700       0.219368
     9420.631200       0.222599
     9429.514400       0.225852
     9438.414300       0.229129
     9447.331100       0.232429
     9456.264800       0.235753
     9465.215300       0.239100
     9474.182900       0.242470
     9483.167400       0.245863
     9492.169000       0.249279
     9501.187600       0.252718
     9510.223500       0.256180
     9519.276500       0.259664
     9528.346800       0.263172
     9537.434400       0.266702
     9546.539400       0.270254
     9555.661700       0.273828
     9564.801500       0.277425
     9573.958800       0.281043
     9583.133700       0.284684
     9592.326100       0.288345
     9601.536200       0.292029
     9610.764100       0.295733
     9620.009600       0.299460
     9629.273000       0.303207
     9638.554200       0.306974
     9647.853400       0.310763
     9657.170400       0.314571
     9666.505600       0.318400
     9675.858700       0.322249
     9685.230000       0.326118
     9694.619500       0.330006
     9704.027200       0.333914
     9713.453100       0.337840
     9722.897400       0.341786
     9732.360100       0.345750
     9741.841200       0.349732
     9751.340800       0.353733
     9760.859000       0.357751
     9770.395700       0.361787
     9779.951100       0.365840
     9789.525200       0.369910
     9799.118100       0.373997
     9808.729800       0.378099
     9818.360300       0.382219
     9828.009800       0.386353
     9837.678300       0.390504
     9847.365800       0.394670
     9857.072400       0.398850
     9866.798200       0.403045
     9876.543200       0.407254
     9886.307500       0.411477
     9896.091000       0.415713
     9905.894000       0.419962
     9915.716400       0.424225
     9925.558300       0.428499
     9935.419800       0.432786
     9945.300800       0.437085
     9955.201600       0.441394
     9965.122100       0.445715
     9975.062300       0.450046
     9985.022500       0.454388
     9995.002500       0.458740
    10005.002500       0.463100
    10015.022500       0.467470
    10025.062700       0.471848
    10035.122900       0.476235
    10045.203400       0.480629
    10055.304200       0.485031
    10065.425300       0.489440
    10075.566800       0.493855
    10085.728700       0.498277
    10095.911200       0.502704
    10106.114200       0.507137
    10116.337900       0.511574
    10126.582300       0.516016
    10136.847400       0.520462
    10147.133400       0.524911
    10157.440300       0.529364
    10167.768200       0.533819
    10178.117000       0.538276
    10188.487000       0.542736
    10198.878100       0.547197
    10209.290500       0.551658
    10219.724100       0.556120
    10230.179000       0.560582
    10240.655400       0.565043
    10251.153300       0.569504
    10261.672700       0.573963
    10272.213700       0.578420
    10282.776300       0.582875
    10293.360800       0.587327
    10303.967000       0.591776
    10314.595200       0.596222
    10325.245200       0.600663
    10335.917300       0.605099
    10346.611500       0.609530
    10357.327800       0.613956
    10368.066400       0.618376
    10378.827200       0.622789
    10389.610400       0.627195
    10400.416000       0.631594
    10411.244100       0.635985
    10422.094800       0.640367
    10432.968200       0.644741
    10443.864200       0.649105
    10454.783100       0.653460
    10465.724800       0.657804
    10476.689400       0.662138
    10487.677000       0.666460
    10498.687700       0.670771
    10509.721500       0.675069
    10520.778500       0.679355
    10531.858900       0.683628
    10542.962600       0.687888
    10554.089700       0.692134
    10565.240400       0.696365
    10576.414600       0.700581
    10587.612500       0.704782
    10598.834100       0.708967
    10610.079600       0.713136
    10621.348900       0.717288
    10632.642200       0.721424
    10643.959600       0.725541
    10655.301000       0.729641
    10666.666700       0.733722
    10678.056600       0.737785
    10689.470900       0.741828
    10700.909600       0.745851
    10712.372800       0.749854
    10723.860600       0.753837
    10735.373100       0.757798
    10746.910300       0.761739
    10758.472300       0.765657
    10770.059200       0.769553
    10781.671200       0.773427
    10793.308100       0.777277
    10804.970300       0.781104
    10816.657700       0.784907
    10828.370300       0.788686
    10840.108400       0.792440
    10851.871900       0.796170
    10863.661100       0.799873
    10875.475800       0.803551
    10887.316300       0.807203
    10899.182600       0.810829
    10911.074700       0.814427
    10922.992900       0.817998
    10934.937100       0.821542
    10946.907500       0.825057
    10958.904100       0.828545
    10970.927000       0.832003
    10982.976400       0.835433
    10995.052200       0.838833
    11007.154700       0.842204
    11019.283700       0.845544
    11031.439600       0.848855
    11043.622300       0.852135
    11055.832000       0.855384
    11068.068600       0.858601
    11080.332400       0.861787
    11092.623400       0.864942
    11104.941700       0.868064
    11117.287400       0.871154
    11129.660500       0.874211
    11142.061300       0.877235
    11154.489700       0.880226
    11166.945800       0.883184
    11179.429800       0.886108
    11191.941800       0.888998
    11204.481800       0.891853
    11217.049900       0.894675
    11229.646300       0.897461
    11242.270900       0.900213
    11254.924000       0.902930
    11267.605600       0.905611
    11280.315800       0.908257
    11293.054800       0.910867
    11305.822500       0.913442
    11318.619100       0.915980
    11331.444800       0.918482
    11344.299500       0.920947
    11357.183400       0.923376
    11370.096600       0.925768
    11383.039300       0.928123
    11396.011400       0.930441
    11409.013100       0.932722
    11422.044500       0.934965
    11435.105800       0.937171
    11448.196900       0.939339
    11461.318100       0.941470
    11474.469300       0.943563
    11487.650800       0.945617
    11500.862600       0.947634
    11514.104800       0.949613
    11527.377500       0.951553
    11540.680900       0.953455
    11554.015000       0.955319
    11567.380000       0.957144
    11580.775900       0.958931
    11594.202900       0.960679
    11607.661100       0.962389
    11621.150500       0.964060
    11634.671300       0.965693
    11648.223600       0.967286
    11661.807600       0.968841
    11675.423200       0.970358
    11689.070700       0.971836
    11702.750100       0.973274
    11716.461600       0.974675
    11730.205300       0.976036
    11743.981200       0.977360
    11757.789500       0.978644
    11771.630400       0.979890
    11785.503800       0.981097
    11799.410000       0.982266
    11813.349100       0.983396
    11827.321100       0.984488
    11841.326200       0.985542
    11855.364600       0.986558
    11869.436200       0.987535
    11883.541300       0.988475
    11897.680000       0.989376
    11911.852300       0.990240
    11926.058400       0.991066
    11940.298500       0.991854
    11954.572600       0.992605
    11968.880900       0.993318
    11983.223500       0.993995
    11997.600500       0.994634
    12012.012000       0.995236
    12026.458200       0.995802
    12040.939200       0.996331
    12055.455100       0.996823
    12070.006000       0.997279
    12084.592100       0.997700
    12099.213600       0.998084
    12113.870400       0.998432
    12128.562800       0.998745
    12143.290800       0.999023
    12158.054700       0.999266
    12172.854500       0.999473
    12187.690400       0.999646
    12202.562500       0.999785
    12217.471000       0.999889
    12232.415900       0.999960
    12247.397400       0.999997
    12262.415700       1.000000
    12277.470800       0.999970
    12292.563000       0.999907
    12307.692300       0.999812
    12322.858900       0.999684
    12338.062900       0.999524
    12353.304500       0.999332
    12368.583800       0.999108
    12383.900900       0.998854
    12399.256000       0.998568
    12414.649300       0.998252
    12430.080800       0.997905
    12445.550700       0.997528
    12461.059200       0.997122
    12476.606400       0.996686
    12492.192400       0.996221
    12507.817400       0.995727
    12523.481500       0.995205
    12539.185000       0.994655
    12554.927800       0.994077
    12570.710200       0.993472
    12586.532400       0.992839
    12602.394500       0.992180
    12618.296500       0.991495
    12634.238800       0.990784
    12650.221400       0.990047
    12666.244500       0.989285
    12682.308200       0.988498
    12698.412700       0.987687
    12714.558200       0.986852
    12730.744700       0.985993
    12746.972600       0.985111
    12763.241900       0.984206
    12779.552700       0.983279
    12795.905300       0.982329
    12812.299800       0.981358
    12828.736400       0.980365
    12845.215200       0.979352
    12861.736300       0.978318
    12878.300100       0.977265
    12894.906500       0.976191
    12911.555800       0.975099
    12928.248200       0.973987
    12944.983800       0.972858
    12961.762800       0.971710
    12978.585300       0.970545
    12995.451600       0.969363
    13012.361700       0.968164
    13029.316000       0.966949
    13046.314400       0.965719
    13063.357300       0.964473
    13080.444700       0.963212
    13097.576900       0.961937
    13114.754100       0.960648
    13131.976400       0.959345
    13149.243900       0.958030
    13166.556900       0.956701
    13183.915600       0.955361
    13201.320100       0.954009
    13218.770700       0.952645
    13236.267400       0.951271
    13253.810500       0.949886
    13271.400100       0.948491
    13289.036500       0.947087
    13306.719900       0.945674
    13324.450400       0.944252
    13342.228200       0.942822
    13360.053400       0.941385
    13377.926400       0.939940
    13395.847300       0.938489
    13413.816200       0.937031
    13431.833400       0.935567
    13449.899100       0.934098
    13468.013500       0.932624
    13486.176700       0.931145
    13504.388900       0.929662
    13522.650400       0.928176
    13540.961400       0.926687
    13559.322000       0.925194
    13577.732500       0.923700
    13596.193100       0.922203
    13614.703900       0.920706
    13633.265200       0.919207
    13651.877100       0.917708
    13670.540000       0.916208
    13689.253900       0.914709
    13708.019200       0.913211
    13726.836000       0.911714
    13745.704500       0.910218
    13764.624900       0.908724
    13783.597500       0.907233
    13802.622500       0.905745
    13821.700100       0.904260
    13840.830400       0.902779
    13860.013900       0.901302
    13879.250500       0.899829
    13898.540700       0.898361
    13917.884500       0.896899
    13937.282200       0.895442
    13956.734100       0.893991
    13976.240400       0.892547
    13995.801300       0.891110
    14015.417000       0.889680
    14035.087700       0.888257
    14054.813800       0.886843
    14074.595400       0.885437
    14094.432700       0.884039
    14114.326000       0.882651
    14134.275600       0.881272
    14154.281700       0.879903
    14174.344400       0.878544
    14194.464200       0.877196
    14214.641100       0.875858
    14234.875400       0.874532
    14255.167500       0.873217
    14275.517500       0.871914
    14295.925700       0.870622
    14316.392300       0.869344
    14336.917600       0.868078
    14357.501800       0.866825
    14378.145200       0.865585
    14398.848100       0.864359
    14419.610700       0.863147
    14440.433200       0.861949
    14461.316000       0.860765
    14482.259200       0.859596
    14503.263200       0.858442
    14524.328200       0.857303
    14545.454500       0.856180
    14566.642400       0.855072
    14587.892000       0.853981
    14609.203800       0.852905
    14630.577900       0.851846
    14652.014700       0.850803
    14673.514300       0.849777
    14695.077100       0.848768
    14716.703500       0.847776
    14738.393500       0.846802
    14760.147600       0.845845
    14781.966000       0.844906
    14803.849000       0.843984
    14825.796900       0.843081
    14847.809900       0.842195
    14869.888500       0.841328
    14892.032800       0.840479
    14914.243100       0.839649
    14936.519800       0.838838
    14958.863100       0.838045
    14981.273400       0.837271
    15003.750900       0.836516
    15026.296000       0.835780
    15048.909000       0.835063
    15071.590100       0.834365
    15094.339600       0.833686
    15117.158000       0.833027
    15140.045400       0.832387
    15163.002300       0.831766
    15186.028900       0.831165
    15209.125500       0.830583
    15232.292500       0.830020
    15255.530100       0.829477
    15278.838800       0.828953
    15302.218800       0.828449
    15325.670500       0.827963
    15349.194200       0.827497
    15372.790200       0.827050
    15396.458800       0.826623
    15420.200500       0.826214
    15444.015400       0.825825
    15467.904100       0.825454
    15491.866800       0.825102
    15515.903800       0.824769
    15540.015500       0.824455
    15564.202300       0.824159
    15588.464500       0.823881
    15612.802500       0.823622
    15637.216600       0.823381
    15661.707100       0.823157
    15686.274500       0.822952
    15710.919100       0.822764
    15735.641200       0.822593
    15760.441300       0.822440
    15785.319700       0.822304
    15810.276700       0.822184
    15835.312700       0.822081
    15860.428200       0.821994
    15885.623500       0.821923
    15910.899000       0.821869
    15936.255000       0.821829
    15961.691900       0.821805
    15987.210200       0.821796
    16012.810200       0.821802
    16038.492400       0.821822
    16064.257000       0.821857
    16090.104600       0.821905
    16116.035500       0.821966
    16142.050000       0.822041
    16168.148700       0.822128
    16194.332000       0.822228
    16220.600200       0.822340
    16246.953700       0.822463
    16273.393000       0.822598
    16299.918500       0.822744
    16326.530600       0.822900
    16353.229800       0.823066
    16380.016400       0.823242
    16406.890900       0.823428
    16433.853700       0.823622
    16460.905300       0.823824
    16488.046200       0.824034
    16515.276600       0.824252
    16542.597200       0.824476
    16570.008300       0.824707
    16597.510400       0.824944
    16625.103900       0.825187
    16652.789300       0.825434
    16680.567100       0.825686
    16708.437800       0.825942
    16736.401700       0.826201
    16764.459300       0.826463
    16792.611300       0.826727
    16820.857900       0.826993
    16849.199700       0.827260
    16877.637100       0.827527
    16906.170800       0.827795
    16934.801000       0.828062
    16963.528400       0.828328
    16992.353400       0.828592
    17021.276600       0.828853
    17050.298400       0.829112
    17079.419300       0.829366
    17108.639900       0.829617
    17137.960600       0.829862
    17167.382000       0.830102
    17196.904600       0.830336
    17226.528900       0.830563
    17256.255400       0.830782
    17286.084700       0.830992
    17316.017300       0.831194
    17346.053800       0.831386
    17376.194600       0.831568
    17406.440400       0.831739
    17436.791600       0.831898
    17467.248900       0.832044
    17497.812800       0.832177
    17528.483800       0.832297
    17559.262500       0.832401
    17590.149500       0.832490
    17621.145400       0.832564
    17652.250700       0.832620
    17683.466000       0.832658
