13,   from S2-SRF_COPE-GSEG-EOPG-TN-15-0007_3.0.xlsx (column S2A_SR_AV_B12)
Number of data points:
245
Wavenumber (cm-1)   Filter response
     4308.487700       0.000000
     4310.344800       0.002065
     4312.203500       0.004710
     4314.063800       0.006511
     4315.925800       0.007379
     4317.789300       0.010989
     4319.654400       0.016331
     4321.521200       0.019148
     4323.389500       0.021672
     4325.259500       0.023959
     4327.131100       0.025577
     4329.004300       0.027418
     4330.879200       0.029588
     4332.755600       0.031999
     4334.633700       0.034947
     4336.513400       0.038598
     4338.394800       0.042864
     4340.277800       0.048195
     4342.162400       0.054985
     4344.048700       0.062691
     4345.936500       0.071500
     4347.826100       0.082363
     4349.717300       0.094401
     4351.610100       0.108237
     4353.504600       0.124831
     4355.400700       0.144680
     4357.298500       0.168090
     4359.197900       0.195721
     4361.099000       0.227704
     4363.001700       0.263176
     4364.906200       0.300680
     4366.812200       0.342092
     4368.720000       0.385857
     4370.629400       0.429259
     4372.540400       0.474659
     4374.453200       0.520970
     4376.367600       0.566031
     4378.283700       0.610050
     4380.201500       0.651283
     4382.120900       0.688185
     4384.042100       0.720346
     4385.964900       0.749107
     4387.889400       0.772443
     4389.815600       0.791867
     4391.743500       0.809516
     4393.673100       0.826016
     4395.604400       0.840620
     4397.537400       0.854635
     4399.472100       0.868647
     4401.408500       0.881683
     4403.346500       0.893868
     4405.286300       0.905999
     4407.227900       0.917039
     4409.171100       0.927725
     4411.116000       0.938203
     4413.062700       0.948440
     4415.011000       0.958343
     4416.961100       0.967813
     4418.912900       0.976213
     4420.866500       0.983735
     4422.821800       0.989686
     4424.778800       0.993884
     4426.737500       0.997129
     4428.698000       0.999152
     4430.660200       0.999927
     4432.624100       1.000000
     4434.589800       0.998753
     4436.557200       0.996787
     4438.526400       0.993983
     4440.497300       0.990734
     4442.470000       0.987144
     4444.444400       0.982898
     4446.420600       0.977423
     4448.398600       0.972691
     4450.378300       0.968307
     4452.359800       0.964222
     4454.343000       0.960639
     4456.328000       0.957078
     4458.314800       0.954057
     4460.303300       0.952641
     4462.293600       0.952146
     4464.285700       0.951731
     4466.279600       0.952181
     4468.275200       0.952732
     4470.272700       0.953558
     4472.271900       0.955140
     4474.272900       0.957327
     4476.275700       0.959454
     4478.280300       0.961698
     4480.286700       0.963656
     4482.294900       0.964841
     4484.304900       0.965460
     4486.316700       0.966310
     4488.330300       0.966647
     4490.345800       0.966042
     4492.363000       0.964858
     4494.382000       0.962539
     4496.402900       0.959729
     4498.425600       0.957047
     4500.450000       0.954437
     4502.476400       0.951203
     4504.504500       0.946802
     4506.534500       0.941483
     4508.566300       0.936770
     4510.599900       0.931974
     4512.635400       0.927733
     4514.672700       0.924526
     4516.711800       0.921276
     4518.752800       0.919489
     4520.795700       0.919482
     4522.840300       0.920605
     4524.886900       0.922855
     4526.935300       0.916189
     4528.985500       0.911169
     4531.037600       0.908191
     4533.091600       0.907283
     4535.147400       0.908293
     4537.205100       0.911020
     4539.264600       0.915483
     4541.326100       0.921057
     4543.389400       0.926880
     4545.454500       0.933022
     4547.521600       0.935256
     4549.590500       0.936660
     4551.661400       0.938428
     4553.734100       0.940632
     4555.808700       0.942117
     4557.885100       0.943031
     4559.963500       0.943259
     4562.043800       0.942518
     4564.126000       0.940441
     4566.210000       0.937652
     4568.296000       0.938301
     4570.383900       0.937641
     4572.473700       0.937086
     4574.565400       0.935906
     4576.659000       0.934142
     4578.754600       0.931922
     4580.852000       0.929740
     4582.951400       0.927219
     4585.052700       0.924337
     4587.156000       0.921302
     4589.261100       0.918444
     4591.368200       0.915585
     4593.477300       0.912950
     4595.588200       0.910123
     4597.701100       0.908092
     4599.816000       0.906446
     4601.932800       0.905315
     4604.051600       0.904313
     4606.172300       0.903424
     4608.294900       0.901983
     4610.419500       0.902377
     4612.546100       0.902761
     4614.674700       0.903347
     4616.805200       0.904082
     4618.937600       0.904783
     4621.072100       0.905158
     4623.208500       0.905503
     4625.346900       0.905665
     4627.487300       0.905525
     4629.629600       0.904831
     4631.774000       0.902596
     4633.920300       0.899897
     4636.068600       0.896697
     4638.218900       0.893226
     4640.371200       0.889473
     4642.525500       0.885929
     4644.681800       0.882439
     4646.840100       0.878588
     4649.000500       0.874302
     4651.162800       0.869696
     4653.327100       0.867319
     4655.493500       0.865139
     4657.661900       0.863257
     4659.832200       0.861460
     4662.004700       0.859532
     4664.179100       0.857821
     4666.355600       0.856174
     4668.534100       0.854746
     4670.714600       0.853252
     4672.897200       0.851107
     4675.081800       0.844443
     4677.268500       0.836722
     4679.457200       0.828599
     4681.647900       0.819702
     4683.840700       0.809677
     4686.035600       0.798238
     4688.232500       0.785581
     4690.431500       0.772071
     4692.632600       0.757405
     4694.835700       0.741301
     4697.040900       0.727011
     4699.248100       0.711964
     4701.457500       0.696165
     4703.668900       0.680046
     4705.882400       0.663707
     4708.097900       0.648546
     4710.315600       0.634283
     4712.535300       0.621362
     4714.757200       0.609981
     4716.981100       0.598891
     4719.207200       0.588684
     4721.435300       0.579030
     4723.665600       0.568634
     4725.897900       0.557253
     4728.132400       0.543352
     4730.369000       0.525318
     4732.607700       0.503107
     4734.848500       0.476537
     4737.091400       0.444778
     4739.336500       0.408003
     4741.583700       0.368404
     4743.833000       0.327178
     4746.084500       0.284898
     4748.338100       0.242871
     4750.593800       0.203461
     4752.851700       0.167811
     4755.111700       0.136903
     4757.373900       0.111470
     4759.638300       0.090535
     4761.904800       0.073175
     4764.173400       0.059642
     4766.444200       0.048883
     4768.717200       0.040217
     4770.992400       0.033216
     4773.269700       0.027668
     4775.549200       0.023336
     4777.830900       0.019780
     4780.114700       0.017126
     4782.400800       0.015017
     4784.689000       0.013364
     4786.979400       0.012089
     4789.272000       0.010972
     4791.566800       0.010002
     4793.863900       0.009300
     4796.163100       0.008540
     4798.464500       0.008004
     4800.768100       0.007660
     4803.074000       0.006597
     4805.382000       0.003997
     4807.692300       0.002885
     4810.004800       0.001023
     4812.319500       0.000639
     4814.636500       0.000000
