13,    channel 13 SRF extracted from SRF_FY4B_AGRI.zip (FY4B_AGRI_SRF_CH13_Pub.txt)
Number of data points:
5239
Wavenumber (cm-1)   Filter response
      816.659900       0.000200
      816.693200       0.000200
      816.726600       0.000200
      816.759900       0.000200
      816.793300       0.000200
      816.826600       0.000100
      816.860000       0.000100
      816.893400       0.000100
      816.926700       0.000100
      816.960100       0.000000
      816.993500       0.000000
      817.026800       0.000000
      817.060200       0.000100
      817.093600       0.000200
      817.127000       0.000200
      817.160400       0.000300
      817.193800       0.000400
      817.227100       0.000400
      817.260500       0.000500
      817.293900       0.000500
      817.327300       0.000500
      817.360700       0.000500
      817.394100       0.000500
      817.427600       0.000400
      817.461000       0.000400
      817.494400       0.000300
      817.527800       0.000200
      817.561200       0.000200
      817.594600       0.000100
      817.628100       0.000000
      817.661500       0.000000
      817.694900       0.000000
      817.728400       0.000000
      817.761800       0.000000
      817.795200       0.000000
      817.828700       0.000000
      817.862100       0.000000
      817.895600       0.000000
      817.929000       0.000000
      817.962500       0.000000
      817.995900       0.000000
      818.029400       0.000000
      818.062800       0.000000
      818.096300       0.000000
      818.129800       0.000000
      818.163200       0.000000
      818.196700       0.000000
      818.230200       0.000000
      818.263600       0.000000
      818.297100       0.000000
      818.330600       0.000000
      818.364100       0.000000
      818.397600       0.000100
      818.431100       0.000200
      818.464600       0.000300
      818.498100       0.000300
      818.531600       0.000400
      818.565100       0.000500
      818.598600       0.000500
      818.632100       0.000600
      818.665600       0.000600
      818.699100       0.000600
      818.732600       0.000600
      818.766100       0.000600
      818.799600       0.000500
      818.833200       0.000500
      818.866700       0.000400
      818.900200       0.000400
      818.933700       0.000300
      818.967300       0.000300
      819.000800       0.000200
      819.034400       0.000200
      819.067900       0.000200
      819.101400       0.000200
      819.135000       0.000100
      819.168500       0.000100
      819.202100       0.000100
      819.235700       0.000100
      819.269200       0.000100
      819.302800       0.000100
      819.336300       0.000000
      819.369900       0.000000
      819.403500       0.000000
      819.437000       0.000000
      819.470600       0.000000
      819.504200       0.000000
      819.537800       0.000000
      819.571400       0.000000
      819.605000       0.000000
      819.638500       0.000000
      819.672100       0.000000
      819.705700       0.000100
      819.739300       0.000100
      819.772900       0.000200
      819.806500       0.000300
      819.840100       0.000300
      819.873700       0.000400
      819.907400       0.000500
      819.941000       0.000500
      819.974600       0.000500
      820.008200       0.000600
      820.041800       0.000500
      820.075400       0.000500
      820.109100       0.000500
      820.142700       0.000400
      820.176300       0.000300
      820.210000       0.000200
      820.243600       0.000200
      820.277300       0.000100
      820.310900       0.000000
      820.344500       0.000000
      820.378200       0.000000
      820.411800       0.000000
      820.445500       0.000000
      820.479200       0.000100
      820.512800       0.000100
      820.546500       0.000100
      820.580200       0.000100
      820.613800       0.000100
      820.647500       0.000200
      820.681200       0.000200
      820.714800       0.000200
      820.748500       0.000200
      820.782200       0.000200
      820.815900       0.000200
      820.849600       0.000200
      820.883300       0.000200
      820.917000       0.000100
      820.950700       0.000100
      820.984400       0.000100
      821.018100       0.000000
      821.051800       0.000000
      821.085500       0.000000
      821.119200       0.000000
      821.152900       0.000000
      821.186600       0.000000
      821.220300       0.000000
      821.254100       0.000000
      821.287800       0.000000
      821.321500       0.000000
      821.355200       0.000000
      821.389000       0.000200
      821.422700       0.000500
      821.456400       0.000700
      821.490200       0.001000
      821.523900       0.001300
      821.557700       0.001600
      821.591400       0.001900
      821.625200       0.002100
      821.658900       0.002300
      821.692700       0.002300
      821.726400       0.002400
      821.760200       0.002300
      821.794000       0.002200
      821.827700       0.002000
      821.861500       0.001800
      821.895300       0.001600
      821.929100       0.001400
      821.962800       0.001100
      821.996600       0.000900
      822.030400       0.000700
      822.064200       0.000600
      822.098000       0.000600
      822.131800       0.000500
      822.165600       0.000400
      822.199400       0.000300
      822.233200       0.000300
      822.267000       0.000200
      822.300800       0.000100
      822.334600       0.000100
      822.368400       0.000000
      822.402200       0.000000
      822.436100       0.000000
      822.469900       0.000000
      822.503700       0.000000
      822.537500       0.000000
      822.571400       0.000000
      822.605200       0.000000
      822.639000       0.000000
      822.672900       0.000000
      822.706700       0.000000
      822.740500       0.000100
      822.774400       0.000200
      822.808200       0.000300
      822.842100       0.000400
      822.876000       0.000600
      822.909800       0.000700
      822.943700       0.000800
      822.977500       0.000900
      823.011400       0.000900
      823.045300       0.001000
      823.079100       0.001000
      823.113000       0.001000
      823.146900       0.001000
      823.180800       0.000900
      823.214700       0.000900
      823.248500       0.000800
      823.282400       0.000800
      823.316300       0.000800
      823.350200       0.000800
      823.384100       0.000900
      823.418000       0.001000
      823.451900       0.001100
      823.485800       0.001300
      823.519700       0.001500
      823.553600       0.001600
      823.587500       0.001800
      823.621500       0.001900
      823.655400       0.002000
      823.689300       0.002100
      823.723200       0.002100
      823.757200       0.002100
      823.791100       0.002000
      823.825000       0.001800
      823.859000       0.001600
      823.892900       0.001400
      823.926800       0.001200
      823.960800       0.001000
      823.994700       0.000900
      824.028700       0.000700
      824.062600       0.000600
      824.096600       0.000600
      824.130500       0.000600
      824.164500       0.000600
      824.198500       0.000700
      824.232400       0.000700
      824.266400       0.000800
      824.300400       0.001000
      824.334400       0.001100
      824.368300       0.001100
      824.402300       0.001200
      824.436300       0.001300
      824.470300       0.001300
      824.504300       0.001300
      824.538300       0.001300
      824.572300       0.001200
      824.606300       0.001200
      824.640300       0.001100
      824.674300       0.001100
      824.708300       0.001000
      824.742300       0.000900
      824.776300       0.000900
      824.810300       0.000800
      824.844300       0.000700
      824.878300       0.000700
      824.912400       0.000600
      824.946400       0.000600
      824.980400       0.000600
      825.014400       0.000500
      825.048500       0.000500
      825.082500       0.000500
      825.116500       0.000500
      825.150600       0.000600
      825.184600       0.000600
      825.218700       0.000700
      825.252700       0.000700
      825.286800       0.000700
      825.320800       0.000800
      825.354900       0.000800
      825.389000       0.000800
      825.423000       0.000800
      825.457100       0.000800
      825.491200       0.000800
      825.525200       0.000800
      825.559300       0.000800
      825.593400       0.000800
      825.627500       0.000800
      825.661600       0.000800
      825.695600       0.000800
      825.729700       0.000800
      825.763800       0.000800
      825.797900       0.000800
      825.832000       0.000900
      825.866100       0.000900
      825.900200       0.001000
      825.934300       0.001100
      825.968400       0.001200
      826.002600       0.001300
      826.036700       0.001400
      826.070800       0.001600
      826.104900       0.001700
      826.139000       0.001900
      826.173200       0.002000
      826.207300       0.002200
      826.241400       0.002300
      826.275600       0.002400
      826.309700       0.002500
      826.343800       0.002600
      826.378000       0.002700
      826.412100       0.002600
      826.446300       0.002600
      826.480400       0.002500
      826.514600       0.002300
      826.548700       0.002200
      826.582900       0.002000
      826.617100       0.001700
      826.651200       0.001500
      826.685400       0.001300
      826.719600       0.001100
      826.753800       0.000900
      826.787900       0.000700
      826.822100       0.000600
      826.856300       0.000600
      826.890500       0.000500
      826.924700       0.000500
      826.958900       0.000500
      826.993100       0.000500
      827.027300       0.000500
      827.061500       0.000600
      827.095700       0.000600
      827.129900       0.000600
      827.164100       0.000600
      827.198300       0.000500
      827.232500       0.000500
      827.266700       0.000400
      827.300900       0.000400
      827.335200       0.000300
      827.369400       0.000300
      827.403600       0.000200
      827.437800       0.000200
      827.472100       0.000100
      827.506300       0.000100
      827.540500       0.000100
      827.574800       0.000100
      827.609000       0.000100
      827.643300       0.000100
      827.677500       0.000200
      827.711800       0.000200
      827.746000       0.000300
      827.780300       0.000300
      827.814600       0.000400
      827.848800       0.000600
      827.883100       0.000800
      827.917400       0.001000
      827.951600       0.001200
      827.985900       0.001400
      828.020200       0.001600
      828.054500       0.001800
      828.088800       0.001900
      828.123100       0.002100
      828.157300       0.002200
      828.191600       0.002300
      828.225900       0.002300
      828.260200       0.002300
      828.294500       0.002300
      828.328800       0.002300
      828.363200       0.002200
      828.397500       0.002100
      828.431800       0.001900
      828.466100       0.001800
      828.500400       0.001600
      828.534700       0.001500
      828.569100       0.001400
      828.603400       0.001200
      828.637700       0.001000
      828.672100       0.000800
      828.706400       0.000600
      828.740700       0.000400
      828.775100       0.000300
      828.809400       0.000100
      828.843800       0.000000
      828.878100       0.000000
      828.912500       0.000000
      828.946800       0.000000
      828.981200       0.000000
      829.015500       0.000000
      829.049900       0.000000
      829.084300       0.000000
      829.118600       0.000000
      829.153000       0.000000
      829.187400       0.000000
      829.221800       0.000000
      829.256200       0.000100
      829.290500       0.000100
      829.324900       0.000100
      829.359300       0.000100
      829.393700       0.000100
      829.428100       0.000100
      829.462500       0.000000
      829.496900       0.000000
      829.531300       0.000000
      829.565700       0.000000
      829.600100       0.000000
      829.634500       0.000100
      829.669000       0.000100
      829.703400       0.000100
      829.737800       0.000200
      829.772200       0.000200
      829.806700       0.000300
      829.841100       0.000300
      829.875500       0.000400
      829.910000       0.000600
      829.944400       0.000800
      829.978800       0.000900
      830.013300       0.001100
      830.047700       0.001300
      830.082200       0.001400
      830.116600       0.001600
      830.151100       0.001600
      830.185500       0.001700
      830.220000       0.001600
      830.254500       0.001600
      830.288900       0.001400
      830.323400       0.001200
      830.357900       0.001000
      830.392400       0.000800
      830.426800       0.000500
      830.461300       0.000300
      830.495800       0.000200
      830.530300       0.000000
      830.564800       0.000000
      830.599300       0.000000
      830.633800       0.000100
      830.668300       0.000300
      830.702800       0.000500
      830.737300       0.000700
      830.771800       0.000900
      830.806300       0.001100
      830.840800       0.001300
      830.875300       0.001500
      830.909800       0.001600
      830.944400       0.001600
      830.978900       0.001600
      831.013400       0.001600
      831.048000       0.001500
      831.082500       0.001400
      831.117000       0.001300
      831.151600       0.001200
      831.186100       0.001000
      831.220600       0.000900
      831.255200       0.000800
      831.289700       0.000600
      831.324300       0.000500
      831.358900       0.000500
      831.393400       0.000400
      831.428000       0.000400
      831.462500       0.000300
      831.497100       0.000300
      831.531700       0.000300
      831.566300       0.000300
      831.600800       0.000300
      831.635400       0.000300
      831.670000       0.000300
      831.704600       0.000300
      831.739200       0.000300
      831.773800       0.000400
      831.808400       0.000400
      831.842900       0.000400
      831.877500       0.000400
      831.912200       0.000400
      831.946800       0.000400
      831.981400       0.000400
      832.016000       0.000500
      832.050600       0.000500
      832.085200       0.000500
      832.119800       0.000500
      832.154400       0.000500
      832.189100       0.000500
      832.223700       0.000500
      832.258300       0.000400
      832.293000       0.000400
      832.327600       0.000400
      832.362200       0.000300
      832.396900       0.000300
      832.431500       0.000300
      832.466200       0.000200
      832.500800       0.000200
      832.535500       0.000100
      832.570100       0.000100
      832.604800       0.000000
      832.639500       0.000000
      832.674100       0.000000
      832.708800       0.000000
      832.743500       0.000000
      832.778100       0.000000
      832.812800       0.000000
      832.847500       0.000000
      832.882200       0.000000
      832.916900       0.000000
      832.951600       0.000000
      832.986300       0.000000
      833.021000       0.000000
      833.055600       0.000000
      833.090300       0.000100
      833.125100       0.000100
      833.159800       0.000100
      833.194500       0.000100
      833.229200       0.000100
      833.263900       0.000100
      833.298600       0.000100
      833.333300       0.000200
      833.368100       0.000200
      833.402800       0.000300
      833.437500       0.000300
      833.472200       0.000400
      833.507000       0.000500
      833.541700       0.000500
      833.576500       0.000600
      833.611200       0.000600
      833.646000       0.000700
      833.680700       0.000700
      833.715500       0.000600
      833.750200       0.000600
      833.785000       0.000600
      833.819700       0.000500
      833.854500       0.000400
      833.889300       0.000300
      833.924000       0.000300
      833.958800       0.000200
      833.993600       0.000100
      834.028400       0.000000
      834.063100       0.000000
      834.097900       0.000000
      834.132700       0.000000
      834.167500       0.000100
      834.202300       0.000100
      834.237100       0.000100
      834.271900       0.000100
      834.306700       0.000100
      834.341500       0.000100
      834.376300       0.000200
      834.411100       0.000200
      834.445900       0.000200
      834.480700       0.000200
      834.515600       0.000200
      834.550400       0.000200
      834.585200       0.000200
      834.620000       0.000200
      834.654900       0.000200
      834.689700       0.000200
      834.724500       0.000200
      834.759400       0.000200
      834.794200       0.000200
      834.829100       0.000200
      834.863900       0.000200
      834.898800       0.000100
      834.933600       0.000100
      834.968500       0.000100
      835.003300       0.000000
      835.038200       0.000000
      835.073100       0.000000
      835.107900       0.000000
      835.142800       0.000000
      835.177700       0.000000
      835.212600       0.000000
      835.247400       0.000000
      835.282300       0.000000
      835.317200       0.000000
      835.352100       0.000000
      835.387000       0.000000
      835.421900       0.000000
      835.456800       0.000000
      835.491700       0.000000
      835.526600       0.000100
      835.561500       0.000100
      835.596400       0.000100
      835.631300       0.000100
      835.666200       0.000100
      835.701200       0.000100
      835.736100       0.000100
      835.771000       0.000000
      835.805900       0.000000
      835.840900       0.000000
      835.875800       0.000000
      835.910700       0.000000
      835.945700       0.000000
      835.980600       0.000000
      836.015500       0.000000
      836.050500       0.000000
      836.085400       0.000000
      836.120400       0.000000
      836.155400       0.000200
      836.190300       0.000500
      836.225300       0.000900
      836.260200       0.001200
      836.295200       0.001600
      836.330200       0.001900
      836.365200       0.002200
      836.400100       0.002400
      836.435100       0.002600
      836.470100       0.002700
      836.505100       0.002700
      836.540100       0.002600
      836.575100       0.002400
      836.610100       0.002100
      836.645100       0.001900
      836.680100       0.001600
      836.715100       0.001200
      836.750100       0.000900
      836.785100       0.000700
      836.820100       0.000500
      836.855100       0.000400
      836.890100       0.000400
      836.925100       0.000300
      836.960200       0.000300
      836.995200       0.000300
      837.030200       0.000200
      837.065200       0.000200
      837.100300       0.000200
      837.135300       0.000200
      837.170400       0.000200
      837.205400       0.000200
      837.240500       0.000200
      837.275500       0.000200
      837.310600       0.000200
      837.345600       0.000200
      837.380700       0.000100
      837.415700       0.000100
      837.450800       0.000100
      837.485900       0.000000
      837.520900       0.000000
      837.556000       0.000100
      837.591100       0.000200
      837.626200       0.000300
      837.661200       0.000500
      837.696300       0.000600
      837.731400       0.000700
      837.766500       0.000800
      837.801600       0.000900
      837.836700       0.000900
