30,   30, MVIRI VIS channel from srf_MET2_1985303_1985304_1801-Release_S10EL_10.dat
Number of data points:
730
Wavenumber (cm-1)   Filter response
     8916.629500       0.000000
     8924.587200       0.000000
     8932.559200       0.000002
     8940.545400       0.000011
     8948.545900       0.000032
     8956.560700       0.000069
     8964.589900       0.000126
     8972.633500       0.000207
     8980.691500       0.000317
     8988.764000       0.000459
     8996.851100       0.000638
     9004.952700       0.000855
     9013.068900       0.001115
     9021.199800       0.001422
     9029.345400       0.001777
     9037.505600       0.002184
     9045.680700       0.002645
     9053.870500       0.003164
     9062.075200       0.003743
     9070.294800       0.004383
     9078.529300       0.005088
     9086.778700       0.005860
     9095.043200       0.006699
     9103.322700       0.007609
     9111.617300       0.008591
     9119.927000       0.009646
     9128.251900       0.010776
     9136.592100       0.011983
     9144.947400       0.013268
     9153.318100       0.014632
     9161.704100       0.016075
     9170.105500       0.017600
     9178.522300       0.019207
     9186.954500       0.020897
     9195.402300       0.022670
     9203.865600       0.024527
     9212.344500       0.026469
     9220.839100       0.028497
     9229.349300       0.030609
     9237.875300       0.032808
     9246.417000       0.035093
     9254.974500       0.037464
     9263.547900       0.039922
     9272.137200       0.042466
     9280.742500       0.045096
     9289.363700       0.047813
     9298.000900       0.050615
     9306.654300       0.053504
     9315.323700       0.056478
     9324.009300       0.059538
     9332.711200       0.062682
     9341.429200       0.065911
     9350.163600       0.069223
     9358.914400       0.072619
     9367.681500       0.076097
     9376.465100       0.079658
     9385.265100       0.083300
     9394.081700       0.087023
     9402.914900       0.090825
     9411.764700       0.094706
     9420.631200       0.098666
     9429.514400       0.102702
     9438.414300       0.106816
     9447.331100       0.111004
     9456.264800       0.115267
     9465.215300       0.119603
     9474.182900       0.124012
     9483.167400       0.128492
     9492.169000       0.133041
     9501.187600       0.137660
     9510.223500       0.142347
     9519.276500       0.147099
     9528.346800       0.151918
     9537.434400       0.156801
     9546.539400       0.161746
     9555.661700       0.166754
     9564.801500       0.171821
     9573.958800       0.176948
     9583.133700       0.182133
     9592.326100       0.187374
     9601.536200       0.192670
     9610.764100       0.198019
     9620.009600       0.203422
     9629.273000       0.208875
     9638.554200       0.214378
     9647.853400       0.219929
     9657.170400       0.225527
     9666.505600       0.231171
     9675.858700       0.236859
     9685.230000       0.242588
     9694.619500       0.248360
     9704.027200       0.254171
     9713.453100       0.260021
     9722.897400       0.265907
     9732.360100       0.271829
     9741.841200       0.277785
     9751.340800       0.283774
     9760.859000       0.289794
     9770.395700       0.295844
     9779.951100       0.301922
     9789.525200       0.308028
     9799.118100       0.314159
     9808.729800       0.320314
     9818.360300       0.326492
     9828.009800       0.332691
     9837.678300       0.338910
     9847.365800       0.345149
     9857.072400       0.351403
     9866.798200       0.357675
     9876.543200       0.363960
     9886.307500       0.370259
     9896.091000       0.376569
     9905.894000       0.382890
     9915.716400       0.389220
     9925.558300       0.395558
     9935.419800       0.401902
     9945.300800       0.408252
     9955.201600       0.414606
     9965.122100       0.420962
     9975.062300       0.427319
     9985.022500       0.433678
     9995.002500       0.440035
    10005.002500       0.446389
    10015.022500       0.452740
    10025.062700       0.459086
    10035.122900       0.465426
    10045.203400       0.471760
    10055.304200       0.478085
    10065.425300       0.484401
    10075.566800       0.490706
    10085.728700       0.496999
    10095.911200       0.503281
    10106.114200       0.509548
    10116.337900       0.515800
    10126.582300       0.522036
    10136.847400       0.528256
    10147.133400       0.534458
    10157.440300       0.540640
    10167.768200       0.546803
    10178.117000       0.552944
    10188.487000       0.559064
    10198.878100       0.565161
    10209.290500       0.571235
    10219.724100       0.577283
    10230.179000       0.583306
    10240.655400       0.589303
    10251.153300       0.595272
    10261.672700       0.601213
    10272.213700       0.607125
    10282.776300       0.613007
    10293.360800       0.618860
    10303.967000       0.624680
    10314.595200       0.630468
    10325.245200       0.636224
    10335.917300       0.641946
    10346.611500       0.647633
    10357.327800       0.653286
    10368.066400       0.658903
    10378.827200       0.664483
    10389.610400       0.670027
    10400.416000       0.675533
    10411.244100       0.681000
    10422.094800       0.686429
    10432.968200       0.691819
    10443.864200       0.697168
    10454.783100       0.702477
    10465.724800       0.707745
    10476.689400       0.712972
    10487.677000       0.718156
    10498.687700       0.723298
    10509.721500       0.728396
    10520.778500       0.733452
    10531.858900       0.738463
    10542.962600       0.743430
    10554.089700       0.748352
    10565.240400       0.753229
    10576.414600       0.758061
    10587.612500       0.762846
    10598.834100       0.767586
    10610.079600       0.772279
    10621.348900       0.776924
    10632.642200       0.781523
    10643.959600       0.786075
    10655.301000       0.790578
    10666.666700       0.795034
    10678.056600       0.799441
    10689.470900       0.803799
    10700.909600       0.808110
    10712.372800       0.812371
    10723.860600       0.816583
    10735.373100       0.820745
    10746.910300       0.824859
    10758.472300       0.828922
    10770.059200       0.832936
    10781.671200       0.836900
    10793.308100       0.840814
    10804.970300       0.844677
    10816.657700       0.848491
    10828.370300       0.852254
    10840.108400       0.855967
    10851.871900       0.859629
    10863.661100       0.863241
    10875.475800       0.866803
    10887.316300       0.870314
    10899.182600       0.873774
    10911.074700       0.877184
    10922.992900       0.880543
    10934.937100       0.883852
    10946.907500       0.887110
    10958.904100       0.890318
    10970.927000       0.893475
    10982.976400       0.896582
    10995.052200       0.899638
    11007.154700       0.902645
    11019.283700       0.905601
    11031.439600       0.908507
    11043.622300       0.911364
    11055.832000       0.914170
    11068.068600       0.916927
    11080.332400       0.919634
    11092.623400       0.922291
    11104.941700       0.924900
    11117.287400       0.927459
    11129.660500       0.929969
    11142.061300       0.932430
    11154.489700       0.934843
    11166.945800       0.937207
    11179.429800       0.939523
    11191.941800       0.941790
    11204.481800       0.944010
    11217.049900       0.946182
    11229.646300       0.948307
    11242.270900       0.950384
    11254.924000       0.952414
    11267.605600       0.954397
    11280.315800       0.956334
    11293.054800       0.958224
    11305.822500       0.960069
    11318.619100       0.961867
    11331.444800       0.963620
    11344.299500       0.965327
    11357.183400       0.966989
    11370.096600       0.968607
    11383.039300       0.970180
    11396.011400       0.971708
    11409.013100       0.973193
    11422.044500       0.974633
    11435.105800       0.976031
    11448.196900       0.977385
    11461.318100       0.978696
    11474.469300       0.979965
    11487.650800       0.981191
    11500.862600       0.982376
    11514.104800       0.983519
    11527.377500       0.984620
    11540.680900       0.985680
    11554.015000       0.986700
    11567.380000       0.987679
    11580.775900       0.988618
    11594.202900       0.989517
    11607.661100       0.990377
    11621.150500       0.991198
    11634.671300       0.991979
    11648.223600       0.992722
    11661.807600       0.993427
    11675.423200       0.994094
    11689.070700       0.994724
    11702.750100       0.995316
    11716.461600       0.995871
    11730.205300       0.996390
    11743.981200       0.996872
    11757.789500       0.997319
    11771.630400       0.997730
    11785.503800       0.998105
    11799.410000       0.998446
    11813.349100       0.998752
    11827.321100       0.999023
    11841.326200       0.999261
    11855.364600       0.999465
    11869.436200       0.999636
    11883.541300       0.999773
    11897.680000       0.999878
    11911.852300       0.999951
    11926.058400       0.999991
    11940.298500       1.000000
    11954.572600       0.999977
    11968.880900       0.999924
    11983.223500       0.999839
    11997.600500       0.999724
    12012.012000       0.999579
    12026.458200       0.999404
    12040.939200       0.999200
    12055.455100       0.998966
    12070.006000       0.998704
    12084.592100       0.998413
    12099.213600       0.998093
    12113.870400       0.997746
    12128.562800       0.997371
    12143.290800       0.996968
    12158.054700       0.996539
    12172.854500       0.996082
    12187.690400       0.995599
    12202.562500       0.995090
    12217.471000       0.994555
    12232.415900       0.993995
    12247.397400       0.993408
    12262.415700       0.992797
    12277.470800       0.992161
    12292.563000       0.991501
    12307.692300       0.990816
    12322.858900       0.990107
    12338.062900       0.989375
    12353.304500       0.988619
    12368.583800       0.987840
    12383.900900       0.987038
    12399.256000       0.986213
    12414.649300       0.985366
    12430.080800       0.984497
    12445.550700       0.983605
    12461.059200       0.982692
    12476.606400       0.981758
    12492.192400       0.980802
    12507.817400       0.979826
    12523.481500       0.978829
    12539.185000       0.977811
    12554.927800       0.976773
    12570.710200       0.975715
    12586.532400       0.974637
    12602.394500       0.973539
    12618.296500       0.972422
    12634.238800       0.971286
    12650.221400       0.970131
    12666.244500       0.968957
    12682.308200       0.967765
    12698.412700       0.966554
    12714.558200       0.965325
    12730.744700       0.964078
    12746.972600       0.962813
    12763.241900       0.961531
    12779.552700       0.960231
    12795.905300       0.958914
    12812.299800       0.957580
    12828.736400       0.956229
    12845.215200       0.954862
    12861.736300       0.953478
    12878.300100       0.952078
    12894.906500       0.950661
    12911.555800       0.949228
    12928.248200       0.947780
    12944.983800       0.946316
    12961.762800       0.944836
    12978.585300       0.943341
    12995.451600       0.941831
    13012.361700       0.940305
    13029.316000       0.938765
    13046.314400       0.937210
    13063.357300       0.935640
    13080.444700       0.934056
    13097.576900       0.932457
    13114.754100       0.930844
    13131.976400       0.929217
    13149.243900       0.927575
    13166.556900       0.925920
    13183.915600       0.924251
    13201.320100       0.922569
    13218.770700       0.920873
    13236.267400       0.919163
    13253.810500       0.917440
    13271.400100       0.915704
    13289.036500       0.913955
    13306.719900       0.912193
    13324.450400       0.910418
    13342.228200       0.908630
    13360.053400       0.906830
    13377.926400       0.905016
    13395.847300       0.903191
    13413.816200       0.901353
    13431.833400       0.899503
    13449.899100       0.897640
    13468.013500       0.895766
    13486.176700       0.893879
    13504.388900       0.891980
    13522.650400       0.890070
    13540.961400       0.888148
    13559.322000       0.886214
    13577.732500       0.884268
    13596.193100       0.882311
    13614.703900       0.880342
    13633.265200       0.878363
    13651.877100       0.876371
    13670.540000       0.874369
    13689.253900       0.872355
    13708.019200       0.870330
    13726.836000       0.868294
    13745.704500       0.866248
    13764.624900       0.864190
    13783.597500       0.862121
    13802.622500       0.860042
    13821.700100       0.857952
    13840.830400       0.855851
    13860.013900       0.853740
    13879.250500       0.851619
    13898.540700       0.849486
    13917.884500       0.847344
    13937.282200       0.845191
    13956.734100       0.843028
    13976.240400       0.840855
    13995.801300       0.838671
    14015.417000       0.836478
    14035.087700       0.834274
    14054.813800       0.832061
    14074.595400       0.829838
    14094.432700       0.827605
    14114.326000       0.825362
    14134.275600       0.823109
    14154.281700       0.820847
    14174.344400       0.818575
    14194.464200       0.816294
    14214.641100       0.814003
    14234.875400       0.811702
    14255.167500       0.809393
    14275.517500       0.807074
    14295.925700       0.804746
    14316.392300       0.802408
    14336.917600       0.800062
    14357.501800       0.797706
    14378.145200       0.795342
    14398.848100       0.792968
    14419.610700       0.790586
    14440.433200       0.788195
    14461.316000       0.785795
    14482.259200       0.783387
    14503.263200       0.780969
    14524.328200       0.778544
    14545.454500       0.776110
    14566.642400       0.773667
    14587.892000       0.771217
    14609.203800       0.768758
    14630.577900       0.766290
    14652.014700       0.763815
    14673.514300       0.761332
    14695.077100       0.758840
    14716.703500       0.756341
    14738.393500       0.753834
    14760.147600       0.751319
    14781.966000       0.748797
    14803.849000       0.746267
    14825.796900       0.743729
    14847.809900       0.741184
    14869.888500       0.738632
    14892.032800       0.736072
    14914.243100       0.733506
    14936.519800       0.730932
    14958.863100       0.728351
    14981.273400       0.725763
    15003.750900       0.723169
    15026.296000       0.720567
    15048.909000       0.717960
    15071.590100       0.715345
    15094.339600       0.712724
    15117.158000       0.710097
    15140.045400       0.707463
    15163.002300       0.704824
    15186.028900       0.702178
    15209.125500       0.699527
    15232.292500       0.696869
    15255.530100       0.694206
    15278.838800       0.691537
    15302.218800       0.688863
    15325.670500       0.686183
    15349.194200       0.683498
    15372.790200       0.680807
    15396.458800       0.678112
    15420.200500       0.675411
    15444.015400       0.672706
    15467.904100       0.669996
    15491.866800       0.667281
    15515.903800       0.664562
    15540.015500       0.661839
    15564.202300       0.659111
    15588.464500       0.656379
    15612.802500       0.653643
    15637.216600       0.650903
    15661.707100       0.648159
    15686.274500       0.645412
    15710.919100       0.642661
    15735.641200       0.639907
    15760.441300       0.637150
    15785.319700       0.634389
    15810.276700       0.631626
    15835.312700       0.628859
    15860.428200       0.626090
    15885.623500       0.623318
    15910.899000       0.620544
    15936.255000       0.617768
    15961.691900       0.614989
    15987.210200       0.612209
    16012.810200       0.609426
    16038.492400       0.606642
    16064.257000       0.603856
    16090.104600       0.601069
    16116.035500       0.598280
    16142.050000       0.595490
    16168.148700       0.592699
    16194.332000       0.589908
    16220.600200       0.587115
    16246.953700       0.584322
    16273.393000       0.581528
    16299.918500       0.578735
    16326.530600       0.575941
    16353.229800       0.573147
    16380.016400       0.570353
    16406.890900       0.567559
    16433.853700       0.564766
    16460.905300       0.561974
    16488.046200       0.559182
    16515.276600       0.556391
    16542.597200       0.553602
    16570.008300       0.550813
    16597.510400       0.548026
    16625.103900       0.545240
    16652.789300       0.542456
    16680.567100       0.539673
    16708.437800       0.536893
    16736.401700       0.534115
    16764.459300       0.531339
    16792.611300       0.528565
    16820.857900       0.525794
    16849.199700       0.523025
    16877.637100       0.520259
    16906.170800       0.517497
    16934.801000       0.514737
    16963.528400       0.511980
    16992.353400       0.509227
    17021.276600       0.506478
    17050.298400       0.503732
    17079.419300       0.500990
    17108.639900       0.498251
    17137.960600       0.495517
    17167.382000       0.492787
    17196.904600       0.490062
    17226.528900       0.487341
    17256.255400       0.484624
    17286.084700       0.481912
    17316.017300       0.479205
    17346.053800       0.476503
    17376.194600       0.473806
    17406.440400       0.471114
    17436.791600       0.468428
    17467.248900       0.465747
    17497.812800       0.463071
    17528.483800       0.460402
    17559.262500       0.457738
    17590.149500       0.455079
    17621.145400       0.452427
    17652.250700       0.449781
    17683.466000       0.447141
    17714.791900       0.444508
    17746.228900       0.441881
    17777.777800       0.439260
    17809.439000       0.436646
    17841.213200       0.434038
    17873.101000       0.431438
    17905.103000       0.428844
    17937.219700       0.426257
    17969.451900       0.423677
    18001.800200       0.421104
    18034.265100       0.418538
    18066.847300       0.415979
    18099.547500       0.413428
    18132.366300       0.410884
    18165.304300       0.408347
    18198.362100       0.405818
    18231.540600       0.403296
    18264.840200       0.400781
    18298.261700       0.398275
    18331.805700       0.395775
    18365.472900       0.393284
    18399.264000       0.390800
    18433.179700       0.388324
    18467.220700       0.385855
    18501.387600       0.383394
    18535.681200       0.380941
    18570.102100       0.378496
    18604.651200       0.376058
    18639.329000       0.373628
    18674.136300       0.371206
    18709.073900       0.368791
    18744.142500       0.366385
    18779.342700       0.363986
    18814.675400       0.361595
    18850.141400       0.359211
    18885.741300       0.356835
    18921.475900       0.354467
    18957.346000       0.352106
    18993.352300       0.349753
    19029.495700       0.347407
    19065.776900       0.345069
    19102.196800       0.342739
    19138.756000       0.340415
    19175.455400       0.338099
    19212.295900       0.335790
    19249.278200       0.333488
    19286.403100       0.331193
    19323.671500       0.328906
    19361.084200       0.326625
    19398.642100       0.324351
    19436.346000       0.322084
    19474.196700       0.319823
    19512.195100       0.317569
    19550.342100       0.315321
    19588.638600       0.313080
    19627.085400       0.310844
    19665.683400       0.308615
    19704.433500       0.306392
    19743.336600       0.304174
    19782.393700       0.301963
    19821.605600       0.299756
    19860.973200       0.297555
    19900.497500       0.295360
