59,   59, MVIRI VIS channel from srf_MET7_2004348_2004349_1801-Release_S10EE_10.dat
Number of data points:
793
Wavenumber (cm-1)   Filter response
     8442.380800       0.000000
     8449.514200       0.000000
     8456.659600       0.000004
     8463.817200       0.000055
     8470.986900       0.000162
     8478.168700       0.000324
     8485.362700       0.000539
     8492.569000       0.000805
     8499.787500       0.001122
     8507.018300       0.001487
     8514.261400       0.001900
     8521.516800       0.002359
     8528.784600       0.002862
     8536.064900       0.003409
     8543.357500       0.003998
     8550.662700       0.004627
     8557.980300       0.005297
     8565.310500       0.006006
     8572.653200       0.006752
     8580.008600       0.007536
     8587.376600       0.008355
     8594.757200       0.009209
     8602.150500       0.010097
     8609.556600       0.011019
     8616.975400       0.011972
     8624.407100       0.012958
     8631.851500       0.013974
     8639.308900       0.015021
     8646.779100       0.016097
     8654.262200       0.017202
     8661.758300       0.018335
     8669.267400       0.019496
     8676.789600       0.020684
     8684.324800       0.021899
     8691.873100       0.023140
     8699.434500       0.024407
     8707.009100       0.025699
     8714.596900       0.027015
     8722.198000       0.028356
     8729.812300       0.029722
     8737.439900       0.031110
     8745.080900       0.032523
     8752.735200       0.033958
     8760.403000       0.035416
     8768.084200       0.036896
     8775.778900       0.038399
     8783.487000       0.039924
     8791.208800       0.041470
     8798.944100       0.043039
     8806.693100       0.044629
     8814.455700       0.046239
     8822.232000       0.047871
     8830.022100       0.049524
     8837.825900       0.051199
     8845.643500       0.052894
     8853.475000       0.054609
     8861.320300       0.056345
     8869.179600       0.058102
     8877.052800       0.059879
     8884.940000       0.061677
     8892.841300       0.063495
     8900.756600       0.065333
     8908.686000       0.067192
     8916.629500       0.069071
     8924.587200       0.070971
     8932.559200       0.072891
     8940.545400       0.074832
     8948.545900       0.076793
     8956.560700       0.078774
     8964.589900       0.080776
     8972.633500       0.082799
     8980.691500       0.084842
     8988.764000       0.086906
     8996.851100       0.088991
     9004.952700       0.091096
     9013.068900       0.093222
     9021.199800       0.095370
     9029.345400       0.097538
     9037.505600       0.099728
     9045.680700       0.101939
     9053.870500       0.104170
     9062.075200       0.106424
     9070.294800       0.108699
     9078.529300       0.110995
     9086.778700       0.113313
     9095.043200       0.115653
     9103.322700       0.118015
     9111.617300       0.120398
     9119.927000       0.122804
     9128.251900       0.125232
     9136.592100       0.127681
     9144.947400       0.130153
     9153.318100       0.132648
     9161.704100       0.135165
     9170.105500       0.137705
     9178.522300       0.140267
     9186.954500       0.142852
     9195.402300       0.145459
     9203.865600       0.148090
     9212.344500       0.150743
     9220.839100       0.153420
     9229.349300       0.156119
     9237.875300       0.158842
     9246.417000       0.161588
     9254.974500       0.164357
     9263.547900       0.167150
     9272.137200       0.169966
     9280.742500       0.172805
     9289.363700       0.175668
     9298.000900       0.178554
     9306.654300       0.181464
     9315.323700       0.184397
     9324.009300       0.187354
     9332.711200       0.190335
     9341.429200       0.193339
     9350.163600       0.196367
     9358.914400       0.199418
     9367.681500       0.202494
     9376.465100       0.205593
     9385.265100       0.208715
     9394.081700       0.211861
     9402.914900       0.215030
     9411.764700       0.218223
     9420.631200       0.221440
     9429.514400       0.224680
     9438.414300       0.227944
     9447.331100       0.231230
     9456.264800       0.234541
     9465.215300       0.237874
     9474.182900       0.241230
     9483.167400       0.244610
     9492.169000       0.248013
     9501.187600       0.251439
     9510.223500       0.254887
     9519.276500       0.258358
     9528.346800       0.261852
     9537.434400       0.265369
     9546.539400       0.268907
     9555.661700       0.272468
     9564.801500       0.276051
     9573.958800       0.279657
     9583.133700       0.283284
     9592.326100       0.286932
     9601.536200       0.290602
     9610.764100       0.294294
     9620.009600       0.298007
     9629.273000       0.301740
     9638.554200       0.305495
     9647.853400       0.309270
     9657.170400       0.313066
     9666.505600       0.316882
     9675.858700       0.320718
     9685.230000       0.324573
     9694.619500       0.328449
     9704.027200       0.332343
     9713.453100       0.336257
     9722.897400       0.340190
     9732.360100       0.344141
     9741.841200       0.348111
     9751.340800       0.352099
     9760.859000       0.356105
     9770.395700       0.360128
     9779.951100       0.364169
     9789.525200       0.368227
     9799.118100       0.372301
     9808.729800       0.376392
     9818.360300       0.380499
     9828.009800       0.384622
     9837.678300       0.388761
     9847.365800       0.392915
     9857.072400       0.397083
     9866.798200       0.401267
     9876.543200       0.405464
     9886.307500       0.409676
     9896.091000       0.413901
     9905.894000       0.418139
     9915.716400       0.422390
     9925.558300       0.426654
     9935.419800       0.430930
     9945.300800       0.435218
     9955.201600       0.439517
     9965.122100       0.443828
     9975.062300       0.448148
     9985.022500       0.452480
     9995.002500       0.456821
    10005.002500       0.461172
    10015.022500       0.465532
    10025.062700       0.469901
    10035.122900       0.474278
    10045.203400       0.478663
    10055.304200       0.483056
    10065.425300       0.487456
    10075.566800       0.491862
    10085.728700       0.496275
    10095.911200       0.500694
    10106.114200       0.505118
    10116.337900       0.509547
    10126.582300       0.513981
    10136.847400       0.518419
    10147.133400       0.522861
    10157.440300       0.527306
    10167.768200       0.531754
    10178.117000       0.536204
    10188.487000       0.540656
    10198.878100       0.545110
    10209.290500       0.549565
    10219.724100       0.554021
    10230.179000       0.558476
    10240.655400       0.562932
    10251.153300       0.567387
    10261.672700       0.571840
    10272.213700       0.576292
    10282.776300       0.580742
    10293.360800       0.585189
    10303.967000       0.589633
    10314.595200       0.594074
    10325.245200       0.598511
    10335.917300       0.602943
    10346.611500       0.607370
    10357.327800       0.611792
    10368.066400       0.616209
    10378.827200       0.620619
    10389.610400       0.625022
    10400.416000       0.629418
    10411.244100       0.633806
    10422.094800       0.638186
    10432.968200       0.642558
    10443.864200       0.646920
    10454.783100       0.651273
    10465.724800       0.655616
    10476.689400       0.659948
    10487.677000       0.664270
    10498.687700       0.668580
    10509.721500       0.672878
    10520.778500       0.677164
    10531.858900       0.681437
    10542.962600       0.685697
    10554.089700       0.689943
    10565.240400       0.694175
    10576.414600       0.698393
    10587.612500       0.702595
    10598.834100       0.706782
    10610.079600       0.710953
    10621.348900       0.715107
    10632.642200       0.719245
    10643.959600       0.723365
    10655.301000       0.727468
    10666.666700       0.731552
    10678.056600       0.735618
    10689.470900       0.739664
    10700.909600       0.743692
    10712.372800       0.747699
    10723.860600       0.751686
    10735.373100       0.755653
    10746.910300       0.759598
    10758.472300       0.763522
    10770.059200       0.767423
    10781.671200       0.771303
    10793.308100       0.775159
    10804.970300       0.778993
    10816.657700       0.782802
    10828.370300       0.786588
    10840.108400       0.790349
    10851.871900       0.794086
    10863.661100       0.797798
    10875.475800       0.801484
    10887.316300       0.805144
    10899.182600       0.808777
    10911.074700       0.812385
    10922.992900       0.815965
    10934.937100       0.819518
    10946.907500       0.823043
    10958.904100       0.826540
    10970.927000       0.830009
    10982.976400       0.833449
    10995.052200       0.836860
    11007.154700       0.840241
    11019.283700       0.843593
    11031.439600       0.846915
    11043.622300       0.850206
    11055.832000       0.853467
    11068.068600       0.856697
    11080.332400       0.859896
    11092.623400       0.863063
    11104.941700       0.866198
    11117.287400       0.869301
    11129.660500       0.872372
    11142.061300       0.875410
    11154.489700       0.878415
    11166.945800       0.881387
    11179.429800       0.884325
    11191.941800       0.887230
    11204.481800       0.890101
    11217.049900       0.892937
    11229.646300       0.895740
    11242.270900       0.898507
    11254.924000       0.901240
    11267.605600       0.903938
    11280.315800       0.906600
    11293.054800       0.909227
    11305.822500       0.911818
    11318.619100       0.914374
    11331.444800       0.916893
    11344.299500       0.919376
    11357.183400       0.921823
    11370.096600       0.924233
    11383.039300       0.926606
    11396.011400       0.928943
    11409.013100       0.931243
    11422.044500       0.933505
    11435.105800       0.935730
    11448.196900       0.937918
    11461.318100       0.940068
    11474.469300       0.942181
    11487.650800       0.944256
    11500.862600       0.946293
    11514.104800       0.948292
    11527.377500       0.950253
    11540.680900       0.952176
    11554.015000       0.954061
    11567.380000       0.955908
    11580.775900       0.957716
    11594.202900       0.959486
    11607.661100       0.961218
    11621.150500       0.962911
    11634.671300       0.964566
    11648.223600       0.966182
    11661.807600       0.967760
    11675.423200       0.969299
    11689.070700       0.970800
    11702.750100       0.972262
    11716.461600       0.973686
    11730.205300       0.975071
    11743.981200       0.976418
    11757.789500       0.977726
    11771.630400       0.978996
    11785.503800       0.980227
    11799.410000       0.981421
    11813.349100       0.982576
    11827.321100       0.983692
    11841.326200       0.984771
    11855.364600       0.985811
    11869.436200       0.986814
    11883.541300       0.987779
    11897.680000       0.988706
    11911.852300       0.989595
    11926.058400       0.990446
    11940.298500       0.991260
    11954.572600       0.992037
    11968.880900       0.992777
    11983.223500       0.993479
    11997.600500       0.994145
    12012.012000       0.994773
    12026.458200       0.995365
    12040.939200       0.995921
    12055.455100       0.996440
    12070.006000       0.996923
    12084.592100       0.997370
    12099.213600       0.997781
    12113.870400       0.998157
    12128.562800       0.998497
    12143.290800       0.998802
    12158.054700       0.999072
    12172.854500       0.999307
    12187.690400       0.999508
    12202.562500       0.999674
    12217.471000       0.999806
    12232.415900       0.999904
    12247.397400       0.999969
    12262.415700       1.000000
    12277.470800       0.999998
    12292.563000       0.999963
    12307.692300       0.999896
    12322.858900       0.999796
    12338.062900       0.999664
    12353.304500       0.999500
    12368.583800       0.999305
    12383.900900       0.999079
    12399.256000       0.998822
    12414.649300       0.998534
    12430.080800       0.998215
    12445.550700       0.997867
    12461.059200       0.997489
    12476.606400       0.997082
    12492.192400       0.996646
    12507.817400       0.996180
    12523.481500       0.995687
    12539.185000       0.995166
    12554.927800       0.994616
    12570.710200       0.994040
    12586.532400       0.993436
    12602.394500       0.992806
    12618.296500       0.992150
    12634.238800       0.991467
    12650.221400       0.990759
    12666.244500       0.990026
    12682.308200       0.989268
    12698.412700       0.988486
    12714.558200       0.987679
    12730.744700       0.986849
    12746.972600       0.985996
    12763.241900       0.985120
    12779.552700       0.984221
    12795.905300       0.983300
    12812.299800       0.982358
    12828.736400       0.981394
    12845.215200       0.980410
    12861.736300       0.979405
    12878.300100       0.978380
    12894.906500       0.977335
    12911.555800       0.976271
    12928.248200       0.975189
    12944.983800       0.974088
    12961.762800       0.972969
    12978.585300       0.971832
    12995.451600       0.970679
    13012.361700       0.969509
    13029.316000       0.968322
    13046.314400       0.967120
    13063.357300       0.965903
    13080.444700       0.964671
    13097.576900       0.963424
    13114.754100       0.962163
    13131.976400       0.960889
    13149.243900       0.959602
    13166.556900       0.958302
    13183.915600       0.956989
    13201.320100       0.955665
    13218.770700       0.954330
    13236.267400       0.952984
    13253.810500       0.951627
    13271.400100       0.950261
    13289.036500       0.948885
    13306.719900       0.947500
    13324.450400       0.946106
    13342.228200       0.944704
    13360.053400       0.943294
    13377.926400       0.941877
    13395.847300       0.940454
    13413.816200       0.939024
    13431.833400       0.937588
    13449.899100       0.936146
    13468.013500       0.934700
    13486.176700       0.933249
    13504.388900       0.931794
    13522.650400       0.930335
    13540.961400       0.928873
    13559.322000       0.927409
    13577.732500       0.925942
    13596.193100       0.924473
    13614.703900       0.923002
    13633.265200       0.921531
    13651.877100       0.920059
    13670.540000       0.918587
    13689.253900       0.917115
    13708.019200       0.915644
    13726.836000       0.914174
    13745.704500       0.912706
    13764.624900       0.911240
    13783.597500       0.909776
    13802.622500       0.908315
    13821.700100       0.906857
    13840.830400       0.905403
    13860.013900       0.903953
    13879.250500       0.902507
    13898.540700       0.901067
    13917.884500       0.899631
    13937.282200       0.898202
    13956.734100       0.896778
    13976.240400       0.895361
    13995.801300       0.893951
    14015.417000       0.892548
    14035.087700       0.891153
    14054.813800       0.889765
    14074.595400       0.888386
    14094.432700       0.887016
    14114.326000       0.885655
    14134.275600       0.884303
    14154.281700       0.882961
    14174.344400       0.881629
    14194.464200       0.880308
    14214.641100       0.878997
    14234.875400       0.877698
    14255.167500       0.876410
    14275.517500       0.875134
    14295.925700       0.873870
    14316.392300       0.872619
    14336.917600       0.871380
    14357.501800       0.870154
    14378.145200       0.868942
    14398.848100       0.867744
    14419.610700       0.866559
    14440.433200       0.865388
    14461.316000       0.864232
    14482.259200       0.863091
    14503.263200       0.861964
    14524.328200       0.860853
    14545.454500       0.859758
    14566.642400       0.858678
    14587.892000       0.857614
    14609.203800       0.856566
    14630.577900       0.855535
    14652.014700       0.854520
    14673.514300       0.853523
    14695.077100       0.852542
    14716.703500       0.851578
    14738.393500       0.850632
    14760.147600       0.849703
    14781.966000       0.848793
    14803.849000       0.847900
    14825.796900       0.847025
    14847.809900       0.846168
    14869.888500       0.845330
    14892.032800       0.844511
    14914.243100       0.843709
    14936.519800       0.842927
    14958.863100       0.842164
    14981.273400       0.841419
    15003.750900       0.840694
    15026.296000       0.839987
    15048.909000       0.839300
    15071.590100       0.838632
    15094.339600       0.837984
    15117.158000       0.837354
    15140.045400       0.836745
    15163.002300       0.836154
    15186.028900       0.835583
    15209.125500       0.835032
    15232.292500       0.834500
    15255.530100       0.833988
    15278.838800       0.833495
    15302.218800       0.833022
    15325.670500       0.832568
    15349.194200       0.832133
    15372.790200       0.831718
    15396.458800       0.831322
    15420.200500       0.830946
    15444.015400       0.830588
    15467.904100       0.830250
    15491.866800       0.829931
    15515.903800       0.829630
    15540.015500       0.829349
    15564.202300       0.829086
    15588.464500       0.828841
    15612.802500       0.828615
    15637.216600       0.828407
    15661.707100       0.828218
    15686.274500       0.828046
    15710.919100       0.827892
    15735.641200       0.827756
    15760.441300       0.827637
    15785.319700       0.827535
    15810.276700       0.827450
    15835.312700       0.827382
    15860.428200       0.827330
    15885.623500       0.827295
    15910.899000       0.827275
    15936.255000       0.827272
    15961.691900       0.827283
    15987.210200       0.827310
    16012.810200       0.827352
    16038.492400       0.827409
    16064.257000       0.827480
    16090.104600       0.827564
    16116.035500       0.827663
    16142.050000       0.827775
    16168.148700       0.827899
    16194.332000       0.828037
    16220.600200       0.828186
    16246.953700       0.828347
    16273.393000       0.828520
    16299.918500       0.828704
    16326.530600       0.828899
    16353.229800       0.829104
    16380.016400       0.829318
    16406.890900       0.829542
    16433.853700       0.829775
    16460.905300       0.830017
    16488.046200       0.830267
    16515.276600       0.830524
    16542.597200       0.830788
    16570.008300       0.831059
    16597.510400       0.831336
    16625.103900       0.831619
    16652.789300       0.831906
    16680.567100       0.832199
    16708.437800       0.832495
    16736.401700       0.832795
    16764.459300       0.833098
    16792.611300       0.833403
    16820.857900       0.833710
    16849.199700       0.834019
    16877.637100       0.834328
    16906.170800       0.834637
    16934.801000       0.834946
    16963.528400       0.835253
    16992.353400       0.835559
    17021.276600       0.835863
    17050.298400       0.836163
    17079.419300       0.836460
    17108.639900       0.836753
    17137.960600       0.837041
    17167.382000       0.837323
    17196.904600       0.837599
    17226.528900       0.837869
    17256.255400       0.838130
    17286.084700       0.838384
    17316.017300       0.838628
    17346.053800       0.838863
    17376.194600       0.839088
    17406.440400       0.839301
    17436.791600       0.839503
    17467.248900       0.839692
    17497.812800       0.839868
    17528.483800       0.840030
    17559.262500       0.840177
    17590.149500       0.840309
    17621.145400       0.840425
    17652.250700       0.840524
    17683.466000       0.840605
