82,   82, MVIRI VIS channel from srf_MET7_2007303_2007304_1801-Release_S10EE_10.dat
Number of data points:
793
Wavenumber (cm-1)   Filter response
     8442.380800       0.000000
     8449.514200       0.000000
     8456.659600       0.000004
     8463.817200       0.000056
     8470.986900       0.000164
     8478.168700       0.000329
     8485.362700       0.000547
     8492.569000       0.000818
     8499.787500       0.001140
     8507.018300       0.001511
     8514.261400       0.001930
     8521.516800       0.002396
     8528.784600       0.002907
     8536.064900       0.003463
     8543.357500       0.004061
     8550.662700       0.004700
     8557.980300       0.005381
     8565.310500       0.006100
     8572.653200       0.006858
     8580.008600       0.007653
     8587.376600       0.008485
     8594.757200       0.009352
     8602.150500       0.010254
     8609.556600       0.011189
     8616.975400       0.012158
     8624.407100       0.013158
     8631.851500       0.014190
     8639.308900       0.015252
     8646.779100       0.016344
     8654.262200       0.017465
     8661.758300       0.018616
     8669.267400       0.019794
     8676.789600       0.021000
     8684.324800       0.022232
     8691.873100       0.023491
     8699.434500       0.024777
     8707.009100       0.026087
     8714.596900       0.027423
     8722.198000       0.028784
     8729.812300       0.030168
     8737.439900       0.031577
     8745.080900       0.033009
     8752.735200       0.034465
     8760.403000       0.035944
     8768.084200       0.037445
     8775.778900       0.038969
     8783.487000       0.040516
     8791.208800       0.042084
     8798.944100       0.043674
     8806.693100       0.045286
     8814.455700       0.046919
     8822.232000       0.048573
     8830.022100       0.050249
     8837.825900       0.051946
     8845.643500       0.053664
     8853.475000       0.055403
     8861.320300       0.057162
     8869.179600       0.058943
     8877.052800       0.060744
     8884.940000       0.062565
     8892.841300       0.064408
     8900.756600       0.066270
     8908.686000       0.068154
     8916.629500       0.070058
     8924.587200       0.071982
     8932.559200       0.073927
     8940.545400       0.075893
     8948.545900       0.077880
     8956.560700       0.079886
     8964.589900       0.081914
     8972.633500       0.083962
     8980.691500       0.086032
     8988.764000       0.088122
     8996.851100       0.090232
     9004.952700       0.092365
     9013.068900       0.094517
     9021.199800       0.096691
     9029.345400       0.098887
     9037.505600       0.101103
     9045.680700       0.103341
     9053.870500       0.105600
     9062.075200       0.107881
     9070.294800       0.110183
     9078.529300       0.112507
     9086.778700       0.114853
     9095.043200       0.117221
     9103.322700       0.119610
     9111.617300       0.122022
     9119.927000       0.124456
     9128.251900       0.126912
     9136.592100       0.129390
     9144.947400       0.131891
     9153.318100       0.134414
     9161.704100       0.136960
     9170.105500       0.139529
     9178.522300       0.142120
     9186.954500       0.144734
     9195.402300       0.147371
     9203.865600       0.150031
     9212.344500       0.152714
     9220.839100       0.155420
     9229.349300       0.158149
     9237.875300       0.160902
     9246.417000       0.163677
     9254.974500       0.166477
     9263.547900       0.169300
     9272.137200       0.172145
     9280.742500       0.175015
     9289.363700       0.177908
     9298.000900       0.180825
     9306.654300       0.183765
     9315.323700       0.186729
     9324.009300       0.189717
     9332.711200       0.192728
     9341.429200       0.195763
     9350.163600       0.198822
     9358.914400       0.201904
     9367.681500       0.205010
     9376.465100       0.208140
     9385.265100       0.211294
     9394.081700       0.214471
     9402.914900       0.217671
     9411.764700       0.220896
     9420.631200       0.224144
     9429.514400       0.227415
     9438.414300       0.230710
     9447.331100       0.234027
     9456.264800       0.237369
     9465.215300       0.240734
     9474.182900       0.244122
     9483.167400       0.247533
     9492.169000       0.250967
     9501.187600       0.254424
     9510.223500       0.257904
     9519.276500       0.261406
     9528.346800       0.264931
     9537.434400       0.268479
     9546.539400       0.272049
     9555.661700       0.275641
     9564.801500       0.279255
     9573.958800       0.282891
     9583.133700       0.286550
     9592.326100       0.290229
     9601.536200       0.293930
     9610.764100       0.297652
     9620.009600       0.301396
     9629.273000       0.305161
     9638.554200       0.308946
     9647.853400       0.312752
     9657.170400       0.316577
     9666.505600       0.320424
     9675.858700       0.324290
     9685.230000       0.328176
     9694.619500       0.332081
     9704.027200       0.336006
     9713.453100       0.339949
     9722.897400       0.343912
     9732.360100       0.347892
     9741.841200       0.351892
     9751.340800       0.355908
     9760.859000       0.359943
     9770.395700       0.363996
     9779.951100       0.368065
     9789.525200       0.372151
     9799.118100       0.376254
     9808.729800       0.380373
     9818.360300       0.384508
     9828.009800       0.388659
     9837.678300       0.392825
     9847.365800       0.397006
     9857.072400       0.401202
     9866.798200       0.405412
     9876.543200       0.409636
     9886.307500       0.413874
     9896.091000       0.418125
     9905.894000       0.422389
     9915.716400       0.426666
     9925.558300       0.430955
     9935.419800       0.435256
     9945.300800       0.439569
     9955.201600       0.443892
     9965.122100       0.448227
     9975.062300       0.452572
     9985.022500       0.456927
     9995.002500       0.461292
    10005.002500       0.465665
    10015.022500       0.470048
    10025.062700       0.474439
    10035.122900       0.478838
    10045.203400       0.483244
    10055.304200       0.487659
    10065.425300       0.492079
    10075.566800       0.496506
    10085.728700       0.500939
    10095.911200       0.505378
    10106.114200       0.509821
    10116.337900       0.514269
    10126.582300       0.518722
    10136.847400       0.523178
    10147.133400       0.527637
    10157.440300       0.532100
    10167.768200       0.536564
    10178.117000       0.541031
    10188.487000       0.545500
    10198.878100       0.549969
    10209.290500       0.554439
    10219.724100       0.558909
    10230.179000       0.563379
    10240.655400       0.567849
    10251.153300       0.572317
    10261.672700       0.576783
    10272.213700       0.581247
    10282.776300       0.585709
    10293.360800       0.590168
    10303.967000       0.594623
    10314.595200       0.599074
    10325.245200       0.603521
    10335.917300       0.607963
    10346.611500       0.612399
    10357.327800       0.616829
    10368.066400       0.621253
    10378.827200       0.625671
    10389.610400       0.630081
    10400.416000       0.634483
    10411.244100       0.638877
    10422.094800       0.643262
    10432.968200       0.647639
    10443.864200       0.652005
    10454.783100       0.656362
    10465.724800       0.660708
    10476.689400       0.665042
    10487.677000       0.669366
    10498.687700       0.673677
    10509.721500       0.677976
    10520.778500       0.682262
    10531.858900       0.686535
    10542.962600       0.690794
    10554.089700       0.695038
    10565.240400       0.699268
    10576.414600       0.703483
    10587.612500       0.707681
    10598.834100       0.711864
    10610.079600       0.716031
    10621.348900       0.720180
    10632.642200       0.724312
    10643.959600       0.728426
    10655.301000       0.732521
    10666.666700       0.736598
    10678.056600       0.740656
    10689.470900       0.744694
    10700.909600       0.748712
    10712.372800       0.752709
    10723.860600       0.756685
    10735.373100       0.760640
    10746.910300       0.764574
    10758.472300       0.768485
    10770.059200       0.772373
    10781.671200       0.776239
    10793.308100       0.780081
    10804.970300       0.783899
    10816.657700       0.787693
    10828.370300       0.791463
    10840.108400       0.795207
    10851.871900       0.798926
    10863.661100       0.802620
    10875.475800       0.806287
    10887.316300       0.809927
    10899.182600       0.813541
    10911.074700       0.817128
    10922.992900       0.820687
    10934.937100       0.824218
    10946.907500       0.827720
    10958.904100       0.831194
    10970.927000       0.834639
    10982.976400       0.838055
    10995.052200       0.841441
    11007.154700       0.844796
    11019.283700       0.848122
    11031.439600       0.851417
    11043.622300       0.854681
    11055.832000       0.857914
    11068.068600       0.861115
    11080.332400       0.864284
    11092.623400       0.867421
    11104.941700       0.870526
    11117.287400       0.873598
    11129.660500       0.876637
    11142.061300       0.879643
    11154.489700       0.882615
    11166.945800       0.885553
    11179.429800       0.888457
    11191.941800       0.891327
    11204.481800       0.894163
    11217.049900       0.896964
    11229.646300       0.899729
    11242.270900       0.902460
    11254.924000       0.905155
    11267.605600       0.907815
    11280.315800       0.910438
    11293.054800       0.913026
    11305.822500       0.915577
    11318.619100       0.918092
    11331.444800       0.920571
    11344.299500       0.923012
    11357.183400       0.925417
    11370.096600       0.927785
    11383.039300       0.930115
    11396.011400       0.932408
    11409.013100       0.934664
    11422.044500       0.936882
    11435.105800       0.939062
    11448.196900       0.941204
    11461.318100       0.943308
    11474.469300       0.945374
    11487.650800       0.947402
    11500.862600       0.949391
    11514.104800       0.951342
    11527.377500       0.953255
    11540.680900       0.955129
    11554.015000       0.956964
    11567.380000       0.958761
    11580.775900       0.960519
    11594.202900       0.962238
    11607.661100       0.963918
    11621.150500       0.965560
    11634.671300       0.967162
    11648.223600       0.968726
    11661.807600       0.970251
    11675.423200       0.971737
    11689.070700       0.973183
    11702.750100       0.974591
    11716.461600       0.975960
    11730.205300       0.977291
    11743.981200       0.978582
    11757.789500       0.979834
    11771.630400       0.981048
    11785.503800       0.982223
    11799.410000       0.983359
    11813.349100       0.984457
    11827.321100       0.985516
    11841.326200       0.986537
    11855.364600       0.987519
    11869.436200       0.988463
    11883.541300       0.989369
    11897.680000       0.990236
    11911.852300       0.991066
    11926.058400       0.991858
    11940.298500       0.992612
    11954.572600       0.993328
    11968.880900       0.994007
    11983.223500       0.994648
    11997.600500       0.995252
    12012.012000       0.995819
    12026.458200       0.996350
    12040.939200       0.996843
    12055.455100       0.997300
    12070.006000       0.997720
    12084.592100       0.998105
    12099.213600       0.998453
    12113.870400       0.998765
    12128.562800       0.999042
    12143.290800       0.999283
    12158.054700       0.999490
    12172.854500       0.999661
    12187.690400       0.999797
    12202.562500       0.999899
    12217.471000       0.999966
    12232.415900       1.000000
    12247.397400       1.000000
    12262.415700       0.999966
    12277.470800       0.999899
    12292.563000       0.999799
    12307.692300       0.999666
    12322.858900       0.999500
    12338.062900       0.999303
    12353.304500       0.999073
    12368.583800       0.998812
    12383.900900       0.998519
    12399.256000       0.998196
    12414.649300       0.997842
    12430.080800       0.997457
    12445.550700       0.997042
    12461.059200       0.996598
    12476.606400       0.996124
    12492.192400       0.995621
    12507.817400       0.995089
    12523.481500       0.994529
    12539.185000       0.993941
    12554.927800       0.993325
    12570.710200       0.992681
    12586.532400       0.992011
    12602.394500       0.991313
    12618.296500       0.990590
    12634.238800       0.989841
    12650.221400       0.989066
    12666.244500       0.988265
    12682.308200       0.987440
    12698.412700       0.986591
    12714.558200       0.985717
    12730.744700       0.984820
    12746.972600       0.983900
    12763.241900       0.982957
    12779.552700       0.981991
    12795.905300       0.981003
    12812.299800       0.979994
    12828.736400       0.978963
    12845.215200       0.977911
    12861.736300       0.976839
    12878.300100       0.975748
    12894.906500       0.974636
    12911.555800       0.973505
    12928.248200       0.972356
    12944.983800       0.971188
    12961.762800       0.970003
    12978.585300       0.968800
    12995.451600       0.967580
    13012.361700       0.966343
    13029.316000       0.965091
    13046.314400       0.963822
    13063.357300       0.962539
    13080.444700       0.961240
    13097.576900       0.959927
    13114.754100       0.958601
    13131.976400       0.957260
    13149.243900       0.955907
    13166.556900       0.954541
    13183.915600       0.953163
    13201.320100       0.951774
    13218.770700       0.950373
    13236.267400       0.948961
    13253.810500       0.947539
    13271.400100       0.946107
    13289.036500       0.944666
    13306.719900       0.943216
    13324.450400       0.941757
    13342.228200       0.940290
    13360.053400       0.938815
    13377.926400       0.937334
    13395.847300       0.935845
    13413.816200       0.934351
    13431.833400       0.932850
    13449.899100       0.931344
    13468.013500       0.929833
    13486.176700       0.928318
    13504.388900       0.926799
    13522.650400       0.925276
    13540.961400       0.923750
    13559.322000       0.922222
    13577.732500       0.920691
    13596.193100       0.919158
    13614.703900       0.917624
    13633.265200       0.916089
    13651.877100       0.914553
    13670.540000       0.913018
    13689.253900       0.911482
    13708.019200       0.909948
    13726.836000       0.908415
    13745.704500       0.906883
    13764.624900       0.905353
    13783.597500       0.903826
    13802.622500       0.902302
    13821.700100       0.900781
    13840.830400       0.899264
    13860.013900       0.897751
    13879.250500       0.896243
    13898.540700       0.894739
    13917.884500       0.893241
    13937.282200       0.891748
    13956.734100       0.890262
    13976.240400       0.888782
    13995.801300       0.887309
    14015.417000       0.885843
    14035.087700       0.884385
    14054.813800       0.882935
    14074.595400       0.881493
    14094.432700       0.880060
    14114.326000       0.878636
    14134.275600       0.877221
    14154.281700       0.875817
    14174.344400       0.874422
    14194.464200       0.873038
    14214.641100       0.871664
    14234.875400       0.870302
    14255.167500       0.868951
    14275.517500       0.867612
    14295.925700       0.866285
    14316.392300       0.864970
    14336.917600       0.863668
    14357.501800       0.862379
    14378.145200       0.861104
    14398.848100       0.859842
    14419.610700       0.858593
    14440.433200       0.857359
    14461.316000       0.856139
    14482.259200       0.854934
    14503.263200       0.853743
    14524.328200       0.852568
    14545.454500       0.851408
    14566.642400       0.850264
    14587.892000       0.849136
    14609.203800       0.848023
    14630.577900       0.846927
    14652.014700       0.845848
    14673.514300       0.844785
    14695.077100       0.843738
    14716.703500       0.842709
    14738.393500       0.841698
    14760.147600       0.840703
    14781.966000       0.839726
    14803.849000       0.838767
    14825.796900       0.837826
    14847.809900       0.836903
    14869.888500       0.835998
    14892.032800       0.835111
    14914.243100       0.834242
    14936.519800       0.833392
    14958.863100       0.832561
    14981.273400       0.831748
    15003.750900       0.830954
    15026.296000       0.830179
    15048.909000       0.829423
    15071.590100       0.828686
    15094.339600       0.827968
    15117.158000       0.827269
    15140.045400       0.826589
    15163.002300       0.825929
    15186.028900       0.825287
    15209.125500       0.824665
    15232.292500       0.824062
    15255.530100       0.823478
    15278.838800       0.822913
    15302.218800       0.822368
    15325.670500       0.821841
    15349.194200       0.821334
    15372.790200       0.820845
    15396.458800       0.820376
    15420.200500       0.819925
    15444.015400       0.819493
    15467.904100       0.819080
    15491.866800       0.818686
    15515.903800       0.818310
    15540.015500       0.817953
    15564.202300       0.817613
    15588.464500       0.817292
    15612.802500       0.816989
    15637.216600       0.816704
    15661.707100       0.816437
    15686.274500       0.816187
    15710.919100       0.815954
    15735.641200       0.815739
    15760.441300       0.815540
    15785.319700       0.815359
    15810.276700       0.815193
    15835.312700       0.815045
    15860.428200       0.814912
    15885.623500       0.814795
    15910.899000       0.814694
    15936.255000       0.814608
    15961.691900       0.814537
    15987.210200       0.814480
    16012.810200       0.814439
    16038.492400       0.814411
    16064.257000       0.814398
    16090.104600       0.814397
    16116.035500       0.814411
    16142.050000       0.814436
    16168.148700       0.814475
    16194.332000       0.814526
    16220.600200       0.814588
    16246.953700       0.814662
    16273.393000       0.814747
    16299.918500       0.814843
    16326.530600       0.814949
    16353.229800       0.815065
    16380.016400       0.815190
    16406.890900       0.815324
    16433.853700       0.815467
    16460.905300       0.815618
    16488.046200       0.815776
    16515.276600       0.815942
    16542.597200       0.816115
    16570.008300       0.816293
    16597.510400       0.816478
    16625.103900       0.816668
    16652.789300       0.816862
    16680.567100       0.817061
    16708.437800       0.817264
    16736.401700       0.817469
    16764.459300       0.817678
    16792.611300       0.817888
    16820.857900       0.818100
    16849.199700       0.818313
    16877.637100       0.818526
    16906.170800       0.818740
    16934.801000       0.818952
    16963.528400       0.819163
    16992.353400       0.819372
    17021.276600       0.819579
    17050.298400       0.819782
    17079.419300       0.819982
    17108.639900       0.820177
    17137.960600       0.820367
    17167.382000       0.820552
    17196.904600       0.820730
    17226.528900       0.820901
    17256.255400       0.821064
    17286.084700       0.821219
    17316.017300       0.821365
    17346.053800       0.821502
    17376.194600       0.821628
    17406.440400       0.821742
    17436.791600       0.821846
    17467.248900       0.821936
    17497.812800       0.822014
    17528.483800       0.822077
    17559.262500       0.822126
    17590.149500       0.822160
    17621.145400       0.822177
    17652.250700       0.822178
    17683.466000       0.822161
