10,   10, MVIRI VIS channel from srf_MET6_1998078_1998079_1801-Release_S10EL_10.dat
Number of data points:
750
Wavenumber (cm-1)   Filter response
     8760.403000       0.000000
     8768.084200       0.000000
     8775.778900       0.000000
     8783.487000       0.000001
     8791.208800       0.000004
     8798.944100       0.000008
     8806.693100       0.000015
     8814.455700       0.000025
     8822.232000       0.000040
     8830.022100       0.000058
     8837.825900       0.000082
     8845.643500       0.000111
     8853.475000       0.000147
     8861.320300       0.000191
     8869.179600       0.000242
     8877.052800       0.000301
     8884.940000       0.000370
     8892.841300       0.000449
     8900.756600       0.000539
     8908.686000       0.000640
     8916.629500       0.000753
     8924.587200       0.000879
     8932.559200       0.001019
     8940.545400       0.001174
     8948.545900       0.001343
     8956.560700       0.001529
     8964.589900       0.001731
     8972.633500       0.001951
     8980.691500       0.002189
     8988.764000       0.002446
     8996.851100       0.002723
     9004.952700       0.003021
     9013.068900       0.003340
     9021.199800       0.003681
     9029.345400       0.004044
     9037.505600       0.004432
     9045.680700       0.004843
     9053.870500       0.005280
     9062.075200       0.005743
     9070.294800       0.006233
     9078.529300       0.006749
     9086.778700       0.007294
     9095.043200       0.007868
     9103.322700       0.008471
     9111.617300       0.009105
     9119.927000       0.009769
     9128.251900       0.010465
     9136.592100       0.011194
     9144.947400       0.011956
     9153.318100       0.012751
     9161.704100       0.013581
     9170.105500       0.014446
     9178.522300       0.015346
     9186.954500       0.016283
     9195.402300       0.017257
     9203.865600       0.018268
     9212.344500       0.019318
     9220.839100       0.020406
     9229.349300       0.021534
     9237.875300       0.022701
     9246.417000       0.023909
     9254.974500       0.025158
     9263.547900       0.026449
     9272.137200       0.027781
     9280.742500       0.029156
     9289.363700       0.030574
     9298.000900       0.032036
     9306.654300       0.033541
     9315.323700       0.035091
     9324.009300       0.036685
     9332.711200       0.038325
     9341.429200       0.040010
     9350.163600       0.041741
     9358.914400       0.043518
     9367.681500       0.045342
     9376.465100       0.047213
     9385.265100       0.049131
     9394.081700       0.051097
     9402.914900       0.053110
     9411.764700       0.055172
     9420.631200       0.057281
     9429.514400       0.059439
     9438.414300       0.061647
     9447.331100       0.063902
     9456.264800       0.066207
     9465.215300       0.068562
     9474.182900       0.070965
     9483.167400       0.073418
     9492.169000       0.075920
     9501.187600       0.078473
     9510.223500       0.081074
     9519.276500       0.083726
     9528.346800       0.086427
     9537.434400       0.089179
     9546.539400       0.091979
     9555.661700       0.094830
     9564.801500       0.097730
     9573.958800       0.100680
     9583.133700       0.103680
     9592.326100       0.106729
     9601.536200       0.109827
     9610.764100       0.112975
     9620.009600       0.116172
     9629.273000       0.119418
     9638.554200       0.122712
     9647.853400       0.126055
     9657.170400       0.129446
     9666.505600       0.132886
     9675.858700       0.136373
     9685.230000       0.139908
     9694.619500       0.143490
     9704.027200       0.147119
     9713.453100       0.150796
     9722.897400       0.154518
     9732.360100       0.158287
     9741.841200       0.162101
     9751.340800       0.165961
     9760.859000       0.169865
     9770.395700       0.173815
     9779.951100       0.177808
     9789.525200       0.181845
     9799.118100       0.185926
     9808.729800       0.190049
     9818.360300       0.194215
     9828.009800       0.198423
     9837.678300       0.202672
     9847.365800       0.206963
     9857.072400       0.211293
     9866.798200       0.215664
     9876.543200       0.220073
     9886.307500       0.224522
     9896.091000       0.229009
     9905.894000       0.233533
     9915.716400       0.238095
     9925.558300       0.242693
     9935.419800       0.247328
     9945.300800       0.251997
     9955.201600       0.256701
     9965.122100       0.261439
     9975.062300       0.266210
     9985.022500       0.271015
     9995.002500       0.275851
    10005.002500       0.280719
    10015.022500       0.285617
    10025.062700       0.290546
    10035.122900       0.295504
    10045.203400       0.300490
    10055.304200       0.305505
    10065.425300       0.310546
    10075.566800       0.315614
    10085.728700       0.320708
    10095.911200       0.325827
    10106.114200       0.330971
    10116.337900       0.336137
    10126.582300       0.341327
    10136.847400       0.346539
    10147.133400       0.351772
    10157.440300       0.357025
    10167.768200       0.362299
    10178.117000       0.367591
    10188.487000       0.372901
    10198.878100       0.378229
    10209.290500       0.383574
    10219.724100       0.388934
    10230.179000       0.394309
    10240.655400       0.399699
    10251.153300       0.405102
    10261.672700       0.410518
    10272.213700       0.415945
    10282.776300       0.421384
    10293.360800       0.426833
    10303.967000       0.432292
    10314.595200       0.437759
    10325.245200       0.443234
    10335.917300       0.448716
    10346.611500       0.454204
    10357.327800       0.459698
    10368.066400       0.465196
    10378.827200       0.470698
    10389.610400       0.476204
    10400.416000       0.481711
    10411.244100       0.487220
    10422.094800       0.492730
    10432.968200       0.498239
    10443.864200       0.503748
    10454.783100       0.509254
    10465.724800       0.514758
    10476.689400       0.520259
    10487.677000       0.525756
    10498.687700       0.531248
    10509.721500       0.536734
    10520.778500       0.542213
    10531.858900       0.547686
    10542.962600       0.553150
    10554.089700       0.558606
    10565.240400       0.564052
    10576.414600       0.569488
    10587.612500       0.574913
    10598.834100       0.580326
    10610.079600       0.585726
    10621.348900       0.591114
    10632.642200       0.596487
    10643.959600       0.601846
    10655.301000       0.607189
    10666.666700       0.612516
    10678.056600       0.617826
    10689.470900       0.623118
    10700.909600       0.628392
    10712.372800       0.633648
    10723.860600       0.638883
    10735.373100       0.644098
    10746.910300       0.649293
    10758.472300       0.654465
    10770.059200       0.659616
    10781.671200       0.664743
    10793.308100       0.669846
    10804.970300       0.674926
    10816.657700       0.679980
    10828.370300       0.685009
    10840.108400       0.690012
    10851.871900       0.694988
    10863.661100       0.699937
    10875.475800       0.704858
    10887.316300       0.709750
    10899.182600       0.714613
    10911.074700       0.719447
    10922.992900       0.724250
    10934.937100       0.729022
    10946.907500       0.733763
    10958.904100       0.738472
    10970.927000       0.743149
    10982.976400       0.747793
    10995.052200       0.752404
    11007.154700       0.756980
    11019.283700       0.761522
    11031.439600       0.766030
    11043.622300       0.770502
    11055.832000       0.774938
    11068.068600       0.779338
    11080.332400       0.783701
    11092.623400       0.788027
    11104.941700       0.792315
    11117.287400       0.796566
    11129.660500       0.800778
    11142.061300       0.804951
    11154.489700       0.809085
    11166.945800       0.813179
    11179.429800       0.817233
    11191.941800       0.821248
    11204.481800       0.825221
    11217.049900       0.829153
    11229.646300       0.833044
    11242.270900       0.836894
    11254.924000       0.840701
    11267.605600       0.844466
    11280.315800       0.848189
    11293.054800       0.851869
    11305.822500       0.855505
    11318.619100       0.859099
    11331.444800       0.862648
    11344.299500       0.866154
    11357.183400       0.869615
    11370.096600       0.873033
    11383.039300       0.876405
    11396.011400       0.879733
    11409.013100       0.883016
    11422.044500       0.886253
    11435.105800       0.889446
    11448.196900       0.892593
    11461.318100       0.895694
    11474.469300       0.898750
    11487.650800       0.901759
    11500.862600       0.904723
    11514.104800       0.907640
    11527.377500       0.910511
    11540.680900       0.913336
    11554.015000       0.916114
    11567.380000       0.918845
    11580.775900       0.921530
    11594.202900       0.924169
    11607.661100       0.926760
    11621.150500       0.929305
    11634.671300       0.931803
    11648.223600       0.934254
    11661.807600       0.936658
    11675.423200       0.939016
    11689.070700       0.941327
    11702.750100       0.943590
    11716.461600       0.945807
    11730.205300       0.947977
    11743.981200       0.950101
    11757.789500       0.952178
    11771.630400       0.954208
    11785.503800       0.956191
    11799.410000       0.958128
    11813.349100       0.960019
    11827.321100       0.961863
    11841.326200       0.963661
    11855.364600       0.965414
    11869.436200       0.967120
    11883.541300       0.968780
    11897.680000       0.970394
    11911.852300       0.971963
    11926.058400       0.973487
    11940.298500       0.974965
    11954.572600       0.976398
    11968.880900       0.977786
    11983.223500       0.979130
    11997.600500       0.980429
    12012.012000       0.981684
    12026.458200       0.982894
    12040.939200       0.984061
    12055.455100       0.985183
    12070.006000       0.986263
    12084.592100       0.987299
    12099.213600       0.988292
    12113.870400       0.989243
    12128.562800       0.990150
    12143.290800       0.991016
    12158.054700       0.991840
    12172.854500       0.992622
    12187.690400       0.993363
    12202.562500       0.994063
    12217.471000       0.994721
    12232.415900       0.995340
    12247.397400       0.995918
    12262.415700       0.996456
    12277.470800       0.996955
    12292.563000       0.997415
    12307.692300       0.997835
    12322.858900       0.998218
    12338.062900       0.998562
    12353.304500       0.998868
    12368.583800       0.999137
    12383.900900       0.999368
    12399.256000       0.999563
    12414.649300       0.999722
    12430.080800       0.999844
    12445.550700       0.999931
    12461.059200       0.999983
    12476.606400       1.000000
    12492.192400       0.999983
    12507.817400       0.999931
    12523.481500       0.999846
    12539.185000       0.999728
    12554.927800       0.999577
    12570.710200       0.999393
    12586.532400       0.999178
    12602.394500       0.998931
    12618.296500       0.998653
    12634.238800       0.998345
    12650.221400       0.998006
    12666.244500       0.997638
    12682.308200       0.997240
    12698.412700       0.996814
    12714.558200       0.996359
    12730.744700       0.995876
    12746.972600       0.995366
    12763.241900       0.994828
    12779.552700       0.994264
    12795.905300       0.993674
    12812.299800       0.993059
    12828.736400       0.992418
    12845.215200       0.991753
    12861.736300       0.991064
    12878.300100       0.990351
    12894.906500       0.989614
    12911.555800       0.988855
    12928.248200       0.988074
    12944.983800       0.987271
    12961.762800       0.986447
    12978.585300       0.985602
    12995.451600       0.984736
    13012.361700       0.983851
    13029.316000       0.982947
    13046.314400       0.982024
    13063.357300       0.981082
    13080.444700       0.980123
    13097.576900       0.979146
    13114.754100       0.978153
    13131.976400       0.977144
    13149.243900       0.976118
    13166.556900       0.975077
    13183.915600       0.974022
    13201.320100       0.972952
    13218.770700       0.971868
    13236.267400       0.970771
    13253.810500       0.969662
    13271.400100       0.968540
    13289.036500       0.967406
    13306.719900       0.966261
    13324.450400       0.965105
    13342.228200       0.963938
    13360.053400       0.962762
    13377.926400       0.961577
    13395.847300       0.960382
    13413.816200       0.959180
    13431.833400       0.957969
    13449.899100       0.956751
    13468.013500       0.955526
    13486.176700       0.954295
    13504.388900       0.953058
    13522.650400       0.951815
    13540.961400       0.950567
    13559.322000       0.949315
    13577.732500       0.948059
    13596.193100       0.946799
    13614.703900       0.945536
    13633.265200       0.944271
    13651.877100       0.943003
    13670.540000       0.941733
    13689.253900       0.940463
    13708.019200       0.939191
    13726.836000       0.937919
    13745.704500       0.936647
    13764.624900       0.935376
    13783.597500       0.934106
    13802.622500       0.932837
    13821.700100       0.931570
    13840.830400       0.930305
    13860.013900       0.929042
    13879.250500       0.927783
    13898.540700       0.926528
    13917.884500       0.925276
    13937.282200       0.924028
    13956.734100       0.922785
    13976.240400       0.921548
    13995.801300       0.920316
    14015.417000       0.919089
    14035.087700       0.917869
    14054.813800       0.916656
    14074.595400       0.915449
    14094.432700       0.914250
    14114.326000       0.913059
    14134.275600       0.911876
    14154.281700       0.910701
    14174.344400       0.909535
    14194.464200       0.908378
    14214.641100       0.907230
    14234.875400       0.906092
    14255.167500       0.904965
    14275.517500       0.903847
    14295.925700       0.902741
    14316.392300       0.901645
    14336.917600       0.900561
    14357.501800       0.899488
    14378.145200       0.898427
    14398.848100       0.897379
    14419.610700       0.896342
    14440.433200       0.895318
    14461.316000       0.894308
    14482.259200       0.893310
    14503.263200       0.892326
    14524.328200       0.891355
    14545.454500       0.890398
    14566.642400       0.889456
    14587.892000       0.888527
    14609.203800       0.887613
    14630.577900       0.886714
    14652.014700       0.885830
    14673.514300       0.884961
    14695.077100       0.884107
    14716.703500       0.883268
    14738.393500       0.882445
    14760.147600       0.881637
    14781.966000       0.880846
    14803.849000       0.880070
    14825.796900       0.879310
    14847.809900       0.878567
    14869.888500       0.877840
    14892.032800       0.877129
    14914.243100       0.876435
    14936.519800       0.875757
    14958.863100       0.875097
    14981.273400       0.874452
    15003.750900       0.873825
    15026.296000       0.873214
    15048.909000       0.872620
    15071.590100       0.872044
    15094.339600       0.871484
    15117.158000       0.870941
    15140.045400       0.870415
    15163.002300       0.869905
    15186.028900       0.869413
    15209.125500       0.868938
    15232.292500       0.868479
    15255.530100       0.868037
    15278.838800       0.867612
    15302.218800       0.867204
    15325.670500       0.866812
    15349.194200       0.866437
    15372.790200       0.866079
    15396.458800       0.865736
    15420.200500       0.865410
    15444.015400       0.865100
    15467.904100       0.864807
    15491.866800       0.864529
    15515.903800       0.864266
    15540.015500       0.864020
    15564.202300       0.863788
    15588.464500       0.863572
    15612.802500       0.863371
    15637.216600       0.863185
    15661.707100       0.863014
    15686.274500       0.862857
    15710.919100       0.862714
    15735.641200       0.862585
    15760.441300       0.862470
    15785.319700       0.862368
    15810.276700       0.862280
    15835.312700       0.862205
    15860.428200       0.862142
    15885.623500       0.862092
    15910.899000       0.862054
    15936.255000       0.862028
    15961.691900       0.862013
    15987.210200       0.862009
    16012.810200       0.862016
    16038.492400       0.862034
    16064.257000       0.862062
    16090.104600       0.862099
    16116.035500       0.862146
    16142.050000       0.862202
    16168.148700       0.862267
    16194.332000       0.862340
    16220.600200       0.862420
    16246.953700       0.862508
    16273.393000       0.862603
    16299.918500       0.862704
    16326.530600       0.862812
    16353.229800       0.862925
    16380.016400       0.863043
    16406.890900       0.863166
    16433.853700       0.863293
    16460.905300       0.863424
    16488.046200       0.863558
    16515.276600       0.863694
    16542.597200       0.863833
    16570.008300       0.863973
    16597.510400       0.864115
    16625.103900       0.864257
    16652.789300       0.864399
    16680.567100       0.864541
    16708.437800       0.864681
    16736.401700       0.864820
    16764.459300       0.864956
    16792.611300       0.865090
    16820.857900       0.865220
    16849.199700       0.865346
    16877.637100       0.865467
    16906.170800       0.865583
    16934.801000       0.865693
    16963.528400       0.865796
    16992.353400       0.865892
    17021.276600       0.865981
    17050.298400       0.866060
    17079.419300       0.866131
    17108.639900       0.866191
    17137.960600       0.866241
    17167.382000       0.866280
    17196.904600       0.866307
    17226.528900       0.866321
    17256.255400       0.866322
    17286.084700       0.866309
    17316.017300       0.866281
    17346.053800       0.866238
    17376.194600       0.866178
    17406.440400       0.866101
    17436.791600       0.866007
    17467.248900       0.865894
    17497.812800       0.865763
    17528.483800       0.865611
    17559.262500       0.865438
    17590.149500       0.865244
    17621.145400       0.865028
    17652.250700       0.864789
    17683.466000       0.864526
    17714.791900       0.864239
    17746.228900       0.863926
    17777.777800       0.863588
    17809.439000       0.863222
    17841.213200       0.862829
    17873.101000       0.862407
    17905.103000       0.861956
    17937.219700       0.861475
    17969.451900       0.860964
    18001.800200       0.860420
    18034.265100       0.859845
    18066.847300       0.859236
    18099.547500       0.858593
    18132.366300       0.857915
    18165.304300       0.857202
    18198.362100       0.856452
    18231.540600       0.855665
    18264.840200       0.854840
    18298.261700       0.853976
    18331.805700       0.853072
    18365.472900       0.852128
    18399.264000       0.851143
    18433.179700       0.850116
    18467.220700       0.849046
    18501.387600       0.847933
    18535.681200       0.846775
    18570.102100       0.845572
    18604.651200       0.844323
    18639.329000       0.843027
    18674.136300       0.841684
    18709.073900       0.840292
    18744.142500       0.838851
    18779.342700       0.837361
    18814.675400       0.835820
    18850.141400       0.834228
    18885.741300       0.832583
    18921.475900       0.830886
    18957.346000       0.829136
    18993.352300       0.827331
    19029.495700       0.825471
    19065.776900       0.823555
    19102.196800       0.821583
    19138.756000       0.819554
