17,   17, MVIRI VIS channel from srf_MET3_1990348_1990349_1801-Release_S10EE_10.dat
Number of data points:
743
Wavenumber (cm-1)   Filter response
     8814.455700       0.000000
     8822.232000       0.000000
     8830.022100       0.000711
     8837.825900       0.002982
     8845.643500       0.005272
     8853.475000       0.007581
     8861.320300       0.009907
     8869.179600       0.012250
     8877.052800       0.014608
     8884.940000       0.016979
     8892.841300       0.019364
     8900.756600       0.021761
     8908.686000       0.024170
     8916.629500       0.026589
     8924.587200       0.029017
     8932.559200       0.031455
     8940.545400       0.033901
     8948.545900       0.036355
     8956.560700       0.038816
     8964.589900       0.041283
     8972.633500       0.043757
     8980.691500       0.046236
     8988.764000       0.048721
     8996.851100       0.051210
     9004.952700       0.053704
     9013.068900       0.056203
     9021.199800       0.058705
     9029.345400       0.061211
     9037.505600       0.063720
     9045.680700       0.066233
     9053.870500       0.068749
     9062.075200       0.071268
     9070.294800       0.073790
     9078.529300       0.076314
     9086.778700       0.078842
     9095.043200       0.081372
     9103.322700       0.083905
     9111.617300       0.086441
     9119.927000       0.088980
     9128.251900       0.091522
     9136.592100       0.094066
     9144.947400       0.096614
     9153.318100       0.099165
     9161.704100       0.101719
     9170.105500       0.104277
     9178.522300       0.106838
     9186.954500       0.109403
     9195.402300       0.111973
     9203.865600       0.114546
     9212.344500       0.117124
     9220.839100       0.119706
     9229.349300       0.122293
     9237.875300       0.124885
     9246.417000       0.127483
     9254.974500       0.130086
     9263.547900       0.132695
     9272.137200       0.135310
     9280.742500       0.137932
     9289.363700       0.140560
     9298.000900       0.143195
     9306.654300       0.145838
     9315.323700       0.148487
     9324.009300       0.151145
     9332.711200       0.153811
     9341.429200       0.156485
     9350.163600       0.159168
     9358.914400       0.161860
     9367.681500       0.164562
     9376.465100       0.167273
     9385.265100       0.169994
     9394.081700       0.172725
     9402.914900       0.175467
     9411.764700       0.178219
     9420.631200       0.180983
     9429.514400       0.183758
     9438.414300       0.186546
     9447.331100       0.189344
     9456.264800       0.192156
     9465.215300       0.194980
     9474.182900       0.197817
     9483.167400       0.200667
     9492.169000       0.203530
     9501.187600       0.206407
     9510.223500       0.209299
     9519.276500       0.212204
     9528.346800       0.215124
     9537.434400       0.218058
     9546.539400       0.221007
     9555.661700       0.223972
     9564.801500       0.226952
     9573.958800       0.229948
     9583.133700       0.232959
     9592.326100       0.235987
     9601.536200       0.239031
     9610.764100       0.242090
     9620.009600       0.245167
     9629.273000       0.248261
     9638.554200       0.251371
     9647.853400       0.254499
     9657.170400       0.257644
     9666.505600       0.260806
     9675.858700       0.263986
     9685.230000       0.267183
     9694.619500       0.270399
     9704.027200       0.273632
     9713.453100       0.276883
     9722.897400       0.280152
     9732.360100       0.283439
     9741.841200       0.286745
     9751.340800       0.290069
     9760.859000       0.293411
     9770.395700       0.296772
     9779.951100       0.300150
     9789.525200       0.303548
     9799.118100       0.306964
     9808.729800       0.310398
     9818.360300       0.313851
     9828.009800       0.317322
     9837.678300       0.320812
     9847.365800       0.324320
     9857.072400       0.327847
     9866.798200       0.331392
     9876.543200       0.334955
     9886.307500       0.338536
     9896.091000       0.342136
     9905.894000       0.345753
     9915.716400       0.349389
     9925.558300       0.353042
     9935.419800       0.356713
     9945.300800       0.360402
     9955.201600       0.364108
     9965.122100       0.367832
     9975.062300       0.371572
     9985.022500       0.375330
     9995.002500       0.379105
    10005.002500       0.382896
    10015.022500       0.386704
    10025.062700       0.390529
    10035.122900       0.394369
    10045.203400       0.398226
    10055.304200       0.402098
    10065.425300       0.405986
    10075.566800       0.409889
    10085.728700       0.413807
    10095.911200       0.417740
    10106.114200       0.421688
    10116.337900       0.425649
    10126.582300       0.429625
    10136.847400       0.433615
    10147.133400       0.437618
    10157.440300       0.441634
    10167.768200       0.445664
    10178.117000       0.449705
    10188.487000       0.453759
    10198.878100       0.457826
    10209.290500       0.461904
    10219.724100       0.465993
    10230.179000       0.470093
    10240.655400       0.474204
    10251.153300       0.478325
    10261.672700       0.482456
    10272.213700       0.486597
    10282.776300       0.490747
    10293.360800       0.494906
    10303.967000       0.499073
    10314.595200       0.503248
    10325.245200       0.507432
    10335.917300       0.511623
    10346.611500       0.515820
    10357.327800       0.520024
    10368.066400       0.524235
    10378.827200       0.528451
    10389.610400       0.532673
    10400.416000       0.536899
    10411.244100       0.541130
    10422.094800       0.545365
    10432.968200       0.549604
    10443.864200       0.553846
    10454.783100       0.558091
    10465.724800       0.562339
    10476.689400       0.566588
    10487.677000       0.570839
    10498.687700       0.575091
    10509.721500       0.579343
    10520.778500       0.583596
    10531.858900       0.587849
    10542.962600       0.592101
    10554.089700       0.596352
    10565.240400       0.600601
    10576.414600       0.604848
    10587.612500       0.609092
    10598.834100       0.613334
    10610.079600       0.617572
    10621.348900       0.621806
    10632.642200       0.626036
    10643.959600       0.630262
    10655.301000       0.634481
    10666.666700       0.638695
    10678.056600       0.642903
    10689.470900       0.647104
    10700.909600       0.651299
    10712.372800       0.655485
    10723.860600       0.659663
    10735.373100       0.663833
    10746.910300       0.667994
    10758.472300       0.672146
    10770.059200       0.676287
    10781.671200       0.680418
    10793.308100       0.684538
    10804.970300       0.688648
    10816.657700       0.692745
    10828.370300       0.696830
    10840.108400       0.700902
    10851.871900       0.704961
    10863.661100       0.709007
    10875.475800       0.713039
    10887.316300       0.717056
    10899.182600       0.721059
    10911.074700       0.725046
    10922.992900       0.729017
    10934.937100       0.732972
    10946.907500       0.736910
    10958.904100       0.740831
    10970.927000       0.744735
    10982.976400       0.748621
    10995.052200       0.752488
    11007.154700       0.756336
    11019.283700       0.760165
    11031.439600       0.763975
    11043.622300       0.767765
    11055.832000       0.771534
    11068.068600       0.775282
    11080.332400       0.779009
    11092.623400       0.782714
    11104.941700       0.786398
    11117.287400       0.790058
    11129.660500       0.793696
    11142.061300       0.797311
    11154.489700       0.800902
    11166.945800       0.804469
    11179.429800       0.808012
    11191.941800       0.811530
    11204.481800       0.815023
    11217.049900       0.818491
    11229.646300       0.821933
    11242.270900       0.825348
    11254.924000       0.828738
    11267.605600       0.832100
    11280.315800       0.835435
    11293.054800       0.838743
    11305.822500       0.842023
    11318.619100       0.845275
    11331.444800       0.848499
    11344.299500       0.851694
    11357.183400       0.854859
    11370.096600       0.857996
    11383.039300       0.861103
    11396.011400       0.864180
    11409.013100       0.867227
    11422.044500       0.870243
    11435.105800       0.873229
    11448.196900       0.876184
    11461.318100       0.879107
    11474.469300       0.881999
    11487.650800       0.884859
    11500.862600       0.887688
    11514.104800       0.890484
    11527.377500       0.893247
    11540.680900       0.895978
    11554.015000       0.898676
    11567.380000       0.901341
    11580.775900       0.903973
    11594.202900       0.906571
    11607.661100       0.909136
    11621.150500       0.911666
    11634.671300       0.914163
    11648.223600       0.916625
    11661.807600       0.919053
    11675.423200       0.921447
    11689.070700       0.923806
    11702.750100       0.926129
    11716.461600       0.928418
    11730.205300       0.930672
    11743.981200       0.932890
    11757.789500       0.935073
    11771.630400       0.937221
    11785.503800       0.939332
    11799.410000       0.941408
    11813.349100       0.943449
    11827.321100       0.945453
    11841.326200       0.947421
    11855.364600       0.949353
    11869.436200       0.951249
    11883.541300       0.953109
    11897.680000       0.954932
    11911.852300       0.956719
    11926.058400       0.958469
    11940.298500       0.960183
    11954.572600       0.961860
    11968.880900       0.963501
    11983.223500       0.965105
    11997.600500       0.966673
    12012.012000       0.968203
    12026.458200       0.969698
    12040.939200       0.971155
    12055.455100       0.972576
    12070.006000       0.973960
    12084.592100       0.975308
    12099.213600       0.976618
    12113.870400       0.977893
    12128.562800       0.979130
    12143.290800       0.980331
    12158.054700       0.981496
    12172.854500       0.982624
    12187.690400       0.983716
    12202.562500       0.984771
    12217.471000       0.985790
    12232.415900       0.986773
    12247.397400       0.987719
    12262.415700       0.988630
    12277.470800       0.989504
    12292.563000       0.990343
    12307.692300       0.991145
    12322.858900       0.991912
    12338.062900       0.992644
    12353.304500       0.993339
    12368.583800       0.994000
    12383.900900       0.994625
    12399.256000       0.995215
    12414.649300       0.995770
    12430.080800       0.996289
    12445.550700       0.996775
    12461.059200       0.997225
    12476.606400       0.997641
    12492.192400       0.998023
    12507.817400       0.998370
    12523.481500       0.998683
    12539.185000       0.998963
    12554.927800       0.999209
    12570.710200       0.999421
    12586.532400       0.999600
    12602.394500       0.999746
    12618.296500       0.999858
    12634.238800       0.999938
    12650.221400       0.999985
    12666.244500       1.000000
    12682.308200       0.999983
    12698.412700       0.999933
    12714.558200       0.999852
    12730.744700       0.999739
    12746.972600       0.999594
    12763.241900       0.999419
    12779.552700       0.999212
    12795.905300       0.998974
    12812.299800       0.998706
    12828.736400       0.998408
    12845.215200       0.998080
    12861.736300       0.997722
    12878.300100       0.997334
    12894.906500       0.996916
    12911.555800       0.996470
    12928.248200       0.995995
    12944.983800       0.995491
    12961.762800       0.994958
    12978.585300       0.994398
    12995.451600       0.993809
    13012.361700       0.993193
    13029.316000       0.992549
    13046.314400       0.991879
    13063.357300       0.991181
    13080.444700       0.990457
    13097.576900       0.989706
    13114.754100       0.988929
    13131.976400       0.988127
    13149.243900       0.987299
    13166.556900       0.986445
    13183.915600       0.985567
    13201.320100       0.984663
    13218.770700       0.983736
    13236.267400       0.982784
    13253.810500       0.981808
    13271.400100       0.980808
    13289.036500       0.979785
    13306.719900       0.978739
    13324.450400       0.977670
    13342.228200       0.976579
    13360.053400       0.975465
    13377.926400       0.974329
    13395.847300       0.973172
    13413.816200       0.971993
    13431.833400       0.970793
    13449.899100       0.969572
    13468.013500       0.968330
    13486.176700       0.967068
    13504.388900       0.965787
    13522.650400       0.964485
    13540.961400       0.963164
    13559.322000       0.961823
    13577.732500       0.960464
    13596.193100       0.959086
    13614.703900       0.957690
    13633.265200       0.956276
    13651.877100       0.954844
    13670.540000       0.953394
    13689.253900       0.951927
    13708.019200       0.950443
    13726.836000       0.948943
    13745.704500       0.947426
    13764.624900       0.945892
    13783.597500       0.944343
    13802.622500       0.942779
    13821.700100       0.941199
    13840.830400       0.939604
    13860.013900       0.937994
    13879.250500       0.936369
    13898.540700       0.934730
    13917.884500       0.933077
    13937.282200       0.931411
    13956.734100       0.929731
    13976.240400       0.928037
    13995.801300       0.926331
    14015.417000       0.924612
    14035.087700       0.922880
    14054.813800       0.921136
    14074.595400       0.919380
    14094.432700       0.917612
    14114.326000       0.915833
    14134.275600       0.914042
    14154.281700       0.912241
    14174.344400       0.910428
    14194.464200       0.908605
    14214.641100       0.906772
    14234.875400       0.904928
    14255.167500       0.903075
    14275.517500       0.901211
    14295.925700       0.899339
    14316.392300       0.897457
    14336.917600       0.895566
    14357.501800       0.893666
    14378.145200       0.891758
    14398.848100       0.889841
    14419.610700       0.887916
    14440.433200       0.885983
    14461.316000       0.884042
    14482.259200       0.882093
    14503.263200       0.880137
    14524.328200       0.878174
    14545.454500       0.876204
    14566.642400       0.874226
    14587.892000       0.872243
    14609.203800       0.870252
    14630.577900       0.868255
    14652.014700       0.866252
    14673.514300       0.864243
    14695.077100       0.862228
    14716.703500       0.860208
    14738.393500       0.858181
    14760.147600       0.856150
    14781.966000       0.854113
    14803.849000       0.852071
    14825.796900       0.850024
    14847.809900       0.847972
    14869.888500       0.845916
    14892.032800       0.843854
    14914.243100       0.841789
    14936.519800       0.839719
    14958.863100       0.837645
    14981.273400       0.835567
    15003.750900       0.833485
    15026.296000       0.831399
    15048.909000       0.829309
    15071.590100       0.827215
    15094.339600       0.825118
    15117.158000       0.823018
    15140.045400       0.820914
    15163.002300       0.818807
    15186.028900       0.816697
    15209.125500       0.814583
    15232.292500       0.812466
    15255.530100       0.810347
    15278.838800       0.808225
    15302.218800       0.806099
    15325.670500       0.803971
    15349.194200       0.801841
    15372.790200       0.799707
    15396.458800       0.797571
    15420.200500       0.795433
    15444.015400       0.793292
    15467.904100       0.791148
    15491.866800       0.789002
    15515.903800       0.786854
    15540.015500       0.784703
    15564.202300       0.782550
    15588.464500       0.780395
    15612.802500       0.778237
    15637.216600       0.776077
    15661.707100       0.773915
    15686.274500       0.771751
    15710.919100       0.769584
    15735.641200       0.767415
    15760.441300       0.765244
    15785.319700       0.763071
    15810.276700       0.760895
    15835.312700       0.758717
    15860.428200       0.756537
    15885.623500       0.754355
    15910.899000       0.752170
    15936.255000       0.749983
    15961.691900       0.747794
    15987.210200       0.745603
    16012.810200       0.743409
    16038.492400       0.741212
    16064.257000       0.739014
    16090.104600       0.736813
    16116.035500       0.734609
    16142.050000       0.732403
    16168.148700       0.730194
    16194.332000       0.727982
    16220.600200       0.725768
    16246.953700       0.723551
    16273.393000       0.721332
    16299.918500       0.719109
    16326.530600       0.716884
    16353.229800       0.714655
    16380.016400       0.712424
    16406.890900       0.710190
    16433.853700       0.707952
    16460.905300       0.705711
    16488.046200       0.703467
    16515.276600       0.701220
    16542.597200       0.698969
    16570.008300       0.696715
    16597.510400       0.694457
    16625.103900       0.692195
    16652.789300       0.689930
    16680.567100       0.687661
    16708.437800       0.685388
    16736.401700       0.683111
    16764.459300       0.680830
    16792.611300       0.678545
    16820.857900       0.676256
    16849.199700       0.673963
    16877.637100       0.671665
    16906.170800       0.669362
    16934.801000       0.667055
    16963.528400       0.664743
    16992.353400       0.662427
    17021.276600       0.660106
    17050.298400       0.657779
    17079.419300       0.655448
    17108.639900       0.653112
    17137.960600       0.650770
    17167.382000       0.648423
    17196.904600       0.646071
    17226.528900       0.643713
    17256.255400       0.641350
    17286.084700       0.638981
    17316.017300       0.636606
    17346.053800       0.634226
    17376.194600       0.631839
    17406.440400       0.629446
    17436.791600       0.627048
    17467.248900       0.624643
    17497.812800       0.622231
    17528.483800       0.619814
    17559.262500       0.617389
    17590.149500       0.614959
    17621.145400       0.612521
    17652.250700       0.610077
    17683.466000       0.607626
    17714.791900       0.605168
    17746.228900       0.602703
    17777.777800       0.600231
    17809.439000       0.597752
    17841.213200       0.595265
    17873.101000       0.592771
    17905.103000       0.590270
    17937.219700       0.587762
    17969.451900       0.585246
    18001.800200       0.582722
    18034.265100       0.580191
    18066.847300       0.577651
    18099.547500       0.575105
    18132.366300       0.572550
    18165.304300       0.569987
    18198.362100       0.567417
    18231.540600       0.564838
    18264.840200       0.562251
    18298.261700       0.559656
    18331.805700       0.557053
    18365.472900       0.554442
    18399.264000       0.551823
    18433.179700       0.549195
    18467.220700       0.546559
    18501.387600       0.543915
    18535.681200       0.541262
    18570.102100       0.538601
    18604.651200       0.535931
    18639.329000       0.533253
    18674.136300       0.530567
    18709.073900       0.527872
    18744.142500       0.525168
    18779.342700       0.522456
    18814.675400       0.519736
    18850.141400       0.517007
    18885.741300       0.514270
    18921.475900       0.511524
    18957.346000       0.508770
    18993.352300       0.506007
    19029.495700       0.503236
    19065.776900       0.500456
    19102.196800       0.497669
    19138.756000       0.494872
    19175.455400       0.492068
    19212.295900       0.489255
    19249.278200       0.486434
    19286.403100       0.483605
    19323.671500       0.480768
    19361.084200       0.477923
    19398.642100       0.475070
