12,   12, MVIRI VIS channel from srf_MET2_1983213_1983214_1801-Release_S10EL_10.dat
Number of data points:
730
Wavenumber (cm-1)   Filter response
     8916.629500       0.000000
     8924.587200       0.000000
     8932.559200       0.000002
     8940.545400       0.000011
     8948.545900       0.000032
     8956.560700       0.000068
     8964.589900       0.000125
     8972.633500       0.000206
     8980.691500       0.000315
     8988.764000       0.000456
     8996.851100       0.000632
     9004.952700       0.000848
     9013.068900       0.001106
     9021.199800       0.001410
     9029.345400       0.001763
     9037.505600       0.002166
     9045.680700       0.002624
     9053.870500       0.003139
     9062.075200       0.003713
     9070.294800       0.004349
     9078.529300       0.005048
     9086.778700       0.005814
     9095.043200       0.006647
     9103.322700       0.007549
     9111.617300       0.008524
     9119.927000       0.009571
     9128.251900       0.010693
     9136.592100       0.011890
     9144.947400       0.013165
     9153.318100       0.014518
     9161.704100       0.015951
     9170.105500       0.017464
     9178.522300       0.019059
     9186.954500       0.020736
     9195.402300       0.022496
     9203.865600       0.024339
     9212.344500       0.026267
     9220.839100       0.028279
     9229.349300       0.030376
     9237.875300       0.032559
     9246.417000       0.034827
     9254.974500       0.037181
     9263.547900       0.039621
     9272.137200       0.042146
     9280.742500       0.044757
     9289.363700       0.047454
     9298.000900       0.050237
     9306.654300       0.053105
     9315.323700       0.056058
     9324.009300       0.059096
     9332.711200       0.062218
     9341.429200       0.065423
     9350.163600       0.068713
     9358.914400       0.072085
     9367.681500       0.075539
     9376.465100       0.079075
     9385.265100       0.082692
     9394.081700       0.086389
     9402.914900       0.090165
     9411.764700       0.094020
     9420.631200       0.097952
     9429.514400       0.101962
     9438.414300       0.106047
     9447.331100       0.110207
     9456.264800       0.114442
     9465.215300       0.118749
     9474.182900       0.123128
     9483.167400       0.127579
     9492.169000       0.132098
     9501.187600       0.136687
     9510.223500       0.141343
     9519.276500       0.146066
     9528.346800       0.150853
     9537.434400       0.155705
     9546.539400       0.160619
     9555.661700       0.165595
     9564.801500       0.170630
     9573.958800       0.175725
     9583.133700       0.180877
     9592.326100       0.186086
     9601.536200       0.191349
     9610.764100       0.196666
     9620.009600       0.202036
     9629.273000       0.207456
     9638.554200       0.212926
     9647.853400       0.218444
     9657.170400       0.224008
     9666.505600       0.229619
     9675.858700       0.235273
     9685.230000       0.240969
     9694.619500       0.246708
     9704.027200       0.252485
     9713.453100       0.258302
     9722.897400       0.264155
     9732.360100       0.270043
     9741.841200       0.275966
     9751.340800       0.281922
     9760.859000       0.287909
     9770.395700       0.293926
     9779.951100       0.299971
     9789.525200       0.306044
     9799.118100       0.312143
     9808.729800       0.318265
     9818.360300       0.324411
     9828.009800       0.330577
     9837.678300       0.336765
     9847.365800       0.342971
     9857.072400       0.349194
     9866.798200       0.355434
     9876.543200       0.361688
     9886.307500       0.367956
     9896.091000       0.374236
     9905.894000       0.380527
     9915.716400       0.386827
     9925.558300       0.393134
     9935.419800       0.399450
     9945.300800       0.405770
     9955.201600       0.412095
     9965.122100       0.418423
     9975.062300       0.424752
     9985.022500       0.431082
     9995.002500       0.437412
    10005.002500       0.443739
    10015.022500       0.450063
    10025.062700       0.456383
    10035.122900       0.462697
    10045.203400       0.469005
    10055.304200       0.475305
    10065.425300       0.481596
    10075.566800       0.487877
    10085.728700       0.494147
    10095.911200       0.500404
    10106.114200       0.506649
    10116.337900       0.512878
    10126.582300       0.519093
    10136.847400       0.525291
    10147.133400       0.531471
    10157.440300       0.537633
    10167.768200       0.543776
    10178.117000       0.549898
    10188.487000       0.555999
    10198.878100       0.562077
    10209.290500       0.568133
    10219.724100       0.574164
    10230.179000       0.580170
    10240.655400       0.586150
    10251.153300       0.592103
    10261.672700       0.598029
    10272.213700       0.603926
    10282.776300       0.609794
    10293.360800       0.615633
    10303.967000       0.621440
    10314.595200       0.627216
    10325.245200       0.632959
    10335.917300       0.638670
    10346.611500       0.644347
    10357.327800       0.649989
    10368.066400       0.655597
    10378.827200       0.661168
    10389.610400       0.666703
    10400.416000       0.672202
    10411.244100       0.677662
    10422.094800       0.683084
    10432.968200       0.688468
    10443.864200       0.693812
    10454.783100       0.699116
    10465.724800       0.704380
    10476.689400       0.709603
    10487.677000       0.714784
    10498.687700       0.719923
    10509.721500       0.725020
    10520.778500       0.730074
    10531.858900       0.735085
    10542.962600       0.740052
    10554.089700       0.744975
    10565.240400       0.749854
    10576.414600       0.754687
    10587.612500       0.759475
    10598.834100       0.764218
    10610.079600       0.768915
    10621.348900       0.773565
    10632.642200       0.778169
    10643.959600       0.782726
    10655.301000       0.787236
    10666.666700       0.791698
    10678.056600       0.796113
    10689.470900       0.800480
    10700.909600       0.804799
    10712.372800       0.809069
    10723.860600       0.813291
    10735.373100       0.817464
    10746.910300       0.821589
    10758.472300       0.825664
    10770.059200       0.829690
    10781.671200       0.833667
    10793.308100       0.837594
    10804.970300       0.841473
    10816.657700       0.845301
    10828.370300       0.849079
    10840.108400       0.852808
    10851.871900       0.856487
    10863.661100       0.860116
    10875.475800       0.863695
    10887.316300       0.867224
    10899.182600       0.870704
    10911.074700       0.874133
    10922.992900       0.877512
    10934.937100       0.880841
    10946.907500       0.884121
    10958.904100       0.887350
    10970.927000       0.890530
    10982.976400       0.893659
    10995.052200       0.896739
    11007.154700       0.899770
    11019.283700       0.902750
    11031.439600       0.905682
    11043.622300       0.908563
    11055.832000       0.911396
    11068.068600       0.914179
    11080.332400       0.916913
    11092.623400       0.919599
    11104.941700       0.922235
    11117.287400       0.924823
    11129.660500       0.927362
    11142.061300       0.929853
    11154.489700       0.932296
    11166.945800       0.934691
    11179.429800       0.937037
    11191.941800       0.939337
    11204.481800       0.941589
    11217.049900       0.943793
    11229.646300       0.945951
    11242.270900       0.948062
    11254.924000       0.950126
    11267.605600       0.952144
    11280.315800       0.954116
    11293.054800       0.956041
    11305.822500       0.957921
    11318.619100       0.959756
    11331.444800       0.961546
    11344.299500       0.963290
    11357.183400       0.964990
    11370.096600       0.966646
    11383.039300       0.968257
    11396.011400       0.969824
    11409.013100       0.971348
    11422.044500       0.972829
    11435.105800       0.974266
    11448.196900       0.975661
    11461.318100       0.977013
    11474.469300       0.978323
    11487.650800       0.979592
    11500.862600       0.980818
    11514.104800       0.982004
    11527.377500       0.983148
    11540.680900       0.984251
    11554.015000       0.985315
    11567.380000       0.986338
    11580.775900       0.987321
    11594.202900       0.988265
    11607.661100       0.989170
    11621.150500       0.990036
    11634.671300       0.990863
    11648.223600       0.991653
    11661.807600       0.992404
    11675.423200       0.993118
    11689.070700       0.993794
    11702.750100       0.994434
    11716.461600       0.995037
    11730.205300       0.995604
    11743.981200       0.996135
    11757.789500       0.996630
    11771.630400       0.997090
    11785.503800       0.997514
    11799.410000       0.997905
    11813.349100       0.998260
    11827.321100       0.998582
    11841.326200       0.998870
    11855.364600       0.999125
    11869.436200       0.999347
    11883.541300       0.999535
    11897.680000       0.999692
    11911.852300       0.999816
    11926.058400       0.999909
    11940.298500       0.999970
    11954.572600       1.000000
    11968.880900       0.999999
    11983.223500       0.999968
    11997.600500       0.999906
    12012.012000       0.999815
    12026.458200       0.999693
    12040.939200       0.999543
    12055.455100       0.999364
    12070.006000       0.999156
    12084.592100       0.998919
    12099.213600       0.998655
    12113.870400       0.998362
    12128.562800       0.998043
    12143.290800       0.997696
    12158.054700       0.997322
    12172.854500       0.996921
    12187.690400       0.996495
    12202.562500       0.996042
    12217.471000       0.995563
    12232.415900       0.995059
    12247.397400       0.994530
    12262.415700       0.993976
    12277.470800       0.993397
    12292.563000       0.992794
    12307.692300       0.992167
    12322.858900       0.991516
    12338.062900       0.990841
    12353.304500       0.990144
    12368.583800       0.989423
    12383.900900       0.988679
    12399.256000       0.987913
    12414.649300       0.987124
    12430.080800       0.986314
    12445.550700       0.985482
    12461.059200       0.984628
    12476.606400       0.983753
    12492.192400       0.982856
    12507.817400       0.981939
    12523.481500       0.981002
    12539.185000       0.980044
    12554.927800       0.979065
    12570.710200       0.978067
    12586.532400       0.977049
    12602.394500       0.976012
    12618.296500       0.974956
    12634.238800       0.973880
    12650.221400       0.972785
    12666.244500       0.971672
    12682.308200       0.970540
    12698.412700       0.969391
    12714.558200       0.968222
    12730.744700       0.967037
    12746.972600       0.965833
    12763.241900       0.964612
    12779.552700       0.963374
    12795.905300       0.962118
    12812.299800       0.960846
    12828.736400       0.959556
    12845.215200       0.958250
    12861.736300       0.956928
    12878.300100       0.955589
    12894.906500       0.954235
    12911.555800       0.952864
    12928.248200       0.951478
    12944.983800       0.950075
    12961.762800       0.948658
    12978.585300       0.947225
    12995.451600       0.945777
    13012.361700       0.944314
    13029.316000       0.942835
    13046.314400       0.941343
    13063.357300       0.939835
    13080.444700       0.938313
    13097.576900       0.936777
    13114.754100       0.935226
    13131.976400       0.933661
    13149.243900       0.932083
    13166.556900       0.930490
    13183.915600       0.928883
    13201.320100       0.927263
    13218.770700       0.925630
    13236.267400       0.923983
    13253.810500       0.922323
    13271.400100       0.920649
    13289.036500       0.918963
    13306.719900       0.917263
    13324.450400       0.915551
    13342.228200       0.913825
    13360.053400       0.912088
    13377.926400       0.910337
    13395.847300       0.908574
    13413.816200       0.906799
    13431.833400       0.905011
    13449.899100       0.903211
    13468.013500       0.901399
    13486.176700       0.899575
    13504.388900       0.897738
    13522.650400       0.895890
    13540.961400       0.894030
    13559.322000       0.892159
    13577.732500       0.890276
    13596.193100       0.888381
    13614.703900       0.886474
    13633.265200       0.884556
    13651.877100       0.882627
    13670.540000       0.880687
    13689.253900       0.878735
    13708.019200       0.876772
    13726.836000       0.874798
    13745.704500       0.872813
    13764.624900       0.870817
    13783.597500       0.868810
    13802.622500       0.866792
    13821.700100       0.864763
    13840.830400       0.862724
    13860.013900       0.860674
    13879.250500       0.858614
    13898.540700       0.856542
    13917.884500       0.854461
    13937.282200       0.852369
    13956.734100       0.850267
    13976.240400       0.848154
    13995.801300       0.846031
    14015.417000       0.843898
    14035.087700       0.841755
    14054.813800       0.839601
    14074.595400       0.837438
    14094.432700       0.835265
    14114.326000       0.833082
    14134.275600       0.830889
    14154.281700       0.828686
    14174.344400       0.826473
    14194.464200       0.824251
    14214.641100       0.822019
    14234.875400       0.819778
    14255.167500       0.817527
    14275.517500       0.815266
    14295.925700       0.812997
    14316.392300       0.810717
    14336.917600       0.808429
    14357.501800       0.806131
    14378.145200       0.803824
    14398.848100       0.801509
    14419.610700       0.799183
    14440.433200       0.796850
    14461.316000       0.794507
    14482.259200       0.792155
    14503.263200       0.789794
    14524.328200       0.787425
    14545.454500       0.785047
    14566.642400       0.782660
    14587.892000       0.780265
    14609.203800       0.777861
    14630.577900       0.775449
    14652.014700       0.773029
    14673.514300       0.770600
    14695.077100       0.768163
    14716.703500       0.765718
    14738.393500       0.763265
    14760.147600       0.760804
    14781.966000       0.758335
    14803.849000       0.755858
    14825.796900       0.753374
    14847.809900       0.750882
    14869.888500       0.748382
    14892.032800       0.745875
    14914.243100       0.743360
    14936.519800       0.740837
    14958.863100       0.738308
    14981.273400       0.735771
    15003.750900       0.733227
    15026.296000       0.730677
    15048.909000       0.728119
    15071.590100       0.725554
    15094.339600       0.722983
    15117.158000       0.720405
    15140.045400       0.717820
    15163.002300       0.715229
    15186.028900       0.712632
    15209.125500       0.710028
    15232.292500       0.707418
    15255.530100       0.704803
    15278.838800       0.702181
    15302.218800       0.699553
    15325.670500       0.696919
    15349.194200       0.694280
    15372.790200       0.691635
    15396.458800       0.688985
    15420.200500       0.686330
    15444.015400       0.683669
    15467.904100       0.681003
    15491.866800       0.678333
    15515.903800       0.675657
    15540.015500       0.672976
    15564.202300       0.670291
    15588.464500       0.667602
    15612.802500       0.664908
    15637.216600       0.662210
    15661.707100       0.659507
    15686.274500       0.656801
    15710.919100       0.654090
    15735.641200       0.651376
    15760.441300       0.648659
    15785.319700       0.645937
    15810.276700       0.643213
    15835.312700       0.640485
    15860.428200       0.637754
    15885.623500       0.635020
    15910.899000       0.632283
    15936.255000       0.629544
    15961.691900       0.626801
    15987.210200       0.624057
    16012.810200       0.621310
    16038.492400       0.618561
    16064.257000       0.615810
    16090.104600       0.613057
    16116.035500       0.610302
    16142.050000       0.607546
    16168.148700       0.604788
    16194.332000       0.602029
    16220.600200       0.599269
    16246.953700       0.596508
    16273.393000       0.593746
    16299.918500       0.590983
    16326.530600       0.588220
    16353.229800       0.585456
    16380.016400       0.582692
    16406.890900       0.579928
    16433.853700       0.577164
    16460.905300       0.574400
    16488.046200       0.571636
    16515.276600       0.568873
    16542.597200       0.566110
    16570.008300       0.563348
    16597.510400       0.560587
    16625.103900       0.557827
    16652.789300       0.555068
    16680.567100       0.552311
    16708.437800       0.549555
    16736.401700       0.546801
    16764.459300       0.544048
    16792.611300       0.541298
    16820.857900       0.538549
    16849.199700       0.535803
    16877.637100       0.533059
    16906.170800       0.530318
    16934.801000       0.527579
    16963.528400       0.524843
    16992.353400       0.522110
    17021.276600       0.519380
    17050.298400       0.516653
    17079.419300       0.513930
    17108.639900       0.511210
    17137.960600       0.508494
    17167.382000       0.505782
    17196.904600       0.503073
    17226.528900       0.500368
    17256.255400       0.497668
    17286.084700       0.494972
    17316.017300       0.492280
    17346.053800       0.489593
    17376.194600       0.486911
    17406.440400       0.484233
    17436.791600       0.481560
    17467.248900       0.478892
    17497.812800       0.476230
    17528.483800       0.473572
    17559.262500       0.470920
    17590.149500       0.468273
    17621.145400       0.465632
    17652.250700       0.462997
    17683.466000       0.460368
    17714.791900       0.457744
    17746.228900       0.455126
    17777.777800       0.452514
    17809.439000       0.449909
    17841.213200       0.447310
    17873.101000       0.444717
    17905.103000       0.442130
    17937.219700       0.439550
    17969.451900       0.436977
    18001.800200       0.434410
    18034.265100       0.431850
    18066.847300       0.429296
    18099.547500       0.426750
    18132.366300       0.424210
    18165.304300       0.421677
    18198.362100       0.419152
    18231.540600       0.416633
    18264.840200       0.414122
    18298.261700       0.411618
    18331.805700       0.409120
    18365.472900       0.406630
    18399.264000       0.404148
    18433.179700       0.401672
    18467.220700       0.399204
    18501.387600       0.396743
    18535.681200       0.394290
    18570.102100       0.391844
    18604.651200       0.389405
    18639.329000       0.386974
    18674.136300       0.384550
    18709.073900       0.382133
    18744.142500       0.379724
    18779.342700       0.377322
    18814.675400       0.374927
    18850.141400       0.372539
    18885.741300       0.370159
    18921.475900       0.367786
    18957.346000       0.365420
    18993.352300       0.363061
    19029.495700       0.360710
    19065.776900       0.358365
    19102.196800       0.356027
    19138.756000       0.353697
    19175.455400       0.351373
    19212.295900       0.349056
    19249.278200       0.346745
    19286.403100       0.344441
    19323.671500       0.342144
    19361.084200       0.339853
    19398.642100       0.337569
    19436.346000       0.335291
    19474.196700       0.333019
    19512.195100       0.330753
    19550.342100       0.328493
    19588.638600       0.326239
    19627.085400       0.323990
    19665.683400       0.321747
    19704.433500       0.319509
    19743.336600       0.317277
    19782.393700       0.315050
    19821.605600       0.312828
    19860.973200       0.310610
    19900.497500       0.308398
