  11  ,noaa_16_hirs_11.flt
Number of data points:
93
Wavenumber (cm-1)   Filter response
     1322.000000       0.000000
     1323.400000       0.004752
     1325.500000       0.007841
     1327.100000       0.012450
     1328.900000       0.015439
     1330.000000       0.018450
     1330.900000       0.026053
     1332.500000       0.038079
     1333.900000       0.046968
     1334.900000       0.058857
     1336.300000       0.066044
     1337.500000       0.079133
     1338.800000       0.089095
     1339.700000       0.102060
     1340.400000       0.117940
     1340.900000       0.133860
     1341.600000       0.154020
     1342.200000       0.169680
     1342.600000       0.200070
     1343.400000       0.257480
     1343.900000       0.300450
     1344.900000       0.403140
     1345.700000       0.468020
     1346.200000       0.547420
     1346.800000       0.617500
     1347.400000       0.670100
     1347.900000       0.714330
     1348.400000       0.740760
     1348.900000       0.760030
     1349.200000       0.771070
     1350.100000       0.769890
     1350.500000       0.760860
     1351.000000       0.741750
     1351.700000       0.713830
     1352.700000       0.671550
     1353.100000       0.656970
     1353.700000       0.642120
     1354.100000       0.633220
     1354.700000       0.629680
     1355.400000       0.630370
     1355.900000       0.638230
     1356.400000       0.650290
     1357.000000       0.667900
     1357.500000       0.687070
     1358.200000       0.715760
     1358.600000       0.741980
     1359.700000       0.793930
     1360.500000       0.835080
     1361.000000       0.862450
     1361.500000       0.887180
     1361.900000       0.907150
     1362.400000       0.930420
     1362.900000       0.948240
     1363.400000       0.965680
     1364.000000       0.980040
     1364.500000       0.991790
     1365.400000       0.998610
     1366.100000       1.000000
     1367.300000       0.996150
     1368.200000       0.983060
     1369.200000       0.966970
     1370.300000       0.942340
     1370.900000       0.920260
     1371.900000       0.893660
     1372.700000       0.867280
     1373.800000       0.834500
     1374.900000       0.805840
     1375.700000       0.789510
     1376.700000       0.770670
     1377.700000       0.747080
     1378.300000       0.729620
     1379.100000       0.701010
     1380.100000       0.654280
     1380.800000       0.581940
     1381.800000       0.509570
     1382.700000       0.448540
     1384.500000       0.280350
     1385.700000       0.207190
     1386.200000       0.177040
     1387.200000       0.122490
     1388.000000       0.096621
     1388.900000       0.073548
     1389.900000       0.057271
     1391.300000       0.043707
     1392.400000       0.034307
     1393.900000       0.026267
     1395.900000       0.023426
     1398.400000       0.019280
     1400.500000       0.016533
     1402.900000       0.013730
     1404.800000       0.009819
     1407.100000       0.007262
     1410.000000       0.000000
