          17  , Jan 12th 2012 http://fy3.satellite.cma.gov.cn/ArssEn/Download/FY3A_calibration_info_params.rar
Number of data points:
150
Wavenumber (cm-1)   Filter response
     2165.439000       0.000179
     2166.378000       0.000680
     2167.317000       0.001361
     2168.257000       0.000246
     2169.198000       0.000254
     2170.139000       0.000428
     2171.081000       0.000844
     2172.024000       0.000856
     2172.968000       0.000769
     2173.913000       0.000906
     2174.859000       0.000213
     2175.805000       0.001858
     2176.753000       0.001259
     2177.700000       0.001753
     2178.649000       0.001688
     2179.599000       0.001933
     2180.550000       0.001466
     2181.501000       0.001255
     2182.453000       0.000462
     2183.406000       0.000052
     2184.360000       0.000651
     2185.315000       0.001696
     2186.270000       0.001366
     2187.227000       0.000489
     2188.184000       0.002013
     2189.142000       0.002359
     2190.101000       0.002542
     2191.060000       0.001520
     2192.021000       0.001660
     2192.982000       0.001942
     2193.945000       0.002194
     2194.908000       0.002235
     2195.872000       0.002568
     2196.836000       0.002700
     2197.802000       0.003451
     2198.769000       0.002861
     2199.736000       0.002673
     2200.704000       0.003556
     2201.673000       0.004718
     2202.643000       0.004030
     2203.614000       0.005794
     2204.586000       0.005748
     2205.558000       0.006931
     2206.531000       0.006466
     2207.505000       0.006942
     2208.481000       0.006358
     2209.457000       0.007372
     2210.433000       0.009469
     2211.411000       0.009805
     2212.389000       0.011094
     2213.369000       0.011796
     2214.349000       0.013012
     2215.330000       0.014166
     2216.312000       0.016825
     2217.295000       0.019196
     2218.279000       0.020325
     2219.263000       0.022899
     2220.249000       0.026482
     2221.235000       0.029725
     2222.222000       0.033094
     2223.210000       0.038424
     2224.199000       0.045429
     2225.189000       0.051341
     2226.180000       0.060653
     2227.172000       0.070663
     2228.164000       0.081078
     2229.157000       0.094564
     2230.152000       0.113328
     2231.147000       0.136433
     2232.143000       0.161897
     2233.140000       0.195942
     2234.138000       0.234292
     2235.136000       0.281151
     2236.136000       0.336079
     2237.136000       0.399755
     2238.138000       0.472833
     2239.140000       0.551370
     2240.143000       0.633074
     2241.147000       0.710343
     2242.152000       0.783698
     2243.158000       0.858458
     2244.165000       0.910219
     2245.173000       0.946182
     2246.181000       0.969888
     2247.191000       0.985859
     2248.201000       0.994672
     2249.213000       0.999356
     2250.225000       1.000000
     2251.238000       0.999970
     2252.252000       0.993318
     2253.267000       0.997171
     2254.283000       0.980394
     2255.300000       0.953582
     2256.318000       0.914676
     2257.336000       0.861337
     2258.356000       0.795350
     2259.376000       0.720886
     2260.398000       0.638651
     2261.420000       0.557520
     2262.443000       0.478696
     2263.468000       0.412938
     2264.493000       0.348526
     2265.519000       0.293644
     2266.546000       0.245940
     2267.574000       0.206319
     2268.603000       0.174667
     2269.632000       0.147615
     2270.663000       0.123336
     2271.695000       0.104194
     2272.727000       0.088402
     2273.761000       0.070078
     2274.795000       0.060269
     2275.831000       0.052890
     2276.867000       0.045227
     2277.904000       0.039417
     2278.943000       0.034567
     2279.982000       0.031385
     2281.022000       0.027742
     2282.063000       0.024365
     2283.105000       0.022282
     2284.148000       0.018932
     2285.192000       0.016068
     2286.237000       0.014177
     2287.283000       0.013278
     2288.330000       0.012086
     2289.377000       0.011516
     2290.426000       0.010155
     2291.476000       0.008439
     2292.526000       0.008670
     2293.578000       0.006903
     2294.631000       0.007697
     2295.684000       0.006971
     2296.739000       0.006618
     2297.794000       0.003943
     2298.851000       0.005863
     2299.908000       0.005239
     2300.966000       0.003913
     2302.026000       0.003060
     2303.086000       0.002099
     2304.147000       0.002863
     2305.210000       0.002117
     2306.273000       0.002357
     2307.337000       0.003227
     2308.403000       0.002838
     2309.469000       0.002052
     2310.536000       0.002233
     2311.604000       0.000926
     2312.674000       0.000489
     2313.744000       0.000538
     2314.815000       0.001051
