   1  ,metop_02_hirs_01.flt
Number of data points:
101
Wavenumber (cm-1)   Filter response
      663.400000       0.028961
      663.500000       0.032491
      663.600000       0.037544
      663.700000       0.043064
      663.800000       0.048882
      663.900000       0.055617
      664.000000       0.063431
      664.100000       0.071265
      664.200000       0.077775
      664.300000       0.082252
      664.400000       0.085035
      664.500000       0.087004
      664.600000       0.089025
      664.700000       0.091811
      664.800000       0.095925
      664.900000       0.101600
      665.000000       0.108590
      665.100000       0.116430
      665.200000       0.124810
      665.300000       0.133710
      665.400000       0.143040
      665.500000       0.152360
      665.600000       0.161120
      665.700000       0.169220
      665.800000       0.177500
      665.900000       0.187400
      666.000000       0.200250
      666.100000       0.216690
      666.200000       0.235930
      666.300000       0.256550
      666.400000       0.277090
      666.500000       0.296900
      666.600000       0.316330
      666.700000       0.336420
      666.800000       0.358280
      666.900000       0.382590
      667.000000       0.409480
      667.100000       0.438780
      667.200000       0.469920
      667.300000       0.502250
      667.400000       0.535080
      667.500000       0.567970
      667.600000       0.600420
      667.700000       0.632390
      667.800000       0.664480
      667.900000       0.698190
      668.000000       0.735430
      668.100000       0.777690
      668.200000       0.823790
      668.300000       0.870460
      668.400000       0.913220
      668.500000       0.948190
      668.600000       0.973490
      668.700000       0.989460
      668.800000       0.997710
      668.900000       1.000000
      669.000000       0.997550
      669.100000       0.991170
      669.200000       0.981880
      669.300000       0.971020
      669.400000       0.959620
      669.500000       0.946710
      669.600000       0.928930
      669.700000       0.901990
      669.800000       0.863140
      669.900000       0.813010
      670.000000       0.755370
      670.100000       0.694370
      670.200000       0.634670
      670.300000       0.578740
      670.400000       0.528210
      670.500000       0.484200
      670.600000       0.446750
      670.700000       0.414170
      670.800000       0.383440
      670.900000       0.351630
      671.000000       0.317410
      671.100000       0.281520
      671.200000       0.246220
      671.300000       0.214150
      671.400000       0.187160
      671.500000       0.165510
      671.600000       0.148000
      671.700000       0.132820
      671.800000       0.118700
      671.900000       0.105510
      672.000000       0.093644
      672.100000       0.083034
      672.200000       0.072791
      672.300000       0.062133
      672.400000       0.051290
      672.500000       0.041405
      672.600000       0.033459
      672.700000       0.027437
      672.800000       0.022606
      672.900000       0.018462
      673.000000       0.015153
      673.100000       0.013021
      673.200000       0.011980
      673.300000       0.011584
      673.400000       0.011578
