  10, extracted from file vas_g06.srf.nc
Number of data points:
2156
Wavenumber (cm-1)   Filter response
     1371.800000       0.010432
     1371.900000       0.010803
     1372.000000       0.011176
     1372.100000       0.011548
     1372.200000       0.011919
     1372.300000       0.012293
     1372.400000       0.012665
     1372.500000       0.013037
     1372.600000       0.013409
     1372.700000       0.013780
     1372.800000       0.014154
     1372.900000       0.014526
     1373.000000       0.014897
     1373.100000       0.015270
     1373.200000       0.015642
     1373.300000       0.016015
     1373.400000       0.016387
     1373.500000       0.016759
     1373.600000       0.017131
     1373.700000       0.017503
     1373.800000       0.017876
     1373.900000       0.018248
     1374.000000       0.018620
     1374.100000       0.018992
     1374.200000       0.019365
     1374.300000       0.019737
     1374.400000       0.020109
     1374.500000       0.020482
     1374.600000       0.020854
     1374.700000       0.021226
     1374.800000       0.021598
     1374.900000       0.021970
     1375.000000       0.022343
     1375.100000       0.022715
     1375.200000       0.023086
     1375.300000       0.023460
     1375.400000       0.023832
     1375.500000       0.024204
     1375.600000       0.024576
     1375.700000       0.024948
     1375.800000       0.025321
     1375.900000       0.025693
     1376.000000       0.026065
     1376.100000       0.026437
     1376.200000       0.026809
     1376.300000       0.027182
     1376.400000       0.027554
     1376.500000       0.027926
     1376.600000       0.028298
     1376.700000       0.028671
     1376.800000       0.029043
     1376.900000       0.029415
     1377.000000       0.029788
     1377.100000       0.030160
     1377.200000       0.030532
     1377.300000       0.030904
     1377.400000       0.031234
     1377.500000       0.031940
     1377.600000       0.033068
     1377.700000       0.034198
     1377.800000       0.035324
     1377.900000       0.036449
     1378.000000       0.037573
     1378.100000       0.038698
     1378.200000       0.039823
     1378.300000       0.040949
     1378.400000       0.042074
     1378.500000       0.043199
     1378.600000       0.044324
     1378.700000       0.045448
     1378.800000       0.046574
     1378.900000       0.047699
     1379.000000       0.048824
     1379.100000       0.049949
     1379.200000       0.051073
     1379.300000       0.052200
     1379.400000       0.053325
     1379.500000       0.054449
     1379.600000       0.055574
     1379.700000       0.056699
     1379.800000       0.057825
     1379.900000       0.058950
     1380.000000       0.060074
     1380.100000       0.061199
     1380.200000       0.062324
     1380.300000       0.063450
     1380.400000       0.064575
     1380.500000       0.065700
     1380.600000       0.066825
     1380.700000       0.067949
     1380.800000       0.069075
     1380.900000       0.070200
     1381.000000       0.071325
     1381.100000       0.072450
     1381.200000       0.073575
     1381.300000       0.074702
     1381.400000       0.075826
     1381.500000       0.076950
     1381.600000       0.078075
     1381.700000       0.079200
     1381.800000       0.080327
     1381.900000       0.081451
     1382.000000       0.082576
     1382.100000       0.083701
     1382.200000       0.084825
     1382.300000       0.085951
     1382.400000       0.087076
     1382.500000       0.088201
     1382.600000       0.089326
     1382.700000       0.090450
     1382.800000       0.091577
     1382.900000       0.092701
     1383.000000       0.093826
     1383.100000       0.094774
     1383.200000       0.097255
     1383.300000       0.101881
     1383.400000       0.106871
     1383.500000       0.111801
     1383.600000       0.116732
     1383.700000       0.121662
     1383.800000       0.126599
     1383.900000       0.131529
     1384.000000       0.136459
     1384.100000       0.141389
     1384.200000       0.146318
     1384.300000       0.151256
     1384.400000       0.156186
     1384.500000       0.161116
     1384.600000       0.166046
     1384.700000       0.170975
     1384.800000       0.175912
     1384.900000       0.180842
     1385.000000       0.185773
     1385.100000       0.190703
     1385.200000       0.195632
     1385.300000       0.200570
     1385.400000       0.205499
     1385.500000       0.210429
     1385.600000       0.215359
     1385.700000       0.220289
     1385.800000       0.225227
     1385.900000       0.230156
     1386.000000       0.235086
     1386.100000       0.240016
     1386.200000       0.244946
     1386.300000       0.249884
     1386.400000       0.254813
     1386.500000       0.259743
     1386.600000       0.264673
     1386.700000       0.269602
     1386.800000       0.274540
     1386.900000       0.279470
     1387.000000       0.284400
     1387.100000       0.289330
     1387.200000       0.294260
     1387.300000       0.299197
     1387.400000       0.304126
     1387.500000       0.309056
     1387.600000       0.313987
     1387.700000       0.318917
     1387.800000       0.323854
     1387.900000       0.328783
     1388.000000       0.333713
     1388.100000       0.338643
     1388.200000       0.343573
     1388.300000       0.348511
     1388.400000       0.353440
     1388.500000       0.358370
     1388.600000       0.363301
     1388.700000       0.368230
     1388.800000       0.373165
     1388.900000       0.378095
     1389.000000       0.383204
     1389.100000       0.388469
     1389.200000       0.393716
     1389.300000       0.398971
     1389.400000       0.404218
     1389.500000       0.409466
     1389.600000       0.414713
     1389.700000       0.419959
     1389.800000       0.425215
     1389.900000       0.430461
     1390.000000       0.435709
     1390.100000       0.440956
     1390.200000       0.446203
     1390.300000       0.451459
     1390.400000       0.456705
     1390.500000       0.461952
     1390.600000       0.467199
     1390.700000       0.472446
     1390.800000       0.477702
     1390.900000       0.482949
     1391.000000       0.488196
     1391.100000       0.493444
     1391.200000       0.498690
     1391.300000       0.503946
     1391.400000       0.509193
     1391.500000       0.514440
     1391.600000       0.519687
     1391.700000       0.524933
     1391.800000       0.530189
     1391.900000       0.535436
     1392.000000       0.540683
     1392.100000       0.545931
     1392.200000       0.551178
     1392.300000       0.556433
     1392.400000       0.561679
     1392.500000       0.566926
     1392.600000       0.572174
     1392.700000       0.577421
     1392.800000       0.582676
     1392.900000       0.587923
     1393.000000       0.593171
     1393.100000       0.598418
     1393.200000       0.603664
     1393.300000       0.608919
     1393.400000       0.614166
     1393.500000       0.619414
     1393.600000       0.624661
     1393.700000       0.629908
     1393.800000       0.635163
     1393.900000       0.640410
     1394.000000       0.645658
     1394.100000       0.650905
     1394.200000       0.656151
     1394.300000       0.661407
     1394.400000       0.666653
     1394.500000       0.671901
     1394.600000       0.677149
     1394.700000       0.682685
     1394.800000       0.685563
     1394.900000       0.685779
     1395.000000       0.686291
     1395.100000       0.686802
     1395.200000       0.687314
     1395.300000       0.687827
     1395.400000       0.688339
     1395.500000       0.688851
     1395.600000       0.689362
     1395.700000       0.689874
     1395.800000       0.690387
     1395.900000       0.690898
     1396.000000       0.691410
     1396.100000       0.691922
     1396.200000       0.692434
     1396.300000       0.692947
     1396.400000       0.693458
     1396.500000       0.693970
     1396.600000       0.694482
     1396.700000       0.694994
     1396.800000       0.695506
     1396.900000       0.696018
     1397.000000       0.696530
     1397.100000       0.697041
     1397.200000       0.697553
     1397.300000       0.698066
     1397.400000       0.698577
     1397.500000       0.699090
     1397.600000       0.699601
     1397.700000       0.700113
     1397.800000       0.700626
     1397.900000       0.701137
     1398.000000       0.701650
     1398.100000       0.702161
     1398.200000       0.702673
     1398.300000       0.703186
     1398.400000       0.703698
     1398.500000       0.704209
     1398.600000       0.704720
     1398.700000       0.705232
     1398.800000       0.705745
     1398.900000       0.706256
     1399.000000       0.706769
     1399.100000       0.707280
     1399.200000       0.707792
     1399.300000       0.708305
     1399.400000       0.708816
     1399.500000       0.709329
     1399.600000       0.709841
     1399.700000       0.710352
     1399.800000       0.710865
     1399.900000       0.711377
     1400.000000       0.711888
     1400.100000       0.712400
     1400.200000       0.712912
     1400.300000       0.713424
     1400.400000       0.713936
     1400.500000       0.714461
     1400.600000       0.714892
     1400.700000       0.715044
     1400.800000       0.715043
     1400.900000       0.715059
     1401.000000       0.715077
     1401.100000       0.715094
     1401.200000       0.715110
     1401.300000       0.715128
     1401.400000       0.715144
     1401.500000       0.715160
     1401.600000       0.715178
     1401.700000       0.715194
     1401.800000       0.715212
     1401.900000       0.715229
     1402.000000       0.715245
     1402.100000       0.715263
     1402.200000       0.715279
     1402.300000       0.715297
     1402.400000       0.715314
     1402.500000       0.715331
     1402.600000       0.715347
     1402.700000       0.715364
     1402.800000       0.715380
     1402.900000       0.715398
     1403.000000       0.715414
     1403.100000       0.715431
     1403.200000       0.715449
     1403.300000       0.715465
     1403.400000       0.715483
     1403.500000       0.715499
     1403.600000       0.715516
     1403.700000       0.715534
     1403.800000       0.715551
     1403.900000       0.715567
     1404.000000       0.715584
     1404.100000       0.715600
     1404.200000       0.715618
     1404.300000       0.715634
     1404.400000       0.715651
     1404.500000       0.715669
     1404.600000       0.715685
     1404.700000       0.715703
     1404.800000       0.715719
     1404.900000       0.715736
     1405.000000       0.715754
     1405.100000       0.715771
     1405.200000       0.715787
     1405.300000       0.715804
     1405.400000       0.715820
     1405.500000       0.715838
     1405.600000       0.715854
     1405.700000       0.715871
     1405.800000       0.715889
     1405.900000       0.715905
     1406.000000       0.715923
     1406.100000       0.715939
     1406.200000       0.715956
     1406.300000       0.715974
     1406.400000       0.715988
     1406.500000       0.716021
     1406.600000       0.716139
     1406.700000       0.716313
     1406.800000       0.716481
     1406.900000       0.716649
     1407.000000       0.716817
     1407.100000       0.716985
     1407.200000       0.717152
     1407.300000       0.717320
     1407.400000       0.717488
     1407.500000       0.717656
     1407.600000       0.717824
     1407.700000       0.717991
     1407.800000       0.718159
     1407.900000       0.718327
     1408.000000       0.718495
     1408.100000       0.718663
     1408.200000       0.718830
     1408.300000       0.718998
     1408.400000       0.719166
     1408.500000       0.719334
     1408.600000       0.719502
     1408.700000       0.719669
     1408.800000       0.719837
     1408.900000       0.720005
     1409.000000       0.720173
     1409.100000       0.720341
     1409.200000       0.720508
     1409.300000       0.720676
     1409.400000       0.720844
     1409.500000       0.721012
     1409.600000       0.721180
     1409.700000       0.721347
     1409.800000       0.721515
     1409.900000       0.721683
     1410.000000       0.721851
     1410.100000       0.722019
     1410.200000       0.722186
     1410.300000       0.722354
     1410.400000       0.722522
     1410.500000       0.722690
     1410.600000       0.722858
     1410.700000       0.723025
     1410.800000       0.723193
     1410.900000       0.723361
     1411.000000       0.723529
     1411.100000       0.723697
     1411.200000       0.723864
     1411.300000       0.724032
     1411.400000       0.724200
     1411.500000       0.724368
     1411.600000       0.724536
     1411.700000       0.724703
     1411.800000       0.724871
     1411.900000       0.725039
     1412.000000       0.725207
     1412.100000       0.725375
     1412.200000       0.725542
     1412.300000       0.725710
     1412.400000       0.725886
     1412.500000       0.725992
     1412.600000       0.725994
     1412.700000       0.725974
     1412.800000       0.725957
     1412.900000       0.725941
     1413.000000       0.725924
     1413.100000       0.725907
     1413.200000       0.725891
     1413.300000       0.725873
     1413.400000       0.725857
     1413.500000       0.725841
     1413.600000       0.725824
     1413.700000       0.725808
     1413.800000       0.725791
     1413.900000       0.725774
     1414.000000       0.725758
     1414.100000       0.725741
     1414.200000       0.725724
     1414.300000       0.725708
     1414.400000       0.725691
     1414.500000       0.725674
     1414.600000       0.725658
     1414.700000       0.725641
     1414.800000       0.725625
     1414.900000       0.725607
     1415.000000       0.725591
     1415.100000       0.725575
     1415.200000       0.725557
     1415.300000       0.725541
     1415.400000       0.725525
     1415.500000       0.725507
     1415.600000       0.725491
     1415.700000       0.725475
     1415.800000       0.725457
     1415.900000       0.725441
     1416.000000       0.725425
     1416.100000       0.725408
     1416.200000       0.725392
     1416.300000       0.725375
     1416.400000       0.725358
     1416.500000       0.725342
     1416.600000       0.725325
     1416.700000       0.725308
     1416.800000       0.725292
     1416.900000       0.725275
     1417.000000       0.725258
     1417.100000       0.725242
     1417.200000       0.725225
     1417.300000       0.725209
     1417.400000       0.725191
     1417.500000       0.725175
     1417.600000       0.725159
     1417.700000       0.725141
     1417.800000       0.725125
     1417.900000       0.725109
     1418.000000       0.725091
     1418.100000       0.725075
     1418.200000       0.725059
     1418.300000       0.725042
     1418.400000       0.725030
     1418.500000       0.724981
     1418.600000       0.724867
     1418.700000       0.724732
     1418.800000       0.724600
     1418.900000       0.724468
     1419.000000       0.724336
     1419.100000       0.724205
     1419.200000       0.724073
     1419.300000       0.723940
     1419.400000       0.723809
     1419.500000       0.723677
     1419.600000       0.723545
     1419.700000       0.723413
     1419.800000       0.723280
     1419.900000       0.723149
     1420.000000       0.723017
     1420.100000       0.722885
     1420.200000       0.722753
     1420.300000       0.722621
     1420.400000       0.722489
     1420.500000       0.722357
     1420.600000       0.722225
     1420.700000       0.722093
     1420.800000       0.721961
     1420.900000       0.721829
     1421.000000       0.721697
     1421.100000       0.721565
     1421.200000       0.721433
     1421.300000       0.721301
     1421.400000       0.721169
     1421.500000       0.721037
     1421.600000       0.720905
     1421.700000       0.720773
     1421.800000       0.720641
     1421.900000       0.720509
     1422.000000       0.720377
     1422.100000       0.720245
     1422.200000       0.720113
     1422.300000       0.719981
     1422.400000       0.719849
     1422.500000       0.719717
     1422.600000       0.719585
     1422.700000       0.719453
     1422.800000       0.719321
     1422.900000       0.719189
     1423.000000       0.719057
     1423.100000       0.718925
     1423.200000       0.718793
     1423.300000       0.718661
     1423.400000       0.718529
     1423.500000       0.718397
     1423.600000       0.718266
     1423.700000       0.718134
     1423.800000       0.718001
     1423.900000       0.717870
     1424.000000       0.717738
     1424.100000       0.717606
     1424.200000       0.717474
     1424.300000       0.717341
     1424.400000       0.717210
     1424.500000       0.717046
     1424.600000       0.717172
     1424.700000       0.717594
     1424.800000       0.717988
     1424.900000       0.718380
     1425.000000       0.718773
     1425.100000       0.719165
     1425.200000       0.719557
     1425.300000       0.719951
     1425.400000       0.720343
     1425.500000       0.720736
     1425.600000       0.721128
     1425.700000       0.721521
     1425.800000       0.721914
     1425.900000       0.722306
     1426.000000       0.722699
     1426.100000       0.723091
     1426.200000       0.723483
     1426.300000       0.723877
     1426.400000       0.724269
     1426.500000       0.724662
     1426.600000       0.725054
     1426.700000       0.725447
     1426.800000       0.725839
     1426.900000       0.726232
     1427.000000       0.726624
     1427.100000       0.727017
     1427.200000       0.727409
     1427.300000       0.727802
     1427.400000       0.728194
     1427.500000       0.728587
     1427.600000       0.728979
     1427.700000       0.729371
     1427.800000       0.729765
     1427.900000       0.730157
     1428.000000       0.730550
     1428.100000       0.730942
     1428.200000       0.731334
     1428.300000       0.731728
     1428.400000       0.732120
     1428.500000       0.732513
     1428.600000       0.732905
     1428.700000       0.733298
     1428.800000       0.733691
     1428.900000       0.734083
     1429.000000       0.734476
     1429.100000       0.734868
     1429.200000       0.735261
     1429.300000       0.735654
     1429.400000       0.736046
     1429.500000       0.736438
     1429.600000       0.736830
     1429.700000       0.737223
     1429.800000       0.737616
     1429.900000       0.738008
     1430.000000       0.738401
     1430.100000       0.738793
     1430.200000       0.739186
     1430.300000       0.739579
     1430.400000       0.739971
     1430.500000       0.740364
     1430.600000       0.740751
     1430.700000       0.741183
     1430.800000       0.741668
     1430.900000       0.742155
     1431.000000       0.742642
     1431.100000       0.743128
     1431.200000       0.743615
     1431.300000       0.744102
     1431.400000       0.744588
     1431.500000       0.745074
     1431.600000       0.745560
     1431.700000       0.746047
     1431.800000       0.746534
     1431.900000       0.747020
     1432.000000       0.747507
     1432.100000       0.747993
     1432.200000       0.748480
     1432.300000       0.748967
     1432.400000       0.749453
     1432.500000       0.749939
     1432.600000       0.750425
     1432.700000       0.750912
     1432.800000       0.751399
     1432.900000       0.751885
     1433.000000       0.752372
     1433.100000       0.752858
     1433.200000       0.753345
     1433.300000       0.753832
     1433.400000       0.754318
     1433.500000       0.754804
     1433.600000       0.755291
     1433.700000       0.755777
     1433.800000       0.756264
