  10  ,noaa_11_hirs_10.flt
Number of data points:
101
Wavenumber (cm-1)   Filter response
      750.480000       0.000000
      751.490000       0.000000
      752.500000       0.000000
      753.510000       0.000000
      754.520000       0.000000
      755.530000       0.000000
      756.550000       0.000000
      757.560000       0.000000
      758.570000       0.000000
      759.580000       0.000000
      760.590000       0.000000
      761.600000       0.000000
      762.610000       0.000000
      763.630000       0.000000
      764.640000       0.000000
      765.660000       0.000000
      766.680000       0.000000
      767.690000       0.000000
      768.710000       0.000000
      769.720000       0.001189
      770.730000       0.000431
      771.740000       0.003030
      772.740000       0.003141
      773.750000       0.005948
      774.760000       0.008464
      775.760000       0.008596
      776.780000       0.015888
      777.780000       0.016087
      778.790000       0.021045
      779.790000       0.034333
      780.750000       0.048430
      781.750000       0.065232
      782.750000       0.100440
      783.740000       0.145140
      784.710000       0.200370
      785.690000       0.303450
      786.680000       0.420860
      787.640000       0.584130
      788.590000       0.731200
      789.470000       0.865620
      790.410000       0.955170
      791.400000       0.994600
      792.400000       0.997160
      793.400000       1.000000
      794.400000       0.995880
      795.410000       0.984370
      796.420000       0.971350
      797.430000       0.953150
      798.430000       0.924360
      799.520000       0.869920
      800.490000       0.823010
      801.520000       0.752100
      802.580000       0.671230
      803.600000       0.573910
      804.650000       0.458390
      805.700000       0.359640
      806.770000       0.266390
      807.790000       0.189580
      808.800000       0.138860
      809.800000       0.114000
      810.810000       0.076771
      811.780000       0.058851
      812.750000       0.049098
      813.730000       0.037222
      814.700000       0.022000
      815.680000       0.008690
      816.660000       0.008630
      817.640000       0.006385
      818.610000       0.006320
      819.590000       0.006261
      820.600000       0.006926
      821.590000       0.006872
      822.590000       0.004814
      823.580000       0.000518
      824.570000       0.000444
      825.560000       0.000370
      826.570000       0.000294
      827.560000       0.000219
      828.550000       0.000143
      829.540000       0.000066
      830.540000       0.000193
      831.550000       0.000174
      832.550000       0.000155
      833.550000       0.000136
      834.550000       0.000117
      835.550000       0.000097
      836.570000       0.000077
      837.570000       0.000057
      838.570000       0.000037
      839.570000       0.000017
      840.560000       0.000276
      841.540000       0.000250
      842.520000       0.000223
      843.510000       0.000197
      844.490000       0.000169
      845.470000       0.000142
      846.470000       0.000114
      847.450000       0.000086
      848.430000       0.000058
      849.420000       0.000029
      850.640000       0.000000
