11,   11, MVIRI VIS channel from srf_MET5_1992213_1992214_1801-Release_S10EL_10.dat
Number of data points:
806
Wavenumber (cm-1)   Filter response
     8350.730700       0.000000
     8357.710000       0.000000
     8364.701000       0.000000
     8371.703600       0.000001
     8378.718100       0.000004
     8385.744200       0.000009
     8392.782200       0.000016
     8399.832000       0.000026
     8406.893700       0.000040
     8413.967200       0.000058
     8421.052600       0.000080
     8428.150000       0.000108
     8435.259400       0.000140
     8442.380800       0.000179
     8449.514200       0.000224
     8456.659600       0.000275
     8463.817200       0.000334
     8470.986900       0.000400
     8478.168700       0.000474
     8485.362700       0.000556
     8492.569000       0.000646
     8499.787500       0.000745
     8507.018300       0.000853
     8514.261400       0.000971
     8521.516800       0.001098
     8528.784600       0.001235
     8536.064900       0.001382
     8543.357500       0.001540
     8550.662700       0.001709
     8557.980300       0.001888
     8565.310500       0.002079
     8572.653200       0.002281
     8580.008600       0.002495
     8587.376600       0.002721
     8594.757200       0.002959
     8602.150500       0.003209
     8609.556600       0.003472
     8616.975400       0.003747
     8624.407100       0.004036
     8631.851500       0.004337
     8639.308900       0.004652
     8646.779100       0.004980
     8654.262200       0.005322
     8661.758300       0.005678
     8669.267400       0.006047
     8676.789600       0.006431
     8684.324800       0.006829
     8691.873100       0.007241
     8699.434500       0.007668
     8707.009100       0.008109
     8714.596900       0.008565
     8722.198000       0.009037
     8729.812300       0.009523
     8737.439900       0.010025
     8745.080900       0.010541
     8752.735200       0.011074
     8760.403000       0.011622
     8768.084200       0.012186
     8775.778900       0.012765
     8783.487000       0.013361
     8791.208800       0.013973
     8798.944100       0.014601
     8806.693100       0.015245
     8814.455700       0.015906
     8822.232000       0.016583
     8830.022100       0.017277
     8837.825900       0.017988
     8845.643500       0.018716
     8853.475000       0.019460
     8861.320300       0.020222
     8869.179600       0.021001
     8877.052800       0.021798
     8884.940000       0.022612
     8892.841300       0.023443
     8900.756600       0.024293
     8908.686000       0.025160
     8916.629500       0.026044
     8924.587200       0.026947
     8932.559200       0.027868
     8940.545400       0.028807
     8948.545900       0.029765
     8956.560700       0.030740
     8964.589900       0.031735
     8972.633500       0.032747
     8980.691500       0.033779
     8988.764000       0.034830
     8996.851100       0.035899
     9004.952700       0.036987
     9013.068900       0.038095
     9021.199800       0.039222
     9029.345400       0.040368
     9037.505600       0.041533
     9045.680700       0.042718
     9053.870500       0.043923
     9062.075200       0.045147
     9070.294800       0.046391
     9078.529300       0.047655
     9086.778700       0.048939
     9095.043200       0.050244
     9103.322700       0.051568
     9111.617300       0.052913
     9119.927000       0.054277
     9128.251900       0.055663
     9136.592100       0.057069
     9144.947400       0.058496
     9153.318100       0.059944
     9161.704100       0.061412
     9170.105500       0.062902
     9178.522300       0.064412
     9186.954500       0.065944
     9195.402300       0.067497
     9203.865600       0.069071
     9212.344500       0.070667
     9220.839100       0.072284
     9229.349300       0.073922
     9237.875300       0.075583
     9246.417000       0.077265
     9254.974500       0.078968
     9263.547900       0.080694
     9272.137200       0.082442
     9280.742500       0.084212
     9289.363700       0.086004
     9298.000900       0.087818
     9306.654300       0.089654
     9315.323700       0.091513
     9324.009300       0.093394
     9332.711200       0.095298
     9341.429200       0.097224
     9350.163600       0.099173
     9358.914400       0.101144
     9367.681500       0.103139
     9376.465100       0.105156
     9385.265100       0.107195
     9394.081700       0.109258
     9402.914900       0.111344
     9411.764700       0.113452
     9420.631200       0.115584
     9429.514400       0.117739
     9438.414300       0.119917
     9447.331100       0.122118
     9456.264800       0.124342
     9465.215300       0.126590
     9474.182900       0.128861
     9483.167400       0.131155
     9492.169000       0.133472
     9501.187600       0.135813
     9510.223500       0.138177
     9519.276500       0.140565
     9528.346800       0.142976
     9537.434400       0.145410
     9546.539400       0.147868
     9555.661700       0.150349
     9564.801500       0.152854
     9573.958800       0.155382
     9583.133700       0.157934
     9592.326100       0.160509
     9601.536200       0.163107
     9610.764100       0.165729
     9620.009600       0.168374
     9629.273000       0.171043
     9638.554200       0.173735
     9647.853400       0.176450
     9657.170400       0.179188
     9666.505600       0.181950
     9675.858700       0.184735
     9685.230000       0.187543
     9694.619500       0.190375
     9704.027200       0.193229
     9713.453100       0.196106
     9722.897400       0.199007
     9732.360100       0.201930
     9741.841200       0.204876
     9751.340800       0.207845
     9760.859000       0.210837
     9770.395700       0.213851
     9779.951100       0.216888
     9789.525200       0.219948
     9799.118100       0.223029
     9808.729800       0.226133
     9818.360300       0.229260
     9828.009800       0.232408
     9837.678300       0.235578
     9847.365800       0.238771
     9857.072400       0.241984
     9866.798200       0.245220
     9876.543200       0.248477
     9886.307500       0.251756
     9896.091000       0.255056
     9905.894000       0.258377
     9915.716400       0.261720
     9925.558300       0.265082
     9935.419800       0.268466
     9945.300800       0.271871
     9955.201600       0.275296
     9965.122100       0.278741
     9975.062300       0.282206
     9985.022500       0.285691
     9995.002500       0.289197
    10005.002500       0.292721
    10015.022500       0.296265
    10025.062700       0.299829
    10035.122900       0.303411
    10045.203400       0.307012
    10055.304200       0.310633
    10065.425300       0.314271
    10075.566800       0.317928
    10085.728700       0.321603
    10095.911200       0.325296
    10106.114200       0.329006
    10116.337900       0.332734
    10126.582300       0.336479
    10136.847400       0.340241
    10147.133400       0.344020
    10157.440300       0.347816
    10167.768200       0.351627
    10178.117000       0.355455
    10188.487000       0.359299
    10198.878100       0.363158
    10209.290500       0.367032
    10219.724100       0.370922
    10230.179000       0.374826
    10240.655400       0.378745
    10251.153300       0.382678
    10261.672700       0.386625
    10272.213700       0.390586
    10282.776300       0.394560
    10293.360800       0.398547
    10303.967000       0.402547
    10314.595200       0.406560
    10325.245200       0.410585
    10335.917300       0.414622
    10346.611500       0.418670
    10357.327800       0.422730
    10368.066400       0.426801
    10378.827200       0.430883
    10389.610400       0.434975
    10400.416000       0.439077
    10411.244100       0.443189
    10422.094800       0.447311
    10432.968200       0.451441
    10443.864200       0.455581
    10454.783100       0.459729
    10465.724800       0.463885
    10476.689400       0.468049
    10487.677000       0.472220
    10498.687700       0.476399
    10509.721500       0.480584
    10520.778500       0.484775
    10531.858900       0.488973
    10542.962600       0.493177
    10554.089700       0.497385
    10565.240400       0.501599
    10576.414600       0.505818
    10587.612500       0.510040
    10598.834100       0.514267
    10610.079600       0.518497
    10621.348900       0.522731
    10632.642200       0.526967
    10643.959600       0.531206
    10655.301000       0.535446
    10666.666700       0.539689
    10678.056600       0.543932
    10689.470900       0.548177
    10700.909600       0.552422
    10712.372800       0.556667
    10723.860600       0.560913
    10735.373100       0.565157
    10746.910300       0.569401
    10758.472300       0.573643
    10770.059200       0.577883
    10781.671200       0.582121
    10793.308100       0.586357
    10804.970300       0.590590
    10816.657700       0.594819
    10828.370300       0.599044
    10840.108400       0.603266
    10851.871900       0.607483
    10863.661100       0.611695
    10875.475800       0.615902
    10887.316300       0.620103
    10899.182600       0.624297
    10911.074700       0.628486
    10922.992900       0.632667
    10934.937100       0.636842
    10946.907500       0.641008
    10958.904100       0.645166
    10970.927000       0.649316
    10982.976400       0.653457
    10995.052200       0.657589
    11007.154700       0.661711
    11019.283700       0.665823
    11031.439600       0.669924
    11043.622300       0.674015
    11055.832000       0.678094
    11068.068600       0.682162
    11080.332400       0.686217
    11092.623400       0.690260
    11104.941700       0.694291
    11117.287400       0.698308
    11129.660500       0.702311
    11142.061300       0.706301
    11154.489700       0.710276
    11166.945800       0.714236
    11179.429800       0.718181
    11191.941800       0.722111
    11204.481800       0.726024
    11217.049900       0.729922
    11229.646300       0.733802
    11242.270900       0.737666
    11254.924000       0.741512
    11267.605600       0.745341
    11280.315800       0.749151
    11293.054800       0.752943
    11305.822500       0.756716
    11318.619100       0.760469
    11331.444800       0.764203
    11344.299500       0.767917
    11357.183400       0.771611
    11370.096600       0.775284
    11383.039300       0.778936
    11396.011400       0.782567
    11409.013100       0.786176
    11422.044500       0.789763
    11435.105800       0.793327
    11448.196900       0.796869
    11461.318100       0.800388
    11474.469300       0.803883
    11487.650800       0.807355
    11500.862600       0.810803
    11514.104800       0.814226
    11527.377500       0.817625
    11540.680900       0.820998
    11554.015000       0.824347
    11567.380000       0.827670
    11580.775900       0.830967
    11594.202900       0.834237
    11607.661100       0.837482
    11621.150500       0.840700
    11634.671300       0.843890
    11648.223600       0.847053
    11661.807600       0.850189
    11675.423200       0.853297
    11689.070700       0.856376
    11702.750100       0.859428
    11716.461600       0.862450
    11730.205300       0.865444
    11743.981200       0.868409
    11757.789500       0.871344
    11771.630400       0.874249
    11785.503800       0.877125
    11799.410000       0.879970
    11813.349100       0.882786
    11827.321100       0.885570
    11841.326200       0.888324
    11855.364600       0.891047
    11869.436200       0.893739
    11883.541300       0.896399
    11897.680000       0.899028
    11911.852300       0.901625
    11926.058400       0.904190
    11940.298500       0.906723
    11954.572600       0.909224
    11968.880900       0.911692
    11983.223500       0.914127
    11997.600500       0.916530
    12012.012000       0.918900
    12026.458200       0.921236
    12040.939200       0.923539
    12055.455100       0.925809
    12070.006000       0.928046
    12084.592100       0.930249
    12099.213600       0.932418
    12113.870400       0.934553
    12128.562800       0.936654
    12143.290800       0.938721
    12158.054700       0.940754
    12172.854500       0.942752
    12187.690400       0.944716
    12202.562500       0.946646
    12217.471000       0.948541
    12232.415900       0.950402
    12247.397400       0.952228
    12262.415700       0.954019
    12277.470800       0.955775
    12292.563000       0.957497
    12307.692300       0.959184
    12322.858900       0.960836
    12338.062900       0.962453
    12353.304500       0.964035
    12368.583800       0.965582
    12383.900900       0.967094
    12399.256000       0.968571
    12414.649300       0.970014
    12430.080800       0.971421
    12445.550700       0.972793
    12461.059200       0.974131
    12476.606400       0.975433
    12492.192400       0.976701
    12507.817400       0.977934
    12523.481500       0.979132
    12539.185000       0.980296
    12554.927800       0.981425
    12570.710200       0.982519
    12586.532400       0.983579
    12602.394500       0.984604
    12618.296500       0.985595
    12634.238800       0.986552
    12650.221400       0.987474
    12666.244500       0.988363
    12682.308200       0.989217
    12698.412700       0.990038
    12714.558200       0.990825
    12730.744700       0.991578
    12746.972600       0.992298
    12763.241900       0.992985
    12779.552700       0.993638
    12795.905300       0.994258
    12812.299800       0.994845
    12828.736400       0.995400
    12845.215200       0.995922
    12861.736300       0.996412
    12878.300100       0.996869
    12894.906500       0.997294
    12911.555800       0.997688
    12928.248200       0.998050
    12944.983800       0.998380
    12961.762800       0.998679
    12978.585300       0.998947
    12995.451600       0.999184
    13012.361700       0.999391
    13029.316000       0.999567
    13046.314400       0.999713
    13063.357300       0.999829
    13080.444700       0.999915
    13097.576900       0.999972
    13114.754100       1.000000
    13131.976400       0.999999
    13149.243900       0.999969
    13166.556900       0.999911
    13183.915600       0.999824
    13201.320100       0.999710
    13218.770700       0.999568
    13236.267400       0.999399
    13253.810500       0.999203
    13271.400100       0.998980
    13289.036500       0.998731
    13306.719900       0.998456
    13324.450400       0.998155
    13342.228200       0.997828
    13360.053400       0.997477
    13377.926400       0.997100
    13395.847300       0.996699
    13413.816200       0.996274
    13431.833400       0.995825
    13449.899100       0.995352
    13468.013500       0.994856
    13486.176700       0.994338
    13504.388900       0.993797
    13522.650400       0.993233
    13540.961400       0.992648
    13559.322000       0.992042
    13577.732500       0.991415
    13596.193100       0.990766
    13614.703900       0.990098
    13633.265200       0.989410
    13651.877100       0.988702
    13670.540000       0.987974
    13689.253900       0.987228
    13708.019200       0.986464
    13726.836000       0.985682
    13745.704500       0.984882
    13764.624900       0.984064
    13783.597500       0.983230
    13802.622500       0.982379
    13821.700100       0.981512
    13840.830400       0.980630
    13860.013900       0.979732
    13879.250500       0.978819
    13898.540700       0.977892
    13917.884500       0.976951
    13937.282200       0.975996
    13956.734100       0.975028
    13976.240400       0.974047
    13995.801300       0.973054
    14015.417000       0.972048
    14035.087700       0.971031
    14054.813800       0.970003
    14074.595400       0.968964
    14094.432700       0.967915
    14114.326000       0.966856
    14134.275600       0.965787
    14154.281700       0.964709
    14174.344400       0.963623
    14194.464200       0.962528
    14214.641100       0.961425
    14234.875400       0.960315
    14255.167500       0.959198
    14275.517500       0.958075
    14295.925700       0.956945
    14316.392300       0.955809
    14336.917600       0.954669
    14357.501800       0.953523
    14378.145200       0.952373
    14398.848100       0.951218
    14419.610700       0.950060
    14440.433200       0.948899
    14461.316000       0.947735
    14482.259200       0.946568
    14503.263200       0.945399
    14524.328200       0.944229
    14545.454500       0.943057
    14566.642400       0.941885
    14587.892000       0.940712
    14609.203800       0.939539
    14630.577900       0.938367
    14652.014700       0.937195
    14673.514300       0.936025
    14695.077100       0.934856
    14716.703500       0.933688
    14738.393500       0.932524
    14760.147600       0.931361
    14781.966000       0.930202
    14803.849000       0.929047
    14825.796900       0.927895
    14847.809900       0.926747
    14869.888500       0.925604
    14892.032800       0.924466
    14914.243100       0.923332
    14936.519800       0.922205
    14958.863100       0.921083
    14981.273400       0.919968
    15003.750900       0.918859
    15026.296000       0.917758
    15048.909000       0.916663
    15071.590100       0.915576
    15094.339600       0.914497
    15117.158000       0.913426
    15140.045400       0.912364
    15163.002300       0.911311
    15186.028900       0.910266
    15209.125500       0.909232
    15232.292500       0.908206
    15255.530100       0.907191
    15278.838800       0.906186
    15302.218800       0.905192
    15325.670500       0.904209
    15349.194200       0.903236
    15372.790200       0.902275
    15396.458800       0.901325
    15420.200500       0.900387
    15444.015400       0.899462
    15467.904100       0.898548
    15491.866800       0.897647
    15515.903800       0.896758
    15540.015500       0.895883
    15564.202300       0.895020
    15588.464500       0.894171
    15612.802500       0.893336
    15637.216600       0.892513
    15661.707100       0.891705
    15686.274500       0.890911
    15710.919100       0.890130
    15735.641200       0.889364
    15760.441300       0.888613
    15785.319700       0.887875
    15810.276700       0.887153
    15835.312700       0.886445
    15860.428200       0.885752
    15885.623500       0.885074
    15910.899000       0.884411
    15936.255000       0.883763
    15961.691900       0.883131
    15987.210200       0.882513
    16012.810200       0.881911
    16038.492400       0.881324
    16064.257000       0.880752
    16090.104600       0.880196
    16116.035500       0.879656
    16142.050000       0.879130
    16168.148700       0.878620
    16194.332000       0.878126
    16220.600200       0.877646
    16246.953700       0.877182
    16273.393000       0.876734
    16299.918500       0.876300
    16326.530600       0.875882
    16353.229800       0.875479
    16380.016400       0.875091
    16406.890900       0.874717
    16433.853700       0.874359
    16460.905300       0.874015
    16488.046200       0.873686
    16515.276600       0.873371
    16542.597200       0.873071
    16570.008300       0.872785
    16597.510400       0.872512
    16625.103900       0.872254
    16652.789300       0.872009
    16680.567100       0.871777
    16708.437800       0.871559
    16736.401700       0.871354
    16764.459300       0.871162
    16792.611300       0.870982
    16820.857900       0.870814
    16849.199700       0.870658
    16877.637100       0.870514
    16906.170800       0.870382
    16934.801000       0.870261
    16963.528400       0.870150
    16992.353400       0.870051
    17021.276600       0.869961
    17050.298400       0.869881
    17079.419300       0.869811
    17108.639900       0.869750
    17137.960600       0.869698
    17167.382000       0.869655
    17196.904600       0.869619
    17226.528900       0.869591
    17256.255400       0.869570
    17286.084700       0.869556
