4,   4, MVIRI VIS channel from srf_MET5_1991258_1991259_1801-Release_S10EL_10.dat
Number of data points:
806
Wavenumber (cm-1)   Filter response
     8350.730700       0.000000
     8357.710000       0.000000
     8364.701000       0.000000
     8371.703600       0.000001
     8378.718100       0.000004
     8385.744200       0.000009
     8392.782200       0.000016
     8399.832000       0.000026
     8406.893700       0.000040
     8413.967200       0.000057
     8421.052600       0.000080
     8428.150000       0.000107
     8435.259400       0.000140
     8442.380800       0.000178
     8449.514200       0.000223
     8456.659600       0.000274
     8463.817200       0.000332
     8470.986900       0.000398
     8478.168700       0.000472
     8485.362700       0.000553
     8492.569000       0.000643
     8499.787500       0.000742
     8507.018300       0.000849
     8514.261400       0.000966
     8521.516800       0.001093
     8528.784600       0.001229
     8536.064900       0.001376
     8543.357500       0.001533
     8550.662700       0.001701
     8557.980300       0.001880
     8565.310500       0.002070
     8572.653200       0.002271
     8580.008600       0.002484
     8587.376600       0.002709
     8594.757200       0.002946
     8602.150500       0.003195
     8609.556600       0.003457
     8616.975400       0.003731
     8624.407100       0.004018
     8631.851500       0.004319
     8639.308900       0.004632
     8646.779100       0.004959
     8654.262200       0.005299
     8661.758300       0.005653
     8669.267400       0.006021
     8676.789600       0.006403
     8684.324800       0.006799
     8691.873100       0.007210
     8699.434500       0.007635
     8707.009100       0.008075
     8714.596900       0.008529
     8722.198000       0.008998
     8729.812300       0.009483
     8737.439900       0.009982
     8745.080900       0.010497
     8752.735200       0.011027
     8760.403000       0.011573
     8768.084200       0.012135
     8775.778900       0.012712
     8783.487000       0.013305
     8791.208800       0.013914
     8798.944100       0.014540
     8806.693100       0.015182
     8814.455700       0.015840
     8822.232000       0.016515
     8830.022100       0.017206
     8837.825900       0.017914
     8845.643500       0.018639
     8853.475000       0.019381
     8861.320300       0.020140
     8869.179600       0.020916
     8877.052800       0.021709
     8884.940000       0.022520
     8892.841300       0.023348
     8900.756600       0.024194
     8908.686000       0.025058
     8916.629500       0.025939
     8924.587200       0.026839
     8932.559200       0.027756
     8940.545400       0.028692
     8948.545900       0.029645
     8956.560700       0.030617
     8964.589900       0.031608
     8972.633500       0.032617
     8980.691500       0.033645
     8988.764000       0.034691
     8996.851100       0.035757
     9004.952700       0.036841
     9013.068900       0.037944
     9021.199800       0.039067
     9029.345400       0.040209
     9037.505600       0.041370
     9045.680700       0.042551
     9053.870500       0.043751
     9062.075200       0.044971
     9070.294800       0.046211
     9078.529300       0.047470
     9086.778700       0.048750
     9095.043200       0.050049
     9103.322700       0.051369
     9111.617300       0.052709
     9119.927000       0.054069
     9128.251900       0.055450
     9136.592100       0.056851
     9144.947400       0.058273
     9153.318100       0.059715
     9161.704100       0.061179
     9170.105500       0.062663
     9178.522300       0.064169
     9186.954500       0.065695
     9195.402300       0.067242
     9203.865600       0.068811
     9212.344500       0.070402
     9220.839100       0.072013
     9229.349300       0.073646
     9237.875300       0.075301
     9246.417000       0.076977
     9254.974500       0.078676
     9263.547900       0.080396
     9272.137200       0.082138
     9280.742500       0.083902
     9289.363700       0.085688
     9298.000900       0.087496
     9306.654300       0.089326
     9315.323700       0.091179
     9324.009300       0.093054
     9332.711200       0.094952
     9341.429200       0.096872
     9350.163600       0.098814
     9358.914400       0.100779
     9367.681500       0.102767
     9376.465100       0.104778
     9385.265100       0.106811
     9394.081700       0.108868
     9402.914900       0.110947
     9411.764700       0.113049
     9420.631200       0.115174
     9429.514400       0.117322
     9438.414300       0.119494
     9447.331100       0.121688
     9456.264800       0.123906
     9465.215300       0.126146
     9474.182900       0.128410
     9483.167400       0.130698
     9492.169000       0.133008
     9501.187600       0.135342
     9510.223500       0.137699
     9519.276500       0.140080
     9528.346800       0.142484
     9537.434400       0.144911
     9546.539400       0.147362
     9555.661700       0.149836
     9564.801500       0.152333
     9573.958800       0.154854
     9583.133700       0.157399
     9592.326100       0.159966
     9601.536200       0.162558
     9610.764100       0.165172
     9620.009600       0.167810
     9629.273000       0.170471
     9638.554200       0.173155
     9647.853400       0.175863
     9657.170400       0.178594
     9666.505600       0.181349
     9675.858700       0.184126
     9685.230000       0.186927
     9694.619500       0.189751
     9704.027200       0.192597
     9713.453100       0.195467
     9722.897400       0.198360
     9732.360100       0.201276
     9741.841200       0.204214
     9751.340800       0.207175
     9760.859000       0.210160
     9770.395700       0.213166
     9779.951100       0.216195
     9789.525200       0.219247
     9799.118100       0.222321
     9808.729800       0.225417
     9818.360300       0.228536
     9828.009800       0.231676
     9837.678300       0.234839
     9847.365800       0.238024
     9857.072400       0.241230
     9866.798200       0.244458
     9876.543200       0.247707
     9886.307500       0.250978
     9896.091000       0.254271
     9905.894000       0.257584
     9915.716400       0.260918
     9925.558300       0.264273
     9935.419800       0.267650
     9945.300800       0.271047
     9955.201600       0.274464
     9965.122100       0.277901
     9975.062300       0.281359
     9985.022500       0.284836
     9995.002500       0.288334
    10005.002500       0.291851
    10015.022500       0.295387
    10025.062700       0.298943
    10035.122900       0.302518
    10045.203400       0.306112
    10055.304200       0.309724
    10065.425300       0.313355
    10075.566800       0.317005
    10085.728700       0.320672
    10095.911200       0.324358
    10106.114200       0.328061
    10116.337900       0.331781
    10126.582300       0.335519
    10136.847400       0.339274
    10147.133400       0.343045
    10157.440300       0.346834
    10167.768200       0.350638
    10178.117000       0.354459
    10188.487000       0.358295
    10198.878100       0.362147
    10209.290500       0.366015
    10219.724100       0.369897
    10230.179000       0.373794
    10240.655400       0.377706
    10251.153300       0.381633
    10261.672700       0.385573
    10272.213700       0.389527
    10282.776300       0.393494
    10293.360800       0.397475
    10303.967000       0.401468
    10314.595200       0.405474
    10325.245200       0.409493
    10335.917300       0.413523
    10346.611500       0.417566
    10357.327800       0.421619
    10368.066400       0.425684
    10378.827200       0.429759
    10389.610400       0.433846
    10400.416000       0.437942
    10411.244100       0.442048
    10422.094800       0.446163
    10432.968200       0.450288
    10443.864200       0.454422
    10454.783100       0.458564
    10465.724800       0.462715
    10476.689400       0.466873
    10487.677000       0.471039
    10498.687700       0.475212
    10509.721500       0.479392
    10520.778500       0.483579
    10531.858900       0.487771
    10542.962600       0.491970
    10554.089700       0.496174
    10565.240400       0.500383
    10576.414600       0.504596
    10587.612500       0.508814
    10598.834100       0.513037
    10610.079600       0.517263
    10621.348900       0.521492
    10632.642200       0.525723
    10643.959600       0.529958
    10655.301000       0.534195
    10666.666700       0.538433
    10678.056600       0.542673
    10689.470900       0.546914
    10700.909600       0.551156
    10712.372800       0.555397
    10723.860600       0.559639
    10735.373100       0.563880
    10746.910300       0.568121
    10758.472300       0.572360
    10770.059200       0.576597
    10781.671200       0.580832
    10793.308100       0.585065
    10804.970300       0.589295
    10816.657700       0.593522
    10828.370300       0.597745
    10840.108400       0.601964
    10851.871900       0.606179
    10863.661100       0.610389
    10875.475800       0.614594
    10887.316300       0.618793
    10899.182600       0.622986
    10911.074700       0.627173
    10922.992900       0.631353
    10934.937100       0.635526
    10946.907500       0.639691
    10958.904100       0.643849
    10970.927000       0.647998
    10982.976400       0.652138
    10995.052200       0.656269
    11007.154700       0.660390
    11019.283700       0.664502
    11031.439600       0.668603
    11043.622300       0.672694
    11055.832000       0.676773
    11068.068600       0.680841
    11080.332400       0.684897
    11092.623400       0.688940
    11104.941700       0.692971
    11117.287400       0.696989
    11129.660500       0.700993
    11142.061300       0.704983
    11154.489700       0.708959
    11166.945800       0.712921
    11179.429800       0.716867
    11191.941800       0.720799
    11204.481800       0.724714
    11217.049900       0.728613
    11229.646300       0.732496
    11242.270900       0.736361
    11254.924000       0.740210
    11267.605600       0.744041
    11280.315800       0.747854
    11293.054800       0.751648
    11305.822500       0.755424
    11318.619100       0.759180
    11331.444800       0.762917
    11344.299500       0.766635
    11357.183400       0.770332
    11370.096600       0.774008
    11383.039300       0.777664
    11396.011400       0.781299
    11409.013100       0.784911
    11422.044500       0.788502
    11435.105800       0.792071
    11448.196900       0.795618
    11461.318100       0.799141
    11474.469300       0.802641
    11487.650800       0.806117
    11500.862600       0.809570
    11514.104800       0.812999
    11527.377500       0.816402
    11540.680900       0.819781
    11554.015000       0.823136
    11567.380000       0.826464
    11580.775900       0.829767
    11594.202900       0.833044
    11607.661100       0.836294
    11621.150500       0.839518
    11634.671300       0.842715
    11648.223600       0.845885
    11661.807600       0.849027
    11675.423200       0.852141
    11689.070700       0.855228
    11702.750100       0.858287
    11716.461600       0.861316
    11730.205300       0.864317
    11743.981200       0.867290
    11757.789500       0.870232
    11771.630400       0.873146
    11785.503800       0.876029
    11799.410000       0.878883
    11813.349100       0.881706
    11827.321100       0.884499
    11841.326200       0.887262
    11855.364600       0.889993
    11869.436200       0.892694
    11883.541300       0.895363
    11897.680000       0.898001
    11911.852300       0.900607
    11926.058400       0.903181
    11940.298500       0.905724
    11954.572600       0.908234
    11968.880900       0.910711
    11983.223500       0.913156
    11997.600500       0.915569
    12012.012000       0.917949
    12026.458200       0.920295
    12040.939200       0.922609
    12055.455100       0.924889
    12070.006000       0.927136
    12084.592100       0.929350
    12099.213600       0.931529
    12113.870400       0.933675
    12128.562800       0.935787
    12143.290800       0.937865
    12158.054700       0.939909
    12172.854500       0.941919
    12187.690400       0.943895
    12202.562500       0.945836
    12217.471000       0.947743
    12232.415900       0.949615
    12247.397400       0.951453
    12262.415700       0.953256
    12277.470800       0.955025
    12292.563000       0.956758
    12307.692300       0.958457
    12322.858900       0.960122
    12338.062900       0.961751
    12353.304500       0.963346
    12368.583800       0.964905
    12383.900900       0.966430
    12399.256000       0.967920
    12414.649300       0.969376
    12430.080800       0.970796
    12445.550700       0.972181
    12461.059200       0.973532
    12476.606400       0.974848
    12492.192400       0.976129
    12507.817400       0.977376
    12523.481500       0.978587
    12539.185000       0.979764
    12554.927800       0.980907
    12570.710200       0.982015
    12586.532400       0.983089
    12602.394500       0.984128
    12618.296500       0.985133
    12634.238800       0.986104
    12650.221400       0.987040
    12666.244500       0.987943
    12682.308200       0.988812
    12698.412700       0.989647
    12714.558200       0.990448
    12730.744700       0.991216
    12746.972600       0.991950
    12763.241900       0.992652
    12779.552700       0.993320
    12795.905300       0.993955
    12812.299800       0.994557
    12828.736400       0.995126
    12845.215200       0.995663
    12861.736300       0.996168
    12878.300100       0.996640
    12894.906500       0.997080
    12911.555800       0.997489
    12928.248200       0.997866
    12944.983800       0.998211
    12961.762800       0.998526
    12978.585300       0.998809
    12995.451600       0.999061
    13012.361700       0.999283
    13029.316000       0.999475
    13046.314400       0.999636
    13063.357300       0.999768
    13080.444700       0.999870
    13097.576900       0.999942
    13114.754100       0.999986
    13131.976400       1.000000
    13149.243900       0.999986
    13166.556900       0.999943
    13183.915600       0.999873
    13201.320100       0.999774
    13218.770700       0.999648
    13236.267400       0.999495
    13253.810500       0.999314
    13271.400100       0.999107
    13289.036500       0.998874
    13306.719900       0.998615
    13324.450400       0.998329
    13342.228200       0.998019
    13360.053400       0.997683
    13377.926400       0.997322
    13395.847300       0.996937
    13413.816200       0.996528
    13431.833400       0.996095
    13449.899100       0.995638
    13468.013500       0.995158
    13486.176700       0.994656
    13504.388900       0.994131
    13522.650400       0.993583
    13540.961400       0.993014
    13559.322000       0.992424
    13577.732500       0.991813
    13596.193100       0.991181
    13614.703900       0.990528
    13633.265200       0.989856
    13651.877100       0.989164
    13670.540000       0.988453
    13689.253900       0.987723
    13708.019200       0.986974
    13726.836000       0.986208
    13745.704500       0.985424
    13764.624900       0.984622
    13783.597500       0.983804
    13802.622500       0.982969
    13821.700100       0.982119
    13840.830400       0.981252
    13860.013900       0.980370
    13879.250500       0.979473
    13898.540700       0.978562
    13917.884500       0.977637
    13937.282200       0.976698
    13956.734100       0.975746
    13976.240400       0.974781
    13995.801300       0.973803
    14015.417000       0.972814
    14035.087700       0.971813
    14054.813800       0.970801
    14074.595400       0.969778
    14094.432700       0.968744
    14114.326000       0.967701
    14134.275600       0.966648
    14154.281700       0.965586
    14174.344400       0.964515
    14194.464200       0.963436
    14214.641100       0.962349
    14234.875400       0.961255
    14255.167500       0.960154
    14275.517500       0.959046
    14295.925700       0.957932
    14316.392300       0.956812
    14336.917600       0.955687
    14357.501800       0.954557
    14378.145200       0.953422
    14398.848100       0.952283
    14419.610700       0.951141
    14440.433200       0.949995
    14461.316000       0.948847
    14482.259200       0.947696
    14503.263200       0.946542
    14524.328200       0.945388
    14545.454500       0.944232
    14566.642400       0.943075
    14587.892000       0.941918
    14609.203800       0.940760
    14630.577900       0.939604
    14652.014700       0.938447
    14673.514300       0.937292
    14695.077100       0.936139
    14716.703500       0.934987
    14738.393500       0.933838
    14760.147600       0.932691
    14781.966000       0.931548
    14803.849000       0.930407
    14825.796900       0.929271
    14847.809900       0.928139
    14869.888500       0.927011
    14892.032800       0.925888
    14914.243100       0.924771
    14936.519800       0.923659
    14958.863100       0.922553
    14981.273400       0.921453
    15003.750900       0.920359
    15026.296000       0.919273
    15048.909000       0.918194
    15071.590100       0.917123
    15094.339600       0.916059
    15117.158000       0.915004
    15140.045400       0.913957
    15163.002300       0.912919
    15186.028900       0.911891
    15209.125500       0.910871
    15232.292500       0.909862
    15255.530100       0.908862
    15278.838800       0.907873
    15302.218800       0.906894
    15325.670500       0.905926
    15349.194200       0.904969
    15372.790200       0.904024
    15396.458800       0.903090
    15420.200500       0.902168
    15444.015400       0.901258
    15467.904100       0.900360
    15491.866800       0.899474
    15515.903800       0.898602
    15540.015500       0.897742
    15564.202300       0.896895
    15588.464500       0.896062
    15612.802500       0.895242
    15637.216600       0.894436
    15661.707100       0.893644
    15686.274500       0.892865
    15710.919100       0.892101
    15735.641200       0.891351
    15760.441300       0.890616
    15785.319700       0.889895
    15810.276700       0.889188
    15835.312700       0.888497
    15860.428200       0.887820
    15885.623500       0.887158
    15910.899000       0.886512
    15936.255000       0.885880
    15961.691900       0.885264
    15987.210200       0.884663
    16012.810200       0.884077
    16038.492400       0.883507
    16064.257000       0.882952
    16090.104600       0.882412
    16116.035500       0.881888
    16142.050000       0.881380
    16168.148700       0.880887
    16194.332000       0.880409
    16220.600200       0.879947
    16246.953700       0.879500
    16273.393000       0.879068
    16299.918500       0.878652
    16326.530600       0.878251
    16353.229800       0.877865
    16380.016400       0.877494
    16406.890900       0.877138
    16433.853700       0.876797
    16460.905300       0.876471
    16488.046200       0.876159
    16515.276600       0.875862
    16542.597200       0.875579
    16570.008300       0.875311
    16597.510400       0.875056
    16625.103900       0.874816
    16652.789300       0.874589
    16680.567100       0.874375
    16708.437800       0.874175
    16736.401700       0.873988
    16764.459300       0.873814
    16792.611300       0.873652
    16820.857900       0.873503
    16849.199700       0.873365
    16877.637100       0.873240
    16906.170800       0.873126
    16934.801000       0.873024
    16963.528400       0.872932
    16992.353400       0.872851
    17021.276600       0.872780
    17050.298400       0.872719
    17079.419300       0.872668
    17108.639900       0.872626
    17137.960600       0.872593
    17167.382000       0.872569
    17196.904600       0.872552
    17226.528900       0.872543
    17256.255400       0.872542
    17286.084700       0.872548
