13, GOES 10.35um ABI FM4 SRF CWG processed March 10, 2016
Number of data points:
1057
Wavenumber (cm-1)   Filter response
      913.700000       0.001303
      913.800000       0.001940
      913.900000       0.002570
      914.000000       0.003200
      914.100000       0.003830
      914.200000       0.004469
      914.300000       0.005137
      914.400000       0.005153
      914.500000       0.004865
      914.600000       0.004562
      914.700000       0.004259
      914.800000       0.003950
      914.900000       0.003641
      915.000000       0.003337
      915.100000       0.003031
      915.200000       0.002748
      915.300000       0.002691
      915.400000       0.002742
      915.500000       0.002794
      915.600000       0.002856
      915.700000       0.002910
      915.800000       0.002969
      915.900000       0.003023
      916.000000       0.003084
      916.100000       0.003181
      916.200000       0.003590
      916.300000       0.004129
      916.400000       0.004652
      916.500000       0.005181
      916.600000       0.005699
      916.700000       0.006224
      916.800000       0.006743
      916.900000       0.007279
      917.000000       0.007697
      917.100000       0.007243
      917.200000       0.006717
      917.300000       0.006198
      917.400000       0.005673
      917.500000       0.005145
      917.600000       0.004630
      917.700000       0.004103
      917.800000       0.003562
      917.900000       0.003211
      918.000000       0.003204
      918.100000       0.003253
      918.200000       0.003301
      918.300000       0.003349
      918.400000       0.003398
      918.500000       0.003447
      918.600000       0.003483
      918.700000       0.003530
      918.800000       0.003575
      918.900000       0.003604
      919.000000       0.003633
      919.100000       0.003666
      919.200000       0.003686
      919.300000       0.003718
      919.400000       0.003751
      919.500000       0.003777
      919.600000       0.003802
      919.700000       0.003716
      919.800000       0.003489
      919.900000       0.003267
      920.000000       0.003044
      920.100000       0.002822
      920.200000       0.002600
      920.300000       0.002373
      920.400000       0.002139
      920.500000       0.001969
      920.600000       0.002107
      920.700000       0.002630
      920.800000       0.003128
      920.900000       0.003629
      921.000000       0.004124
      921.100000       0.004626
      921.200000       0.005119
      921.300000       0.005624
      921.400000       0.006079
      921.500000       0.006134
      921.600000       0.005949
      921.700000       0.005780
      921.800000       0.005612
      921.900000       0.005442
      922.000000       0.005275
      922.100000       0.005102
      922.200000       0.004935
      922.300000       0.004795
      922.400000       0.004825
      922.500000       0.004917
      922.600000       0.005012
      922.700000       0.005107
      922.800000       0.005203
      922.900000       0.005296
      923.000000       0.005384
      923.100000       0.005478
      923.200000       0.005576
      923.300000       0.005721
      923.400000       0.005875
      923.500000       0.006025
      923.600000       0.006178
      923.700000       0.006326
      923.800000       0.006481
      923.900000       0.006629
      924.000000       0.006781
      924.100000       0.006931
      924.200000       0.007085
      924.300000       0.007232
      924.400000       0.007389
      924.500000       0.007539
      924.600000       0.007693
      924.700000       0.007843
      924.800000       0.008000
      924.900000       0.008145
      925.000000       0.008123
      925.100000       0.007574
      925.200000       0.007048
      925.300000       0.006520
      925.400000       0.005996
      925.500000       0.005473
      925.600000       0.004944
      925.700000       0.004421
      925.800000       0.003832
      925.900000       0.003826
      926.000000       0.004263
      926.100000       0.004719
      926.200000       0.005170
      926.300000       0.005621
      926.400000       0.006072
      926.500000       0.006525
      926.600000       0.006974
      926.700000       0.007424
      926.800000       0.007653
      926.900000       0.007734
      927.000000       0.007813
      927.100000       0.007892
      927.200000       0.007972
      927.300000       0.008051
      927.400000       0.008130
      927.500000       0.008209
      927.600000       0.008294
      927.700000       0.008440
      927.800000       0.008624
      927.900000       0.008796
      928.000000       0.008981
      928.100000       0.009155
      928.200000       0.009335
      928.300000       0.009517
      928.400000       0.009697
      928.500000       0.009874
      928.600000       0.009965
      928.700000       0.010040
      928.800000       0.010112
      928.900000       0.010193
      929.000000       0.010275
      929.100000       0.010345
      929.200000       0.010426
      929.300000       0.010507
      929.400000       0.010517
      929.500000       0.010286
      929.600000       0.009984
      929.700000       0.009678
      929.800000       0.009382
      929.900000       0.009082
      930.000000       0.008781
      930.100000       0.008481
      930.200000       0.008157
      930.300000       0.008050
      930.400000       0.008321
      930.500000       0.008666
      930.600000       0.009003
      930.700000       0.009348
      930.800000       0.009691
      930.900000       0.010035
      931.000000       0.010380
      931.100000       0.010725
      931.200000       0.011013
      931.300000       0.011210
      931.400000       0.011395
      931.500000       0.011589
      931.600000       0.011765
      931.700000       0.011927
      931.800000       0.012205
      931.900000       0.012376
      932.000000       0.012537
      932.100000       0.012729
      932.200000       0.013033
      932.300000       0.013260
      932.400000       0.013552
      932.500000       0.013842
      932.600000       0.014072
      932.700000       0.014369
      932.800000       0.014625
      932.900000       0.014846
      933.000000       0.015008
      933.100000       0.015019
      933.200000       0.015030
      933.300000       0.015121
      933.400000       0.015154
      933.500000       0.015159
      933.600000       0.015165
      933.700000       0.015170
      933.800000       0.015176
      933.900000       0.015174
      934.000000       0.015030
      934.100000       0.014943
      934.200000       0.014849
      934.300000       0.014739
      934.400000       0.014657
      934.500000       0.014514
      934.600000       0.014479
      934.700000       0.014445
      934.800000       0.014903
      934.900000       0.015619
      935.000000       0.016320
      935.100000       0.017079
      935.200000       0.017734
      935.300000       0.018421
      935.400000       0.019134
      935.500000       0.019818
      935.600000       0.020486
      935.700000       0.020752
      935.800000       0.021057
      935.900000       0.021375
      936.000000       0.021626
      936.100000       0.021899
      936.200000       0.022160
      936.300000       0.022420
      936.400000       0.022714
      936.500000       0.023036
      936.600000       0.023588
      936.700000       0.024156
      936.800000       0.024700
      936.900000       0.025252
      937.000000       0.025766
      937.100000       0.026252
      937.200000       0.026776
      937.300000       0.027258
      937.400000       0.027758
      937.500000       0.028096
      937.600000       0.028376
      937.700000       0.028659
      937.800000       0.028943
      937.900000       0.029226
      938.000000       0.029510
      938.100000       0.029903
      938.200000       0.030197
      938.300000       0.030479
      938.400000       0.030762
      938.500000       0.031045
      938.600000       0.031328
      938.700000       0.031611
      938.800000       0.031896
      938.900000       0.032239
      939.000000       0.032585
      939.100000       0.032863
      939.200000       0.033146
      939.300000       0.033420
      939.400000       0.033860
      939.500000       0.034425
      939.600000       0.035006
      939.700000       0.035678
      939.800000       0.036251
      939.900000       0.036819
      940.000000       0.037390
      940.100000       0.037958
      940.200000       0.038551
      940.300000       0.039229
      940.400000       0.039969
      940.500000       0.040988
      940.600000       0.041991
      940.700000       0.042944
      940.800000       0.043872
      940.900000       0.044858
      941.000000       0.045853
      941.100000       0.046748
      941.200000       0.047723
      941.300000       0.048716
      941.400000       0.049699
      941.500000       0.050760
      941.600000       0.051757
      941.700000       0.052723
      941.800000       0.053792
      941.900000       0.054745
      942.000000       0.055703
      942.100000       0.056715
      942.200000       0.057734
      942.300000       0.058633
      942.400000       0.059264
      942.500000       0.059882
      942.600000       0.060458
      942.700000       0.061071
      942.800000       0.061651
      942.900000       0.062250
      943.000000       0.062845
      943.100000       0.063387
      943.200000       0.063944
      943.300000       0.064761
      943.400000       0.066035
      943.500000       0.067438
      943.600000       0.068867
      943.700000       0.070302
      943.800000       0.071685
      943.900000       0.073141
      944.000000       0.074526
      944.100000       0.075941
      944.200000       0.077399
      944.300000       0.078776
      944.400000       0.080452
      944.500000       0.082058
      944.600000       0.083646
      944.700000       0.085322
      944.800000       0.086962
      944.900000       0.088554
      945.000000       0.090147
      945.100000       0.091740
      945.200000       0.093331
      945.300000       0.094866
      945.400000       0.096188
      945.500000       0.097436
      945.600000       0.098669
      945.700000       0.099951
      945.800000       0.101180
      945.900000       0.102460
      946.000000       0.103687
      946.100000       0.105004
      946.200000       0.106265
      946.300000       0.107712
      946.400000       0.109635
      946.500000       0.111714
      946.600000       0.113776
      946.700000       0.115838
      946.800000       0.117927
      946.900000       0.120286
      947.000000       0.122211
      947.100000       0.124227
      947.200000       0.126191
      947.300000       0.128787
      947.400000       0.130679
      947.500000       0.132882
      947.600000       0.135520
      947.700000       0.138172
      947.800000       0.140840
      947.900000       0.143100
      948.000000       0.144903
      948.100000       0.147548
      948.200000       0.150176
      948.300000       0.152796
      948.400000       0.155413
      948.500000       0.157995
      948.600000       0.159389
      948.700000       0.162072
      948.800000       0.164686
      948.900000       0.167295
      949.000000       0.169900
      949.100000       0.172474
      949.200000       0.174072
      949.300000       0.176639
      949.400000       0.180505
      949.500000       0.184417
      949.600000       0.188308
      949.700000       0.192217
      949.800000       0.196121
      949.900000       0.199862
      950.000000       0.202950
      950.100000       0.206594
      950.200000       0.210475
      950.300000       0.214352
      950.400000       0.217710
      950.500000       0.220313
      950.600000       0.223510
      950.700000       0.226548
      950.800000       0.229337
      950.900000       0.232622
      951.000000       0.235336
      951.100000       0.238394
      951.200000       0.241621
      951.300000       0.244876
      951.400000       0.248828
      951.500000       0.253589
      951.600000       0.258560
      951.700000       0.263001
      951.800000       0.268003
      951.900000       0.272630
      952.000000       0.277180
      952.100000       0.282331
      952.200000       0.286670
      952.300000       0.291426
      952.400000       0.296430
      952.500000       0.301161
      952.600000       0.305337
      952.700000       0.310019
      952.800000       0.314974
      952.900000       0.319906
      953.000000       0.324834
      953.100000       0.329261
      953.200000       0.333482
      953.300000       0.338446
      953.400000       0.343361
      953.500000       0.348343
      953.600000       0.353861
      953.700000       0.359264
      953.800000       0.364094
      953.900000       0.369096
      954.000000       0.374949
      954.100000       0.379970
      954.200000       0.384857
      954.300000       0.389898
      954.400000       0.395874
      954.500000       0.400957
      954.600000       0.407141
      954.700000       0.413309
      954.800000       0.418717
      954.900000       0.424278
      955.000000       0.430359
      955.100000       0.436453
      955.200000       0.442538
      955.300000       0.448582
      955.400000       0.453813
      955.500000       0.459593
      955.600000       0.465945
      955.700000       0.472730
      955.800000       0.478976
      955.900000       0.484652
      956.000000       0.489818
      956.100000       0.494873
      956.200000       0.499939
      956.300000       0.504950
      956.400000       0.510035
      956.500000       0.515572
      956.600000       0.521352
      956.700000       0.526349
      956.800000       0.531437
      956.900000       0.536523
      957.000000       0.541568
      957.100000       0.546610
      957.200000       0.551627
      957.300000       0.557256
      957.400000       0.562831
      957.500000       0.567847
      957.600000       0.572867
      957.700000       0.577841
      957.800000       0.582879
      957.900000       0.588051
      958.000000       0.593819
      958.100000       0.599942
      958.200000       0.606037
      958.300000       0.612140
      958.400000       0.618243
      958.500000       0.624356
      958.600000       0.630466
      958.700000       0.636590
      958.800000       0.642754
      958.900000       0.648953
      959.000000       0.655100
      959.100000       0.661300
      959.200000       0.666980
      959.300000       0.672508
      959.400000       0.678406
      959.500000       0.683610
      959.600000       0.689637
      959.700000       0.695012
      959.800000       0.700726
      959.900000       0.706366
      960.000000       0.711811
      960.100000       0.717716
      960.200000       0.722432
      960.300000       0.726420
      960.400000       0.730379
      960.500000       0.734460
      960.600000       0.737979
      960.700000       0.741412
      960.800000       0.744874
      960.900000       0.748548
      961.000000       0.752682
      961.100000       0.756508
      961.200000       0.760045
      961.300000       0.763498
      961.400000       0.766934
      961.500000       0.770387
      961.600000       0.774131
      961.700000       0.778257
      961.800000       0.781880
      961.900000       0.785333
      962.000000       0.788692
      962.100000       0.792110
      962.200000       0.795512
      962.300000       0.798901
      962.400000       0.802238
      962.500000       0.805496
      962.600000       0.808755
      962.700000       0.812066
      962.800000       0.815437
      962.900000       0.818679
      963.000000       0.821761
      963.100000       0.824573
      963.200000       0.827103
      963.300000       0.829270
      963.400000       0.831514
      963.500000       0.833682
      963.600000       0.835952
      963.700000       0.838185
      963.800000       0.840376
      963.900000       0.842634
      964.000000       0.844891
      964.100000       0.847098
      964.200000       0.849042
      964.300000       0.850715
      964.400000       0.852595
      964.500000       0.854798
      964.600000       0.857044
      964.700000       0.859201
      964.800000       0.861295
      964.900000       0.862826
      965.000000       0.864559
      965.100000       0.866243
      965.200000       0.868071
      965.300000       0.870283
      965.400000       0.872276
      965.500000       0.873995
      965.600000       0.875709
      965.700000       0.877433
      965.800000       0.879152
      965.900000       0.880873
      966.000000       0.882591
      966.100000       0.884296
      966.200000       0.886099
      966.300000       0.888388
      966.400000       0.890508
      966.500000       0.892197
      966.600000       0.893863
      966.700000       0.895518
      966.800000       0.897156
      966.900000       0.898736
      967.000000       0.900069
      967.100000       0.900818
      967.200000       0.901546
      967.300000       0.902992
      967.400000       0.904502
      967.500000       0.905911
      967.600000       0.907373
      967.700000       0.908341
      967.800000       0.909378
      967.900000       0.910790
      968.000000       0.912251
      968.100000       0.913745
      968.200000       0.915110
      968.300000       0.916200
      968.400000       0.917262
      968.500000       0.918721
      968.600000       0.920278
      968.700000       0.921356
      968.800000       0.922379
      968.900000       0.923927
      969.000000       0.925615
      969.100000       0.927012
      969.200000       0.928376
      969.300000       0.929760
      969.400000       0.931155
      969.500000       0.932549
      969.600000       0.933946
      969.700000       0.935345
      969.800000       0.936743
      969.900000       0.938157
      970.000000       0.939476
      970.100000       0.940855
      970.200000       0.942169
      970.300000       0.943571
      970.400000       0.944889
      970.500000       0.946300
      970.600000       0.947728
      970.700000       0.949163
      970.800000       0.950580
      970.900000       0.951740
      971.000000       0.952623
      971.100000       0.953883
      971.200000       0.955661
      971.300000       0.957754
      971.400000       0.960406
      971.500000       0.962325
      971.600000       0.963624
      971.700000       0.964927
      971.800000       0.966359
      971.900000       0.967701
      972.000000       0.969011
      972.100000       0.970328
      972.200000       0.971730
      972.300000       0.972942
      972.400000       0.974236
      972.500000       0.975532
      972.600000       0.976871
      972.700000       0.978328
      972.800000       0.979593
      972.900000       0.980872
      973.000000       0.982139
      973.100000       0.983413
      973.200000       0.984695
      973.300000       0.986089
      973.400000       0.987517
      973.500000       0.988857
      973.600000       0.989745
      973.700000       0.990491
      973.800000       0.991231
      973.900000       0.992215
      974.000000       0.992578
      974.100000       0.992912
      974.200000       0.993698
      974.300000       0.994617
      974.400000       0.995227
      974.500000       0.995593
      974.600000       0.996276
      974.700000       0.997180
      974.800000       0.997767
      974.900000       0.998098
      975.000000       0.998712
      975.100000       0.999736
      975.200000       0.999950
      975.300000       0.999995
      975.400000       0.999936
      975.500000       0.999784
      975.600000       0.999283
      975.700000       0.998463
