04  , Filter noaa_07_avhrr_04.flt
Number of data points:
60
Wavenumber (cm-1)   Filter response
      854.701000       0.005000
      857.206200       0.002775
      859.711400       0.002294
      862.216600       0.005304
      864.721800       0.012893
      867.227000       0.023945
      869.732200       0.036886
      872.237400       0.055090
      874.742600       0.097501
      877.247800       0.174012
      879.753000       0.277431
      882.258200       0.377658
      884.763400       0.461862
      887.268600       0.537970
      889.773800       0.602185
      892.279000       0.641974
      894.784200       0.660473
      897.289400       0.690677
      899.794600       0.729166
      902.299800       0.735369
      904.805000       0.766348
      907.310200       0.776211
      909.815400       0.802879
      912.320600       0.813180
      914.825800       0.837072
      917.331000       0.849419
      919.836200       0.871411
      922.341400       0.889238
      924.846600       0.914664
      927.351800       0.932783
      929.857000       0.944838
      932.362200       0.946007
      934.867400       0.945715
      937.372600       0.942573
      939.877800       0.943742
      942.383000       0.949660
      944.888200       0.957478
      947.393400       0.973844
      949.898600       0.986630
      952.403800       1.000000
      954.909000       0.981954
      957.414200       0.937532
      959.919400       0.824651
      962.424600       0.698692
      964.929800       0.537817
      967.435000       0.380492
      969.940200       0.251684
      972.445400       0.156163
      974.950600       0.091678
      977.455800       0.051544
      979.961000       0.028719
      982.466200       0.016378
      984.971400       0.009959
      987.476600       0.006234
      989.981800       0.004071
      992.487000       0.003065
      994.992200       0.002906
      997.497400       0.003312
     1000.002600       0.004000
     1002.507800       0.000000
