16,   16, MVIRI VIS channel from srf_MET4_1991168_1991169_1801-Release_S10EL_10.dat
Number of data points:
752
Wavenumber (cm-1)   Filter response
     8745.080900       0.000000
     8752.735200       0.000000
     8760.403000       0.000001
     8768.084200       0.000059
     8775.778900       0.000199
     8783.487000       0.000418
     8791.208800       0.000716
     8798.944100       0.001089
     8806.693100       0.001535
     8814.455700       0.002051
     8822.232000       0.002637
     8830.022100       0.003289
     8837.825900       0.004005
     8845.643500       0.004784
     8853.475000       0.005624
     8861.320300       0.006524
     8869.179600       0.007480
     8877.052800       0.008491
     8884.940000       0.009557
     8892.841300       0.010674
     8900.756600       0.011843
     8908.686000       0.013060
     8916.629500       0.014325
     8924.587200       0.015637
     8932.559200       0.016993
     8940.545400       0.018392
     8948.545900       0.019834
     8956.560700       0.021317
     8964.589900       0.022840
     8972.633500       0.024402
     8980.691500       0.026001
     8988.764000       0.027637
     8996.851100       0.029309
     9004.952700       0.031015
     9013.068900       0.032754
     9021.199800       0.034526
     9029.345400       0.036331
     9037.505600       0.038165
     9045.680700       0.040031
     9053.870500       0.041925
     9062.075200       0.043849
     9070.294800       0.045800
     9078.529300       0.047778
     9086.778700       0.049784
     9095.043200       0.051815
     9103.322700       0.053871
     9111.617300       0.055952
     9119.927000       0.058058
     9128.251900       0.060187
     9136.592100       0.062340
     9144.947400       0.064515
     9153.318100       0.066713
     9161.704100       0.068932
     9170.105500       0.071173
     9178.522300       0.073436
     9186.954500       0.075718
     9195.402300       0.078022
     9203.865600       0.080345
     9212.344500       0.082689
     9220.839100       0.085052
     9229.349300       0.087434
     9237.875300       0.089835
     9246.417000       0.092255
     9254.974500       0.094693
     9263.547900       0.097150
     9272.137200       0.099625
     9280.742500       0.102118
     9289.363700       0.104628
     9298.000900       0.107156
     9306.654300       0.109702
     9315.323700       0.112265
     9324.009300       0.114846
     9332.711200       0.117444
     9341.429200       0.120058
     9350.163600       0.122690
     9358.914400       0.125338
     9367.681500       0.128003
     9376.465100       0.130685
     9385.265100       0.133384
     9394.081700       0.136099
     9402.914900       0.138831
     9411.764700       0.141580
     9420.631200       0.144345
     9429.514400       0.147127
     9438.414300       0.149925
     9447.331100       0.152740
     9456.264800       0.155571
     9465.215300       0.158419
     9474.182900       0.161283
     9483.167400       0.164164
     9492.169000       0.167061
     9501.187600       0.169975
     9510.223500       0.172905
     9519.276500       0.175852
     9528.346800       0.178815
     9537.434400       0.181796
     9546.539400       0.184792
     9555.661700       0.187806
     9564.801500       0.190835
     9573.958800       0.193882
     9583.133700       0.196946
     9592.326100       0.200026
     9601.536200       0.203123
     9610.764100       0.206236
     9620.009600       0.209367
     9629.273000       0.212515
     9638.554200       0.215679
     9647.853400       0.218860
     9657.170400       0.222058
     9666.505600       0.225273
     9675.858700       0.228505
     9685.230000       0.231753
     9694.619500       0.235019
     9704.027200       0.238302
     9713.453100       0.241602
     9722.897400       0.244919
     9732.360100       0.248252
     9741.841200       0.251603
     9751.340800       0.254970
     9760.859000       0.258355
     9770.395700       0.261756
     9779.951100       0.265174
     9789.525200       0.268610
     9799.118100       0.272062
     9808.729800       0.275531
     9818.360300       0.279016
     9828.009800       0.282519
     9837.678300       0.286038
     9847.365800       0.289574
     9857.072400       0.293126
     9866.798200       0.296696
     9876.543200       0.300281
     9886.307500       0.303883
     9896.091000       0.307501
     9905.894000       0.311136
     9915.716400       0.314787
     9925.558300       0.318454
     9935.419800       0.322137
     9945.300800       0.325836
     9955.201600       0.329550
     9965.122100       0.333281
     9975.062300       0.337027
     9985.022500       0.340789
     9995.002500       0.344566
    10005.002500       0.348358
    10015.022500       0.352165
    10025.062700       0.355987
    10035.122900       0.359824
    10045.203400       0.363676
    10055.304200       0.367543
    10065.425300       0.371423
    10075.566800       0.375318
    10085.728700       0.379227
    10095.911200       0.383150
    10106.114200       0.387086
    10116.337900       0.391036
    10126.582300       0.394999
    10136.847400       0.398975
    10147.133400       0.402964
    10157.440300       0.406966
    10167.768200       0.410980
    10178.117000       0.415006
    10188.487000       0.419044
    10198.878100       0.423095
    10209.290500       0.427156
    10219.724100       0.431229
    10230.179000       0.435313
    10240.655400       0.439408
    10251.153300       0.443513
    10261.672700       0.447628
    10272.213700       0.451754
    10282.776300       0.455889
    10293.360800       0.460033
    10303.967000       0.464187
    10314.595200       0.468349
    10325.245200       0.472521
    10335.917300       0.476700
    10346.611500       0.480887
    10357.327800       0.485082
    10368.066400       0.489285
    10378.827200       0.493494
    10389.610400       0.497710
    10400.416000       0.501933
    10411.244100       0.506161
    10422.094800       0.510395
    10432.968200       0.514635
    10443.864200       0.518880
    10454.783100       0.523129
    10465.724800       0.527382
    10476.689400       0.531640
    10487.677000       0.535901
    10498.687700       0.540166
    10509.721500       0.544433
    10520.778500       0.548703
    10531.858900       0.552975
    10542.962600       0.557250
    10554.089700       0.561525
    10565.240400       0.565801
    10576.414600       0.570078
    10587.612500       0.574355
    10598.834100       0.578633
    10610.079600       0.582909
    10621.348900       0.587185
    10632.642200       0.591460
    10643.959600       0.595733
    10655.301000       0.600003
    10666.666700       0.604271
    10678.056600       0.608536
    10689.470900       0.612798
    10700.909600       0.617056
    10712.372800       0.621310
    10723.860600       0.625560
    10735.373100       0.629804
    10746.910300       0.634043
    10758.472300       0.638276
    10770.059200       0.642503
    10781.671200       0.646723
    10793.308100       0.650937
    10804.970300       0.655142
    10816.657700       0.659340
    10828.370300       0.663529
    10840.108400       0.667710
    10851.871900       0.671881
    10863.661100       0.676043
    10875.475800       0.680195
    10887.316300       0.684336
    10899.182600       0.688466
    10911.074700       0.692585
    10922.992900       0.696692
    10934.937100       0.700787
    10946.907500       0.704869
    10958.904100       0.708938
    10970.927000       0.712994
    10982.976400       0.717036
    10995.052200       0.721063
    11007.154700       0.725076
    11019.283700       0.729073
    11031.439600       0.733055
    11043.622300       0.737021
    11055.832000       0.740970
    11068.068600       0.744903
    11080.332400       0.748818
    11092.623400       0.752715
    11104.941700       0.756594
    11117.287400       0.760455
    11129.660500       0.764297
    11142.061300       0.768119
    11154.489700       0.771922
    11166.945800       0.775704
    11179.429800       0.779466
    11191.941800       0.783206
    11204.481800       0.786926
    11217.049900       0.790623
    11229.646300       0.794298
    11242.270900       0.797951
    11254.924000       0.801581
    11267.605600       0.805187
    11280.315800       0.808769
    11293.054800       0.812328
    11305.822500       0.815861
    11318.619100       0.819370
    11331.444800       0.822854
    11344.299500       0.826312
    11357.183400       0.829744
    11370.096600       0.833149
    11383.039300       0.836528
    11396.011400       0.839880
    11409.013100       0.843204
    11422.044500       0.846500
    11435.105800       0.849769
    11448.196900       0.853009
    11461.318100       0.856220
    11474.469300       0.859401
    11487.650800       0.862554
    11500.862600       0.865677
    11514.104800       0.868769
    11527.377500       0.871831
    11540.680900       0.874862
    11554.015000       0.877862
    11567.380000       0.880831
    11580.775900       0.883768
    11594.202900       0.886673
    11607.661100       0.889546
    11621.150500       0.892387
    11634.671300       0.895194
    11648.223600       0.897969
    11661.807600       0.900710
    11675.423200       0.903417
    11689.070700       0.906091
    11702.750100       0.908730
    11716.461600       0.911335
    11730.205300       0.913906
    11743.981200       0.916442
    11757.789500       0.918942
    11771.630400       0.921408
    11785.503800       0.923837
    11799.410000       0.926231
    11813.349100       0.928589
    11827.321100       0.930911
    11841.326200       0.933197
    11855.364600       0.935446
    11869.436200       0.937658
    11883.541300       0.939833
    11897.680000       0.941971
    11911.852300       0.944072
    11926.058400       0.946136
    11940.298500       0.948162
    11954.572600       0.950150
    11968.880900       0.952101
    11983.223500       0.954013
    11997.600500       0.955887
    12012.012000       0.957723
    12026.458200       0.959521
    12040.939200       0.961280
    12055.455100       0.963000
    12070.006000       0.964682
    12084.592100       0.966325
    12099.213600       0.967929
    12113.870400       0.969494
    12128.562800       0.971020
    12143.290800       0.972507
    12158.054700       0.973955
    12172.854500       0.975363
    12187.690400       0.976733
    12202.562500       0.978062
    12217.471000       0.979353
    12232.415900       0.980604
    12247.397400       0.981816
    12262.415700       0.982988
    12277.470800       0.984121
    12292.563000       0.985214
    12307.692300       0.986268
    12322.858900       0.987283
    12338.062900       0.988258
    12353.304500       0.989194
    12368.583800       0.990090
    12383.900900       0.990947
    12399.256000       0.991765
    12414.649300       0.992543
    12430.080800       0.993282
    12445.550700       0.993982
    12461.059200       0.994643
    12476.606400       0.995265
    12492.192400       0.995849
    12507.817400       0.996393
    12523.481500       0.996898
    12539.185000       0.997365
    12554.927800       0.997794
    12570.710200       0.998184
    12586.532400       0.998535
    12602.394500       0.998849
    12618.296500       0.999124
    12634.238800       0.999362
    12650.221400       0.999562
    12666.244500       0.999724
    12682.308200       0.999849
    12698.412700       0.999936
    12714.558200       0.999987
    12730.744700       1.000000
    12746.972600       0.999977
    12763.241900       0.999917
    12779.552700       0.999820
    12795.905300       0.999688
    12812.299800       0.999519
    12828.736400       0.999315
    12845.215200       0.999075
    12861.736300       0.998800
    12878.300100       0.998489
    12894.906500       0.998144
    12911.555800       0.997764
    12928.248200       0.997350
    12944.983800       0.996902
    12961.762800       0.996419
    12978.585300       0.995903
    12995.451600       0.995354
    13012.361700       0.994771
    13029.316000       0.994156
    13046.314400       0.993508
    13063.357300       0.992828
    13080.444700       0.992116
    13097.576900       0.991373
    13114.754100       0.990598
    13131.976400       0.989792
    13149.243900       0.988955
    13166.556900       0.988088
    13183.915600       0.987190
    13201.320100       0.986263
    13218.770700       0.985306
    13236.267400       0.984321
    13253.810500       0.983306
    13271.400100       0.982263
    13289.036500       0.981192
    13306.719900       0.980093
    13324.450400       0.978967
    13342.228200       0.977814
    13360.053400       0.976634
    13377.926400       0.975428
    13395.847300       0.974196
    13413.816200       0.972938
    13431.833400       0.971656
    13449.899100       0.970348
    13468.013500       0.969016
    13486.176700       0.967660
    13504.388900       0.966281
    13522.650400       0.964878
    13540.961400       0.963452
    13559.322000       0.962004
    13577.732500       0.960534
    13596.193100       0.959043
    13614.703900       0.957530
    13633.265200       0.955997
    13651.877100       0.954443
    13670.540000       0.952869
    13689.253900       0.951275
    13708.019200       0.949663
    13726.836000       0.948032
    13745.704500       0.946382
    13764.624900       0.944715
    13783.597500       0.943031
    13802.622500       0.941329
    13821.700100       0.939611
    13840.830400       0.937877
    13860.013900       0.936127
    13879.250500       0.934363
    13898.540700       0.932583
    13917.884500       0.930789
    13937.282200       0.928981
    13956.734100       0.927160
    13976.240400       0.925326
    13995.801300       0.923479
    14015.417000       0.921620
    14035.087700       0.919750
    14054.813800       0.917868
    14074.595400       0.915976
    14094.432700       0.914074
    14114.326000       0.912161
    14134.275600       0.910240
    14154.281700       0.908309
    14174.344400       0.906370
    14194.464200       0.904423
    14214.641100       0.902468
    14234.875400       0.900506
    14255.167500       0.898538
    14275.517500       0.896563
    14295.925700       0.894583
    14316.392300       0.892597
    14336.917600       0.890606
    14357.501800       0.888611
    14378.145200       0.886612
    14398.848100       0.884610
    14419.610700       0.882604
    14440.433200       0.880596
    14461.316000       0.878585
    14482.259200       0.876573
    14503.263200       0.874559
    14524.328200       0.872545
    14545.454500       0.870530
    14566.642400       0.868514
    14587.892000       0.866500
    14609.203800       0.864486
    14630.577900       0.862473
    14652.014700       0.860462
    14673.514300       0.858453
    14695.077100       0.856447
    14716.703500       0.854443
    14738.393500       0.852443
    14760.147600       0.850446
    14781.966000       0.848454
    14803.849000       0.846466
    14825.796900       0.844483
    14847.809900       0.842505
    14869.888500       0.840533
    14892.032800       0.838567
    14914.243100       0.836608
    14936.519800       0.834655
    14958.863100       0.832710
    14981.273400       0.830772
    15003.750900       0.828842
    15026.296000       0.826920
    15048.909000       0.825007
    15071.590100       0.823103
    15094.339600       0.821208
    15117.158000       0.819323
    15140.045400       0.817449
    15163.002300       0.815584
    15186.028900       0.813730
    15209.125500       0.811888
    15232.292500       0.810056
    15255.530100       0.808236
    15278.838800       0.806428
    15302.218800       0.804633
    15325.670500       0.802850
    15349.194200       0.801079
    15372.790200       0.799322
    15396.458800       0.797579
    15420.200500       0.795849
    15444.015400       0.794132
    15467.904100       0.792430
    15491.866800       0.790743
    15515.903800       0.789070
    15540.015500       0.787412
    15564.202300       0.785770
    15588.464500       0.784142
    15612.802500       0.782531
    15637.216600       0.780935
    15661.707100       0.779355
    15686.274500       0.777791
    15710.919100       0.776244
    15735.641200       0.774713
    15760.441300       0.773199
    15785.319700       0.771702
    15810.276700       0.770222
    15835.312700       0.768760
    15860.428200       0.767315
    15885.623500       0.765887
    15910.899000       0.764477
    15936.255000       0.763085
    15961.691900       0.761711
    15987.210200       0.760355
    16012.810200       0.759016
    16038.492400       0.757697
    16064.257000       0.756395
    16090.104600       0.755112
    16116.035500       0.753847
    16142.050000       0.752601
    16168.148700       0.751373
    16194.332000       0.750164
    16220.600200       0.748973
    16246.953700       0.747801
    16273.393000       0.746648
    16299.918500       0.745513
    16326.530600       0.744397
    16353.229800       0.743300
    16380.016400       0.742221
    16406.890900       0.741161
    16433.853700       0.740120
    16460.905300       0.739097
    16488.046200       0.738092
    16515.276600       0.737106
    16542.597200       0.736138
    16570.008300       0.735189
    16597.510400       0.734257
    16625.103900       0.733344
    16652.789300       0.732448
    16680.567100       0.731571
    16708.437800       0.730711
    16736.401700       0.729868
    16764.459300       0.729043
    16792.611300       0.728236
    16820.857900       0.727445
    16849.199700       0.726671
    16877.637100       0.725914
    16906.170800       0.725173
    16934.801000       0.724449
    16963.528400       0.723741
    16992.353400       0.723048
    17021.276600       0.722372
    17050.298400       0.721710
    17079.419300       0.721064
    17108.639900       0.720433
    17137.960600       0.719816
    17167.382000       0.719214
    17196.904600       0.718625
    17226.528900       0.718051
    17256.255400       0.717489
    17286.084700       0.716941
    17316.017300       0.716406
    17346.053800       0.715883
    17376.194600       0.715372
    17406.440400       0.714873
    17436.791600       0.714385
    17467.248900       0.713909
    17497.812800       0.713443
    17528.483800       0.712987
    17559.262500       0.712541
    17590.149500       0.712104
    17621.145400       0.711676
    17652.250700       0.711257
    17683.466000       0.710846
    17714.791900       0.710443
    17746.228900       0.710047
    17777.777800       0.709657
    17809.439000       0.709274
    17841.213200       0.708897
    17873.101000       0.708525
    17905.103000       0.708158
    17937.219700       0.707795
    17969.451900       0.707436
    18001.800200       0.707080
    18034.265100       0.706727
    18066.847300       0.706376
    18099.547500       0.706027
    18132.366300       0.705679
    18165.304300       0.705331
    18198.362100       0.704983
    18231.540600       0.704635
    18264.840200       0.704285
    18298.261700       0.703934
    18331.805700       0.703580
    18365.472900       0.703223
    18399.264000       0.702863
    18433.179700       0.702498
    18467.220700       0.702128
    18501.387600       0.701753
    18535.681200       0.701372
    18570.102100       0.700984
    18604.651200       0.700588
    18639.329000       0.700184
    18674.136300       0.699771
    18709.073900       0.699349
    18744.142500       0.698917
    18779.342700       0.698474
    18814.675400       0.698020
    18850.141400       0.697553
    18885.741300       0.697073
    18921.475900       0.696580
    18957.346000       0.696072
    18993.352300       0.695549
    19029.495700       0.695011
    19065.776900       0.694456
