14,   channel 14 SRF from file SRF_SSH-1_Delivery_220520/SRF_DMSP-F1_SSH_Chan14.asc received June 2022 from SPASCIA
Number of data points:
271
Wavenumber (cm-1)   Filter response
      733.300000       0.000920
      733.400000       0.001020
      733.500000       0.001130
      733.600000       0.001250
      733.700000       0.001390
      733.800000       0.001530
      733.900000       0.001690
      734.000000       0.001870
      734.100000       0.002060
      734.200000       0.002270
      734.300000       0.002490
      734.400000       0.002740
      734.500000       0.003020
      734.600000       0.003310
      734.700000       0.003640
      734.800000       0.003990
      734.900000       0.004370
      735.000000       0.004780
      735.100000       0.005240
      735.200000       0.005720
      735.300000       0.006250
      735.400000       0.006830
      735.500000       0.007450
      735.600000       0.008120
      735.700000       0.008840
      735.800000       0.009620
      735.900000       0.010470
      736.000000       0.011370
      736.100000       0.012350
      736.200000       0.013400
      736.300000       0.014530
      736.400000       0.015740
      736.500000       0.017040
      736.600000       0.018430
      736.700000       0.019920
      736.800000       0.021510
      736.900000       0.023220
      737.000000       0.025040
      737.100000       0.026980
      737.200000       0.029050
      737.300000       0.031260
      737.400000       0.033610
      737.500000       0.036100
      737.600000       0.038750
      737.700000       0.041570
      737.800000       0.044550
      737.900000       0.047720
      738.000000       0.051070
      738.100000       0.054610
      738.200000       0.058350
      738.300000       0.062310
      738.400000       0.066480
      738.500000       0.070870
      738.600000       0.075500
      738.700000       0.080360
      738.800000       0.085480
      738.900000       0.090850
      739.000000       0.096490
      739.100000       0.103230
      739.200000       0.111590
      739.300000       0.120330
      739.400000       0.129480
      739.500000       0.139030
      739.600000       0.148980
      739.700000       0.159330
      739.800000       0.170090
      739.900000       0.181250
      740.000000       0.192810
      740.100000       0.204770
      740.200000       0.217130
      740.300000       0.229870
      740.400000       0.242990
      740.500000       0.256480
      740.600000       0.270340
      740.700000       0.284540
      740.800000       0.299090
      740.900000       0.313960
      741.000000       0.329140
      741.100000       0.344620
      741.200000       0.360370
      741.300000       0.376380
      741.400000       0.392640
      741.500000       0.409110
      741.600000       0.425780
      741.700000       0.442620
      741.800000       0.459610
      741.900000       0.476730
      742.000000       0.493950
      742.100000       0.509440
      742.200000       0.524050
      742.300000       0.538750
      742.400000       0.553530
      742.500000       0.568370
      742.600000       0.583260
      742.700000       0.598170
      742.800000       0.613100
      742.900000       0.628010
      743.000000       0.642900
      743.100000       0.657750
      743.200000       0.672530
      743.300000       0.687220
      743.400000       0.701810
      743.500000       0.716280
      743.600000       0.730600
      743.700000       0.744760
      743.800000       0.758730
      743.900000       0.772500
      744.000000       0.786040
      744.100000       0.799340
      744.200000       0.812360
      744.300000       0.825100
      744.400000       0.837530
      744.500000       0.849640
      744.600000       0.861400
      744.700000       0.872790
      744.800000       0.883800
      744.900000       0.894400
      745.000000       0.904590
      745.100000       0.914330
      745.200000       0.923620
      745.300000       0.932450
      745.400000       0.940780
      745.500000       0.948620
      745.600000       0.955940
      745.700000       0.962740
      745.800000       0.968990
      745.900000       0.974700
      746.000000       0.979850
      746.100000       0.984430
      746.200000       0.988430
      746.300000       0.991850
      746.400000       0.994670
      746.500000       0.996900
      746.600000       0.998540
      746.700000       0.999560
      746.800000       0.999990
      746.900000       0.999810
      747.000000       0.999020
      747.100000       0.997630
      747.200000       0.995640
      747.300000       0.993050
      747.400000       0.989870
      747.500000       0.986100
      747.600000       0.981750
      747.700000       0.976830
      747.800000       0.971340
      747.900000       0.965310
      748.000000       0.958720
      748.100000       0.951610
      748.200000       0.943980
      748.300000       0.935840
      748.400000       0.927210
      748.500000       0.918100
      748.600000       0.908540
      748.700000       0.898530
      748.800000       0.888090
      748.900000       0.877240
      749.000000       0.866000
      749.100000       0.854380
      749.200000       0.842420
      749.300000       0.830110
      749.400000       0.817490
      749.500000       0.804580
      749.600000       0.791390
      749.700000       0.777940
      749.800000       0.764270
      749.900000       0.750370
      750.000000       0.736290
      750.100000       0.722030
      750.200000       0.707610
      750.300000       0.693070
      750.400000       0.678410
      750.500000       0.663670
      750.600000       0.648850
      750.700000       0.633970
      750.800000       0.619070
      750.900000       0.604140
      751.000000       0.589220
      751.100000       0.574320
      751.200000       0.559460
      751.300000       0.544660
      751.400000       0.529920
      751.500000       0.515270
      751.600000       0.500720
      751.700000       0.483610
      751.800000       0.466450
      751.900000       0.449400
      752.000000       0.432490
      752.100000       0.415750
      752.200000       0.399200
      752.300000       0.382860
      752.400000       0.366750
      752.500000       0.350890
      752.600000       0.335300
      752.700000       0.319990
      752.800000       0.305000
      752.900000       0.290320
      753.000000       0.275980
      753.100000       0.261980
      753.200000       0.248340
      753.300000       0.235070
      753.400000       0.222180
      753.500000       0.209670
      753.600000       0.197550
      753.700000       0.185830
      753.800000       0.174500
      753.900000       0.163580
      754.000000       0.153070
      754.100000       0.142960
      754.200000       0.133250
      754.300000       0.123940
      754.400000       0.115040
      754.500000       0.106530
      754.600000       0.098820
      754.700000       0.093070
      754.800000       0.087600
      754.900000       0.082380
      755.000000       0.077410
      755.100000       0.072690
      755.200000       0.068210
      755.300000       0.063950
      755.400000       0.059910
      755.500000       0.056080
      755.600000       0.052460
      755.700000       0.049040
      755.800000       0.045800
      755.900000       0.042740
      756.000000       0.039860
      756.100000       0.037140
      756.200000       0.034590
      756.300000       0.032180
      756.400000       0.029920
      756.500000       0.027790
      756.600000       0.025800
      756.700000       0.023930
      756.800000       0.022180
      756.900000       0.020540
      757.000000       0.019010
      757.100000       0.017580
      757.200000       0.016250
      757.300000       0.015000
      757.400000       0.013840
      757.500000       0.012760
      757.600000       0.011750
      757.700000       0.010820
      757.800000       0.009950
      757.900000       0.009150
      758.000000       0.008400
      758.100000       0.007710
      758.200000       0.007070
      758.300000       0.006480
      758.400000       0.005930
      758.500000       0.005430
      758.600000       0.004960
      758.700000       0.004530
      758.800000       0.004140
      758.900000       0.003770
      759.000000       0.003440
      759.100000       0.003130
      759.200000       0.002850
      759.300000       0.002590
      759.400000       0.002350
      759.500000       0.002140
      759.600000       0.001940
      759.700000       0.001760
      759.800000       0.001590
      759.900000       0.001440
      760.000000       0.001300
      760.100000       0.001180
      760.200000       0.001060
      760.300000       0.000960
