14,   14, MVIRI VIS channel from srf_MET4_1991078_1991079_1801-Release_S10EL_10.dat
Number of data points:
752
Wavenumber (cm-1)   Filter response
     8745.080900       0.000000
     8752.735200       0.000000
     8760.403000       0.000001
     8768.084200       0.000059
     8775.778900       0.000198
     8783.487000       0.000418
     8791.208800       0.000715
     8798.944100       0.001087
     8806.693100       0.001532
     8814.455700       0.002048
     8822.232000       0.002632
     8830.022100       0.003283
     8837.825900       0.003998
     8845.643500       0.004777
     8853.475000       0.005615
     8861.320300       0.006513
     8869.179600       0.007467
     8877.052800       0.008477
     8884.940000       0.009541
     8892.841300       0.010657
     8900.756600       0.011823
     8908.686000       0.013039
     8916.629500       0.014302
     8924.587200       0.015611
     8932.559200       0.016965
     8940.545400       0.018363
     8948.545900       0.019802
     8956.560700       0.021283
     8964.589900       0.022804
     8972.633500       0.024363
     8980.691500       0.025960
     8988.764000       0.027593
     8996.851100       0.029262
     9004.952700       0.030965
     9013.068900       0.032702
     9021.199800       0.034472
     9029.345400       0.036273
     9037.505600       0.038106
     9045.680700       0.039968
     9053.870500       0.041860
     9062.075200       0.043780
     9070.294800       0.045729
     9078.529300       0.047704
     9086.778700       0.049707
     9095.043200       0.051735
     9103.322700       0.053788
     9111.617300       0.055867
     9119.927000       0.057969
     9128.251900       0.060095
     9136.592100       0.062245
     9144.947400       0.064417
     9153.318100       0.066612
     9161.704100       0.068828
     9170.105500       0.071066
     9178.522300       0.073326
     9186.954500       0.075605
     9195.402300       0.077906
     9203.865600       0.080226
     9212.344500       0.082566
     9220.839100       0.084926
     9229.349300       0.087305
     9237.875300       0.089703
     9246.417000       0.092119
     9254.974500       0.094555
     9263.547900       0.097008
     9272.137200       0.099480
     9280.742500       0.101970
     9289.363700       0.104477
     9298.000900       0.107002
     9306.654300       0.109545
     9315.323700       0.112105
     9324.009300       0.114682
     9332.711200       0.117276
     9341.429200       0.119888
     9350.163600       0.122516
     9358.914400       0.125161
     9367.681500       0.127823
     9376.465100       0.130502
     9385.265100       0.133198
     9394.081700       0.135910
     9402.914900       0.138638
     9411.764700       0.141384
     9420.631200       0.144146
     9429.514400       0.146924
     9438.414300       0.149719
     9447.331100       0.152531
     9456.264800       0.155359
     9465.215300       0.158203
     9474.182900       0.161064
     9483.167400       0.163942
     9492.169000       0.166836
     9501.187600       0.169747
     9510.223500       0.172674
     9519.276500       0.175617
     9528.346800       0.178578
     9537.434400       0.181555
     9546.539400       0.184548
     9555.661700       0.187558
     9564.801500       0.190585
     9573.958800       0.193629
     9583.133700       0.196689
     9592.326100       0.199766
     9601.536200       0.202860
     9610.764100       0.205970
     9620.009600       0.209098
     9629.273000       0.212243
     9638.554200       0.215403
     9647.853400       0.218582
     9657.170400       0.221776
     9666.505600       0.224988
     9675.858700       0.228217
     9685.230000       0.231463
     9694.619500       0.234726
     9704.027200       0.238005
     9713.453100       0.241302
     9722.897400       0.244616
     9732.360100       0.247946
     9741.841200       0.251294
     9751.340800       0.254658
     9760.859000       0.258040
     9770.395700       0.261439
     9779.951100       0.264854
     9789.525200       0.268286
     9799.118100       0.271735
     9808.729800       0.275201
     9818.360300       0.278684
     9828.009800       0.282183
     9837.678300       0.285700
     9847.365800       0.289233
     9857.072400       0.292782
     9866.798200       0.296349
     9876.543200       0.299931
     9886.307500       0.303531
     9896.091000       0.307146
     9905.894000       0.310778
     9915.716400       0.314426
     9925.558300       0.318090
     9935.419800       0.321771
     9945.300800       0.325467
     9955.201600       0.329179
     9965.122100       0.332907
     9975.062300       0.336650
     9985.022500       0.340409
     9995.002500       0.344183
    10005.002500       0.347973
    10015.022500       0.351778
    10025.062700       0.355597
    10035.122900       0.359432
    10045.203400       0.363281
    10055.304200       0.367145
    10065.425300       0.371023
    10075.566800       0.374916
    10085.728700       0.378822
    10095.911200       0.382742
    10106.114200       0.386676
    10116.337900       0.390624
    10126.582300       0.394584
    10136.847400       0.398558
    10147.133400       0.402545
    10157.440300       0.406544
    10167.768200       0.410556
    10178.117000       0.414580
    10188.487000       0.418616
    10198.878100       0.422665
    10209.290500       0.426724
    10219.724100       0.430795
    10230.179000       0.434877
    10240.655400       0.438969
    10251.153300       0.443072
    10261.672700       0.447186
    10272.213700       0.451309
    10282.776300       0.455442
    10293.360800       0.459585
    10303.967000       0.463737
    10314.595200       0.467898
    10325.245200       0.472067
    10335.917300       0.476245
    10346.611500       0.480431
    10357.327800       0.484624
    10368.066400       0.488824
    10378.827200       0.493032
    10389.610400       0.497247
    10400.416000       0.501468
    10411.244100       0.505695
    10422.094800       0.509927
    10432.968200       0.514165
    10443.864200       0.518409
    10454.783100       0.522657
    10465.724800       0.526909
    10476.689400       0.531165
    10487.677000       0.535426
    10498.687700       0.539689
    10509.721500       0.543955
    10520.778500       0.548224
    10531.858900       0.552495
    10542.962600       0.556768
    10554.089700       0.561043
    10565.240400       0.565318
    10576.414600       0.569594
    10587.612500       0.573871
    10598.834100       0.578147
    10610.079600       0.582423
    10621.348900       0.586698
    10632.642200       0.590972
    10643.959600       0.595244
    10655.301000       0.599514
    10666.666700       0.603782
    10678.056600       0.608046
    10689.470900       0.612308
    10700.909600       0.616566
    10712.372800       0.620819
    10723.860600       0.625068
    10735.373100       0.629313
    10746.910300       0.633552
    10758.472300       0.637785
    10770.059200       0.642011
    10781.671200       0.646232
    10793.308100       0.650445
    10804.970300       0.654651
    10816.657700       0.658849
    10828.370300       0.663038
    10840.108400       0.667219
    10851.871900       0.671390
    10863.661100       0.675553
    10875.475800       0.679705
    10887.316300       0.683846
    10899.182600       0.687977
    10911.074700       0.692097
    10922.992900       0.696204
    10934.937100       0.700300
    10946.907500       0.704383
    10958.904100       0.708453
    10970.927000       0.712509
    10982.976400       0.716552
    10995.052200       0.720580
    11007.154700       0.724594
    11019.283700       0.728592
    11031.439600       0.732575
    11043.622300       0.736542
    11055.832000       0.740493
    11068.068600       0.744426
    11080.332400       0.748343
    11092.623400       0.752241
    11104.941700       0.756122
    11117.287400       0.759984
    11129.660500       0.763827
    11142.061300       0.767651
    11154.489700       0.771455
    11166.945800       0.775239
    11179.429800       0.779003
    11191.941800       0.782745
    11204.481800       0.786466
    11217.049900       0.790166
    11229.646300       0.793843
    11242.270900       0.797498
    11254.924000       0.801129
    11267.605600       0.804738
    11280.315800       0.808322
    11293.054800       0.811883
    11305.822500       0.815419
    11318.619100       0.818930
    11331.444800       0.822416
    11344.299500       0.825877
    11357.183400       0.829311
    11370.096600       0.832719
    11383.039300       0.836101
    11396.011400       0.839455
    11409.013100       0.842782
    11422.044500       0.846081
    11435.105800       0.849353
    11448.196900       0.852595
    11461.318100       0.855809
    11474.469300       0.858994
    11487.650800       0.862149
    11500.862600       0.865275
    11514.104800       0.868371
    11527.377500       0.871436
    11540.680900       0.874470
    11554.015000       0.877474
    11567.380000       0.880446
    11580.775900       0.883386
    11594.202900       0.886295
    11607.661100       0.889171
    11621.150500       0.892015
    11634.671300       0.894827
    11648.223600       0.897605
    11661.807600       0.900350
    11675.423200       0.903061
    11689.070700       0.905738
    11702.750100       0.908382
    11716.461600       0.910991
    11730.205300       0.913565
    11743.981200       0.916105
    11757.789500       0.918609
    11771.630400       0.921079
    11785.503800       0.923513
    11799.410000       0.925911
    11813.349100       0.928273
    11827.321100       0.930599
    11841.326200       0.932889
    11855.364600       0.935142
    11869.436200       0.937359
    11883.541300       0.939539
    11897.680000       0.941681
    11911.852300       0.943787
    11926.058400       0.945855
    11940.298500       0.947885
    11954.572600       0.949878
    11968.880900       0.951833
    11983.223500       0.953750
    11997.600500       0.955629
    12012.012000       0.957470
    12026.458200       0.959272
    12040.939200       0.961036
    12055.455100       0.962761
    12070.006000       0.964448
    12084.592100       0.966096
    12099.213600       0.967705
    12113.870400       0.969275
    12128.562800       0.970806
    12143.290800       0.972298
    12158.054700       0.973751
    12172.854500       0.975165
    12187.690400       0.976539
    12202.562500       0.977874
    12217.471000       0.979170
    12232.415900       0.980426
    12247.397400       0.981643
    12262.415700       0.982821
    12277.470800       0.983959
    12292.563000       0.985058
    12307.692300       0.986117
    12322.858900       0.987137
    12338.062900       0.988117
    12353.304500       0.989059
    12368.583800       0.989960
    12383.900900       0.990823
    12399.256000       0.991646
    12414.649300       0.992430
    12430.080800       0.993175
    12445.550700       0.993880
    12461.059200       0.994547
    12476.606400       0.995174
    12492.192400       0.995763
    12507.817400       0.996313
    12523.481500       0.996824
    12539.185000       0.997297
    12554.927800       0.997731
    12570.710200       0.998127
    12586.532400       0.998484
    12602.394500       0.998803
    12618.296500       0.999084
    12634.238800       0.999328
    12650.221400       0.999533
    12666.244500       0.999701
    12682.308200       0.999832
    12698.412700       0.999925
    12714.558200       0.999981
    12730.744700       1.000000
    12746.972600       0.999982
    12763.241900       0.999928
    12779.552700       0.999838
    12795.905300       0.999711
    12812.299800       0.999548
    12828.736400       0.999350
    12845.215200       0.999115
    12861.736300       0.998846
    12878.300100       0.998541
    12894.906500       0.998202
    12911.555800       0.997828
    12928.248200       0.997419
    12944.983800       0.996977
    12961.762800       0.996500
    12978.585300       0.995990
    12995.451600       0.995447
    13012.361700       0.994870
    13029.316000       0.994260
    13046.314400       0.993618
    13063.357300       0.992944
    13080.444700       0.992238
    13097.576900       0.991500
    13114.754100       0.990731
    13131.976400       0.989930
    13149.243900       0.989099
    13166.556900       0.988238
    13183.915600       0.987346
    13201.320100       0.986425
    13218.770700       0.985474
    13236.267400       0.984494
    13253.810500       0.983485
    13271.400100       0.982447
    13289.036500       0.981382
    13306.719900       0.980289
    13324.450400       0.979168
    13342.228200       0.978021
    13360.053400       0.976847
    13377.926400       0.975646
    13395.847300       0.974420
    13413.816200       0.973168
    13431.833400       0.971890
    13449.899100       0.970588
    13468.013500       0.969262
    13486.176700       0.967912
    13504.388900       0.966538
    13522.650400       0.965140
    13540.961400       0.963720
    13559.322000       0.962278
    13577.732500       0.960813
    13596.193100       0.959327
    13614.703900       0.957819
    13633.265200       0.956291
    13651.877100       0.954743
    13670.540000       0.953174
    13689.253900       0.951586
    13708.019200       0.949979
    13726.836000       0.948353
    13745.704500       0.946709
    13764.624900       0.945047
    13783.597500       0.943368
    13802.622500       0.941671
    13821.700100       0.939958
    13840.830400       0.938230
    13860.013900       0.936485
    13879.250500       0.934725
    13898.540700       0.932951
    13917.884500       0.931162
    13937.282200       0.929359
    13956.734100       0.927543
    13976.240400       0.925714
    13995.801300       0.923872
    14015.417000       0.922018
    14035.087700       0.920152
    14054.813800       0.918276
    14074.595400       0.916388
    14094.432700       0.914491
    14114.326000       0.912583
    14134.275600       0.910666
    14154.281700       0.908740
    14174.344400       0.906806
    14194.464200       0.904864
    14214.641100       0.902914
    14234.875400       0.900957
    14255.167500       0.898993
    14275.517500       0.897023
    14295.925700       0.895047
    14316.392300       0.893066
    14336.917600       0.891080
    14357.501800       0.889089
    14378.145200       0.887095
    14398.848100       0.885097
    14419.610700       0.883096
    14440.433200       0.881092
    14461.316000       0.879086
    14482.259200       0.877078
    14503.263200       0.875069
    14524.328200       0.873059
    14545.454500       0.871048
    14566.642400       0.869037
    14587.892000       0.867027
    14609.203800       0.865017
    14630.577900       0.863009
    14652.014700       0.861002
    14673.514300       0.858997
    14695.077100       0.856995
    14716.703500       0.854996
    14738.393500       0.853000
    14760.147600       0.851007
    14781.966000       0.849019
    14803.849000       0.847035
    14825.796900       0.845056
    14847.809900       0.843083
    14869.888500       0.841115
    14892.032800       0.839153
    14914.243100       0.837198
    14936.519800       0.835249
    14958.863100       0.833308
    14981.273400       0.831374
    15003.750900       0.829448
    15026.296000       0.827530
    15048.909000       0.825621
    15071.590100       0.823721
    15094.339600       0.821831
    15117.158000       0.819949
    15140.045400       0.818079
    15163.002300       0.816218
    15186.028900       0.814368
    15209.125500       0.812529
    15232.292500       0.810702
    15255.530100       0.808886
    15278.838800       0.807082
    15302.218800       0.805290
    15325.670500       0.803511
    15349.194200       0.801744
    15372.790200       0.799991
    15396.458800       0.798251
    15420.200500       0.796525
    15444.015400       0.794813
    15467.904100       0.793115
    15491.866800       0.791431
    15515.903800       0.789762
    15540.015500       0.788108
    15564.202300       0.786469
    15588.464500       0.784846
    15612.802500       0.783238
    15637.216600       0.781646
    15661.707100       0.780069
    15686.274500       0.778510
    15710.919100       0.776966
    15735.641200       0.775439
    15760.441300       0.773929
    15785.319700       0.772436
    15810.276700       0.770960
    15835.312700       0.769501
    15860.428200       0.768060
    15885.623500       0.766636
    15910.899000       0.765230
    15936.255000       0.763842
    15961.691900       0.762471
    15987.210200       0.761119
    16012.810200       0.759785
    16038.492400       0.758469
    16064.257000       0.757171
    16090.104600       0.755892
    16116.035500       0.754631
    16142.050000       0.753388
    16168.148700       0.752164
    16194.332000       0.750959
    16220.600200       0.749772
    16246.953700       0.748604
    16273.393000       0.747455
    16299.918500       0.746324
    16326.530600       0.745212
    16353.229800       0.744119
    16380.016400       0.743044
    16406.890900       0.741988
    16433.853700       0.740951
    16460.905300       0.739932
    16488.046200       0.738931
    16515.276600       0.737949
    16542.597200       0.736985
    16570.008300       0.736040
    16597.510400       0.735112
    16625.103900       0.734203
    16652.789300       0.733312
    16680.567100       0.732438
    16708.437800       0.731582
    16736.401700       0.730744
    16764.459300       0.729923
    16792.611300       0.729119
    16820.857900       0.728333
    16849.199700       0.727563
    16877.637100       0.726810
    16906.170800       0.726074
    16934.801000       0.725354
    16963.528400       0.724650
    16992.353400       0.723962
    17021.276600       0.723289
    17050.298400       0.722632
    17079.419300       0.721990
    17108.639900       0.721363
    17137.960600       0.720751
    17167.382000       0.720153
    17196.904600       0.719569
    17226.528900       0.718998
    17256.255400       0.718442
    17286.084700       0.717898
    17316.017300       0.717367
    17346.053800       0.716849
    17376.194600       0.716342
    17406.440400       0.715848
    17436.791600       0.715364
    17467.248900       0.714892
    17497.812800       0.714431
    17528.483800       0.713979
    17559.262500       0.713538
    17590.149500       0.713106
    17621.145400       0.712683
    17652.250700       0.712268
    17683.466000       0.711862
    17714.791900       0.711463
    17746.228900       0.711071
    17777.777800       0.710687
    17809.439000       0.710308
    17841.213200       0.709936
    17873.101000       0.709568
    17905.103000       0.709206
    17937.219700       0.708848
    17969.451900       0.708493
    18001.800200       0.708142
    18034.265100       0.707793
    18066.847300       0.707447
    18099.547500       0.707103
    18132.366300       0.706759
    18165.304300       0.706416
    18198.362100       0.706073
    18231.540600       0.705729
    18264.840200       0.705384
    18298.261700       0.705038
    18331.805700       0.704689
    18365.472900       0.704336
    18399.264000       0.703981
    18433.179700       0.703620
    18467.220700       0.703255
    18501.387600       0.702885
    18535.681200       0.702508
    18570.102100       0.702125
    18604.651200       0.701734
    18639.329000       0.701334
    18674.136300       0.700926
    18709.073900       0.700509
    18744.142500       0.700081
    18779.342700       0.699643
    18814.675400       0.699192
    18850.141400       0.698730
    18885.741300       0.698255
    18921.475900       0.697766
    18957.346000       0.697263
    18993.352300       0.696744
    19029.495700       0.696210
    19065.776900       0.695659
