8,    channel 8 SRF extracted from INSAT-3DS_Sounder_SRFs.zip(INSAT-3DS-Sounder-SRF-Ch8.txt) (received Nov 2023)
Number of data points:
75
Wavenumber (cm-1)   Filter response
      863.930900       0.000000
      865.051900       0.005000
      866.175800       0.006600
      867.302700       0.010600
      868.432500       0.015800
      869.565200       0.019100
      870.700900       0.033100
      871.839600       0.033500
      872.981200       0.043600
      874.125900       0.066200
      875.273500       0.080400
      876.424200       0.099500
      877.577900       0.130900
      878.734600       0.158000
      879.894400       0.186200
      881.057300       0.236900
      882.223200       0.297100
      883.392200       0.359800
      884.564400       0.429600
      885.739600       0.501000
      886.918000       0.569100
      888.099500       0.628200
      889.284100       0.679700
      890.472000       0.742900
      891.663000       0.780300
      892.857100       0.799600
      894.054500       0.818800
      895.255100       0.844100
      896.459000       0.865700
      897.666100       0.863200
      898.876400       0.861800
      900.090000       0.866000
      901.306900       0.874400
      902.527100       0.878400
      903.750600       0.880400
      904.977400       0.882500
      906.207500       0.885300
      907.441000       0.884800
      908.677900       0.886300
      909.918100       0.893800
      911.161700       0.895000
      912.408800       0.906900
      913.659200       0.926700
      914.913100       0.938600
      916.170400       0.948300
      917.431200       0.962700
      918.695500       0.976900
      919.963200       0.989600
      921.234500       1.000000
      922.509200       0.988200
      923.787500       0.950700
      925.069400       0.910900
      926.354800       0.855600
      927.643800       0.776800
      928.936400       0.676000
      930.232600       0.586000
      931.532400       0.500800
      932.835800       0.411600
      934.142900       0.333300
      935.453700       0.266500
      936.768100       0.217600
      938.086300       0.183400
      939.408200       0.148000
      940.733800       0.115600
      942.063100       0.096800
      943.396200       0.082600
      944.733100       0.064500
      946.073800       0.047200
      947.418300       0.041500
      948.766600       0.038900
      950.118800       0.029400
      951.474800       0.028000
      952.834700       0.021100
      954.198500       0.012900
      955.566200       0.000000
