14, GOES 11.2um ABI FM3 SRF CWG processed March 10, 2016
Number of data points:
1259
Wavenumber (cm-1)   Filter response
      834.800000       0.001314
      834.900000       0.001704
      835.000000       0.002095
      835.100000       0.002486
      835.200000       0.002879
      835.300000       0.003272
      835.400000       0.003667
      835.500000       0.004097
      835.600000       0.004549
      835.700000       0.004992
      835.800000       0.005444
      835.900000       0.005890
      836.000000       0.006344
      836.100000       0.006794
      836.200000       0.007245
      836.300000       0.007702
      836.400000       0.007825
      836.500000       0.007684
      836.600000       0.007545
      836.700000       0.007400
      836.800000       0.007259
      836.900000       0.007116
      837.000000       0.006974
      837.100000       0.006830
      837.200000       0.006680
      837.300000       0.006623
      837.400000       0.006640
      837.500000       0.006660
      837.600000       0.006680
      837.700000       0.006700
      837.800000       0.006720
      837.900000       0.006740
      838.000000       0.006761
      838.100000       0.006792
      838.200000       0.006915
      838.300000       0.007228
      838.400000       0.007550
      838.500000       0.007878
      838.600000       0.008203
      838.700000       0.008527
      838.800000       0.008856
      838.900000       0.009179
      839.000000       0.009475
      839.100000       0.009865
      839.200000       0.010231
      839.300000       0.010600
      839.400000       0.010991
      839.500000       0.011375
      839.600000       0.011731
      839.700000       0.012153
      839.800000       0.012500
      839.900000       0.012877
      840.000000       0.013162
      840.100000       0.012949
      840.200000       0.012768
      840.300000       0.012484
      840.400000       0.012246
      840.500000       0.012027
      840.600000       0.011737
      840.700000       0.011559
      840.800000       0.011276
      840.900000       0.011057
      841.000000       0.011126
      841.100000       0.011218
      841.200000       0.011352
      841.300000       0.011438
      841.400000       0.011501
      841.500000       0.011648
      841.600000       0.011739
      841.700000       0.011819
      841.800000       0.011961
      841.900000       0.012134
      842.000000       0.012395
      842.100000       0.012631
      842.200000       0.012864
      842.300000       0.013115
      842.400000       0.013324
      842.500000       0.013579
      842.600000       0.013826
      842.700000       0.014063
      842.800000       0.014423
      842.900000       0.014959
      843.000000       0.015432
      843.100000       0.015890
      843.200000       0.016362
      843.300000       0.016897
      843.400000       0.017363
      843.500000       0.017822
      843.600000       0.018282
      843.700000       0.018681
      843.800000       0.018909
      843.900000       0.019202
      844.000000       0.019441
      844.100000       0.019739
      844.200000       0.019953
      844.300000       0.020255
      844.400000       0.020483
      844.500000       0.020791
      844.600000       0.021338
      844.700000       0.021911
      844.800000       0.022426
      844.900000       0.022954
      845.000000       0.023545
      845.100000       0.024071
      845.200000       0.024592
      845.300000       0.025115
      845.400000       0.025669
      845.500000       0.026262
      845.600000       0.026791
      845.700000       0.027320
      845.800000       0.027848
      845.900000       0.028430
      846.000000       0.029001
      846.100000       0.029594
      846.200000       0.030161
      846.300000       0.030762
      846.400000       0.031319
      846.500000       0.031921
      846.600000       0.032470
      846.700000       0.033079
      846.800000       0.033636
      846.900000       0.034250
      847.000000       0.034808
      847.100000       0.035418
      847.200000       0.035985
      847.300000       0.036770
      847.400000       0.037699
      847.500000       0.038637
      847.600000       0.039576
      847.700000       0.040516
      847.800000       0.041457
      847.900000       0.042399
      848.000000       0.043339
      848.100000       0.044332
      848.200000       0.045475
      848.300000       0.046681
      848.400000       0.047883
      848.500000       0.049102
      848.600000       0.050384
      848.700000       0.051645
      848.800000       0.052988
      848.900000       0.054304
      849.000000       0.055559
      849.100000       0.056905
      849.200000       0.058139
      849.300000       0.059486
      849.400000       0.060828
      849.500000       0.062065
      849.600000       0.063632
      849.700000       0.065500
      849.800000       0.067445
      849.900000       0.069324
      850.000000       0.071267
      850.100000       0.073199
      850.200000       0.075138
      850.300000       0.077020
      850.400000       0.078969
      850.500000       0.080857
      850.600000       0.082807
      850.700000       0.084917
      850.800000       0.087047
      850.900000       0.089256
      851.000000       0.091407
      851.100000       0.093590
      851.200000       0.095781
      851.300000       0.097860
      851.400000       0.099928
      851.500000       0.102562
      851.600000       0.104392
      851.700000       0.106902
      851.800000       0.109578
      851.900000       0.112251
      852.000000       0.114925
      852.100000       0.117603
      852.200000       0.120284
      852.300000       0.122968
      852.400000       0.125656
      852.500000       0.128345
      852.600000       0.131037
      852.700000       0.133698
      852.800000       0.137388
      852.900000       0.140341
      853.000000       0.144520
      853.100000       0.147607
      853.200000       0.151579
      853.300000       0.154986
      853.400000       0.158656
      853.500000       0.162387
      853.600000       0.165806
      853.700000       0.169731
      853.800000       0.173013
      853.900000       0.177480
      854.000000       0.182224
      854.100000       0.187016
      854.200000       0.191637
      854.300000       0.196425
      854.400000       0.201317
      854.500000       0.205834
      854.600000       0.210559
      854.700000       0.214701
      854.800000       0.219716
      854.900000       0.224447
      855.000000       0.229858
      855.100000       0.235238
      855.200000       0.240619
      855.300000       0.245992
      855.400000       0.251808
      855.500000       0.257774
      855.600000       0.263173
      855.700000       0.268562
      855.800000       0.273954
      855.900000       0.279114
      856.000000       0.284393
      856.100000       0.290281
      856.200000       0.295829
      856.300000       0.302252
      856.400000       0.307605
      856.500000       0.313478
      856.600000       0.319200
      856.700000       0.324905
      856.800000       0.330871
      856.900000       0.337073
      857.000000       0.342561
      857.100000       0.348993
      857.200000       0.355362
      857.300000       0.361737
      857.400000       0.368099
      857.500000       0.375004
      857.600000       0.381936
      857.700000       0.388293
      857.800000       0.394693
      857.900000       0.401067
      858.000000       0.408250
      858.100000       0.414980
      858.200000       0.421322
      858.300000       0.428071
      858.400000       0.435174
      858.500000       0.442362
      858.600000       0.448944
      858.700000       0.456163
      858.800000       0.463089
      858.900000       0.469739
      859.000000       0.476369
      859.100000       0.482659
      859.200000       0.489607
      859.300000       0.495995
      859.400000       0.502580
      859.500000       0.509117
      859.600000       0.515544
      859.700000       0.521474
      859.800000       0.527394
      859.900000       0.533712
      860.000000       0.540341
      860.100000       0.546245
      860.200000       0.552161
      860.300000       0.558148
      860.400000       0.564859
      860.500000       0.570934
      860.600000       0.576829
      860.700000       0.582816
      860.800000       0.588808
      860.900000       0.594817
      861.000000       0.600842
      861.100000       0.606883
      861.200000       0.612944
      861.300000       0.619003
      861.400000       0.625057
      861.500000       0.631102
      861.600000       0.637131
      861.700000       0.643144
      861.800000       0.649139
      861.900000       0.655145
      862.000000       0.660520
      862.100000       0.665843
      862.200000       0.670908
      862.300000       0.676571
      862.400000       0.681544
      862.500000       0.687329
      862.600000       0.692689
      862.700000       0.697849
      862.800000       0.702293
      862.900000       0.706725
      863.000000       0.711010
      863.100000       0.714778
      863.200000       0.718559
      863.300000       0.722329
      863.400000       0.726084
      863.500000       0.729829
      863.600000       0.733548
      863.700000       0.737259
      863.800000       0.740944
      863.900000       0.744620
      864.000000       0.748296
      864.100000       0.751968
      864.200000       0.755631
      864.300000       0.759317
      864.400000       0.763038
      864.500000       0.766529
      864.600000       0.769354
      864.700000       0.772240
      864.800000       0.775787
      864.900000       0.778703
      865.000000       0.781523
      865.100000       0.784357
      865.200000       0.787180
      865.300000       0.789904
      865.400000       0.792613
      865.500000       0.795321
      865.600000       0.798052
      865.700000       0.801260
      865.800000       0.804360
      865.900000       0.806340
      866.000000       0.808632
      866.100000       0.810246
      866.200000       0.811876
      866.300000       0.814146
      866.400000       0.816110
      866.500000       0.817717
      866.600000       0.819327
      866.700000       0.821024
      866.800000       0.823469
      866.900000       0.825284
      867.000000       0.826888
      867.100000       0.828510
      867.200000       0.830163
      867.300000       0.831529
      867.400000       0.832364
      867.500000       0.833650
      867.600000       0.834728
      867.700000       0.835902
      867.800000       0.836956
      867.900000       0.838630
      868.000000       0.839632
      868.100000       0.840842
      868.200000       0.841596
      868.300000       0.842843
      868.400000       0.843568
      868.500000       0.844026
      868.600000       0.844467
      868.700000       0.845032
      868.800000       0.846283
      868.900000       0.846806
      869.000000       0.847294
      869.100000       0.847798
      869.200000       0.848314
      869.300000       0.848857
      869.400000       0.849454
      869.500000       0.850089
      869.600000       0.850788
      869.700000       0.851499
      869.800000       0.852206
      869.900000       0.852358
      870.000000       0.852794
      870.100000       0.853434
      870.200000       0.853585
      870.300000       0.854232
      870.400000       0.854238
      870.500000       0.855217
      870.600000       0.855911
      870.700000       0.856218
      870.800000       0.857226
      870.900000       0.857813
      871.000000       0.858610
      871.100000       0.859864
      871.200000       0.860867
      871.300000       0.862530
      871.400000       0.863684
      871.500000       0.864900
      871.600000       0.865885
      871.700000       0.867185
      871.800000       0.868215
      871.900000       0.869614
      872.000000       0.870397
      872.100000       0.871652
      872.200000       0.872557
      872.300000       0.873992
      872.400000       0.874718
      872.500000       0.875907
      872.600000       0.876477
      872.700000       0.877100
      872.800000       0.878295
      872.900000       0.879134
      873.000000       0.880323
      873.100000       0.880757
      873.200000       0.881798
      873.300000       0.882882
      873.400000       0.883868
      873.500000       0.884851
      873.600000       0.886021
      873.700000       0.887062
      873.800000       0.887631
      873.900000       0.889032
      874.000000       0.890044
      874.100000       0.891488
      874.200000       0.892341
      874.300000       0.893103
      874.400000       0.894538
      874.500000       0.895467
      874.600000       0.897046
      874.700000       0.898036
      874.800000       0.899474
      874.900000       0.900206
      875.000000       0.900848
      875.100000       0.901831
      875.200000       0.903153
      875.300000       0.903776
      875.400000       0.904381
      875.500000       0.905490
      875.600000       0.906683
      875.700000       0.907281
      875.800000       0.907877
      875.900000       0.909097
      876.000000       0.910155
      876.100000       0.910728
      876.200000       0.911326
      876.300000       0.912596
      876.400000       0.913470
      876.500000       0.913995
      876.600000       0.914614
      876.700000       0.915888
      876.800000       0.916564
      876.900000       0.917232
      877.000000       0.918671
      877.100000       0.919418
      877.200000       0.920019
      877.300000       0.920843
      877.400000       0.922226
      877.500000       0.922949
      877.600000       0.923630
      877.700000       0.924313
      877.800000       0.924996
      877.900000       0.925690
      878.000000       0.926357
      878.100000       0.927587
      878.200000       0.928948
      878.300000       0.929689
      878.400000       0.930484
      878.500000       0.931188
      878.600000       0.931890
      878.700000       0.932507
      878.800000       0.933104
      878.900000       0.933764
      879.000000       0.935064
      879.100000       0.935960
      879.200000       0.936513
      879.300000       0.937634
      879.400000       0.938422
      879.500000       0.938878
      879.600000       0.939366
      879.700000       0.940572
      879.800000       0.941226
      879.900000       0.941631
      880.000000       0.942192
      880.100000       0.943362
      880.200000       0.943855
      880.300000       0.944260
      880.400000       0.944653
      880.500000       0.945378
      880.600000       0.946533
      880.700000       0.946929
      880.800000       0.947351
      880.900000       0.947786
      881.000000       0.948614
      881.100000       0.949779
      881.200000       0.950288
      881.300000       0.950840
      881.400000       0.951423
      881.500000       0.952688
      881.600000       0.953846
      881.700000       0.954585
      881.800000       0.955402
      881.900000       0.956262
      882.000000       0.957879
      882.100000       0.959270
      882.200000       0.960170
      882.300000       0.961161
      882.400000       0.962236
      882.500000       0.963991
      882.600000       0.965242
      882.700000       0.966219
      882.800000       0.967061
      882.900000       0.967794
      883.000000       0.968502
      883.100000       0.970110
      883.200000       0.970953
      883.300000       0.971578
      883.400000       0.972154
      883.500000       0.972668
      883.600000       0.973140
      883.700000       0.973599
      883.800000       0.974025
      883.900000       0.974690
      884.000000       0.975878
      884.100000       0.976349
      884.200000       0.976765
      884.300000       0.977177
      884.400000       0.977920
      884.500000       0.979164
      884.600000       0.979544
      884.700000       0.979942
      884.800000       0.980407
      884.900000       0.981198
      885.000000       0.982406
      885.100000       0.982887
      885.200000       0.983350
      885.300000       0.983819
      885.400000       0.984285
      885.500000       0.984760
      885.600000       0.985256
      885.700000       0.986273
      885.800000       0.987310
      885.900000       0.987848
      886.000000       0.988393
      886.100000       0.988972
      886.200000       0.989587
      886.300000       0.990231
      886.400000       0.990883
      886.500000       0.991548
      886.600000       0.992217
      886.700000       0.992910
      886.800000       0.993610
      886.900000       0.994312
      887.000000       0.994993
      887.100000       0.995648
      887.200000       0.996272
      887.300000       0.996824
      887.400000       0.997461
      887.500000       0.997963
      887.600000       0.998439
      887.700000       0.998889
      887.800000       0.999219
      887.900000       0.998848
      888.000000       0.998900
      888.100000       0.999196
      888.200000       0.999461
      888.300000       0.999642
      888.400000       0.998963
      888.500000       0.999091
      888.600000       0.999302
      888.700000       0.999521
      888.800000       0.999674
      888.900000       0.998995
      889.000000       0.999035
      889.100000       0.999343
      889.200000       0.999564
      889.300000       0.998919
      889.400000       0.999135
      889.500000       0.999231
      889.600000       0.998652
      889.700000       0.998983
      889.800000       0.999067
      889.900000       0.998596
      890.000000       0.998759
      890.100000       0.998154
      890.200000       0.998419
      890.300000       0.998508
      890.400000       0.997965
      890.500000       0.998384
      890.600000       0.998497
      890.700000       0.998169
      890.800000       0.998582
      890.900000       0.998792
      891.000000       0.998558
      891.100000       0.998901
      891.200000       0.999236
      891.300000       0.998806
      891.400000       0.999235
      891.500000       0.999333
      891.600000       0.998874
      891.700000       0.999386
      891.800000       0.999854
      891.900000       1.000000
      892.000000       0.999487
      892.100000       0.999845
      892.200000       0.999767
      892.300000       0.999285
      892.400000       0.999572
      892.500000       0.999847
      892.600000       0.999728
      892.700000       0.999110
      892.800000       0.999281
      892.900000       0.999105
      893.000000       0.998468
      893.100000       0.998546
      893.200000       0.998454
      893.300000       0.997712
      893.400000       0.997753
      893.500000       0.997571
      893.600000       0.996804
      893.700000       0.996554
      893.800000       0.995904
      893.900000       0.995952
      894.000000       0.995829
      894.100000       0.995092
      894.200000       0.995140
      894.300000       0.994971
      894.400000       0.994245
      894.500000       0.994041
      894.600000       0.993476
      894.700000       0.993304
      894.800000       0.992624
      894.900000       0.992494
      895.000000       0.992131
      895.100000       0.992356
      895.200000       0.992419
      895.300000       0.991952
      895.400000       0.991757
      895.500000       0.991308
      895.600000       0.991475
      895.700000       0.991067
      895.800000       0.991024
      895.900000       0.990643
      896.000000       0.991092
      896.100000       0.991157
      896.200000       0.990902
      896.300000       0.991263
      896.400000       0.991529
      896.500000       0.991171
      896.600000       0.991181
      896.700000       0.990805
      896.800000       0.991235
