 6    , ATSR modified 12 micron filter. Detector temperature 110K
Number of data points:
4096
Wavenumber (cm-1)   Filter response
      760.000000       0.000000
      760.040000       0.000000
      760.080000       0.000000
      760.120000       0.000000
      760.160000       0.000000
      760.200000       0.000000
      760.240000       0.000000
      760.280000       0.000000
      760.320000       0.000000
      760.360000       0.000000
      760.400000       0.000000
      760.440000       0.000000
      760.480000       0.000000
      760.520000       0.000000
      760.560000       0.000000
      760.600000       0.000000
      760.640000       0.000000
      760.680000       0.000000
      760.720000       0.000000
      760.760000       0.000000
      760.800000       0.000000
      760.840000       0.000000
      760.880000       0.000000
      760.920000       0.000000
      760.960000       0.000000
      761.000000       0.000000
      761.040000       0.000000
      761.080000       0.000000
      761.120000       0.000000
      761.160000       0.000000
      761.200000       0.000000
      761.240000       0.000000
      761.280000       0.000000
      761.320000       0.000000
      761.360000       0.000000
      761.400000       0.000000
      761.440000       0.000000
      761.480000       0.000000
      761.520000       0.000000
      761.560000       0.000000
      761.600000       0.000000
      761.640000       0.000000
      761.680000       0.000000
      761.720000       0.000000
      761.760000       0.000000
      761.800000       0.000000
      761.840000       0.000000
      761.880000       0.000000
      761.920000       0.000000
      761.960000       0.000000
      762.000000       0.000000
      762.040000       0.000000
      762.080000       0.000000
      762.120000       0.000000
      762.160000       0.000000
      762.200000       0.000000
      762.240000       0.000000
      762.280000       0.000000
      762.320000       0.000000
      762.360000       0.000000
      762.400000       0.000000
      762.440000       0.000000
      762.480000       0.000000
      762.520000       0.000000
      762.560000       0.000000
      762.600000       0.000000
      762.640000       0.000000
      762.680000       0.000000
      762.720000       0.000000
      762.760000       0.000000
      762.800000       0.000000
      762.840000       0.000000
      762.880000       0.000000
      762.920000       0.000000
      762.960000       0.000000
      763.000000       0.000000
      763.040000       0.000000
      763.080000       0.000000
      763.120000       0.000000
      763.160000       0.000012
      763.200000       0.000026
      763.240000       0.000041
      763.280000       0.000057
      763.320000       0.000073
      763.360000       0.000089
      763.400000       0.000106
      763.440000       0.000123
      763.480000       0.000141
      763.520000       0.000159
      763.560000       0.000177
      763.600000       0.000196
      763.640000       0.000215
      763.680000       0.000234
      763.720000       0.000254
      763.760000       0.000275
      763.800000       0.000295
      763.840000       0.000317
      763.880000       0.000338
      763.920000       0.000360
      763.960000       0.000382
      764.000000       0.000405
      764.040000       0.000428
      764.080000       0.000451
      764.120000       0.000475
      764.160000       0.000499
      764.200000       0.000523
      764.240000       0.000548
      764.280000       0.000573
      764.320000       0.000598
      764.360000       0.000624
      764.400000       0.000650
      764.440000       0.000676
      764.480000       0.000702
      764.520000       0.000729
      764.560000       0.000756
      764.600000       0.000784
      764.640000       0.000812
      764.680000       0.000840
      764.720000       0.000868
      764.760000       0.000896
      764.800000       0.000925
      764.840000       0.000954
      764.880000       0.000983
      764.920000       0.001012
      764.960000       0.001042
      765.000000       0.001072
      765.040000       0.001102
      765.080000       0.001132
      765.120000       0.001162
      765.160000       0.001193
      765.200000       0.001224
      765.240000       0.001254
      765.280000       0.001285
      765.320000       0.001317
      765.360000       0.001348
      765.400000       0.001379
      765.440000       0.001411
      765.480000       0.001442
      765.520000       0.001474
      765.560000       0.001506
      765.600000       0.001538
      765.640000       0.001570
      765.680000       0.001602
      765.720000       0.001634
      765.760000       0.001666
      765.800000       0.001698
      765.840000       0.001730
      765.880000       0.001762
      765.920000       0.001794
      765.960000       0.001820
      766.000000       0.001844
      766.040000       0.001868
      766.080000       0.001891
      766.120000       0.001914
      766.160000       0.001938
      766.200000       0.001961
      766.240000       0.001984
      766.280000       0.002007
      766.320000       0.002030
      766.360000       0.002052
      766.400000       0.002075
      766.440000       0.002098
      766.480000       0.002120
      766.520000       0.002142
      766.560000       0.002165
      766.600000       0.002187
      766.640000       0.002209
      766.680000       0.002231
      766.720000       0.002253
      766.760000       0.002275
      766.800000       0.002296
      766.840000       0.002318
      766.880000       0.002340
      766.920000       0.002361
      766.960000       0.002383
      767.000000       0.002404
      767.040000       0.002426
      767.080000       0.002447
      767.120000       0.002468
      767.160000       0.002490
      767.200000       0.002511
      767.240000       0.002532
      767.280000       0.002553
      767.320000       0.002575
      767.360000       0.002596
      767.400000       0.002617
      767.440000       0.002638
      767.480000       0.002659
      767.520000       0.002680
      767.560000       0.002701
      767.600000       0.002722
      767.640000       0.002744
      767.680000       0.002765
      767.720000       0.002786
      767.760000       0.002807
      767.800000       0.002828
      767.840000       0.002850
      767.880000       0.002871
      767.920000       0.002893
      767.960000       0.002914
      768.000000       0.002936
      768.040000       0.002957
      768.080000       0.002979
      768.120000       0.003001
      768.160000       0.003023
      768.200000       0.003045
      768.240000       0.003067
      768.280000       0.003089
      768.320000       0.003111
      768.360000       0.003134
      768.400000       0.003156
      768.440000       0.003179
      768.480000       0.003202
      768.520000       0.003225
      768.560000       0.003248
      768.600000       0.003272
      768.640000       0.003295
      768.680000       0.003319
      768.720000       0.003343
      768.760000       0.003368
      768.800000       0.003402
      768.840000       0.003436
      768.880000       0.003471
      768.920000       0.003506
      768.960000       0.003541
      769.000000       0.003577
      769.040000       0.003613
      769.080000       0.003649
      769.120000       0.003686
      769.160000       0.003722
      769.200000       0.003759
      769.240000       0.003797
      769.280000       0.003834
      769.320000       0.003883
      769.360000       0.003935
      769.400000       0.003989
      769.440000       0.004042
      769.480000       0.004097
      769.520000       0.004152
      769.560000       0.004207
      769.600000       0.004263
      769.640000       0.004320
      769.680000       0.004377
      769.720000       0.004434
      769.760000       0.004492
      769.800000       0.004551
      769.840000       0.004610
      769.880000       0.004670
      769.920000       0.004730
      769.960000       0.004790
      770.000000       0.004851
      770.040000       0.004913
      770.080000       0.004975
      770.120000       0.005038
      770.160000       0.005101
      770.200000       0.005164
      770.240000       0.005228
      770.280000       0.005292
      770.320000       0.005357
      770.360000       0.005422
      770.400000       0.005487
      770.440000       0.005553
      770.480000       0.005619
      770.520000       0.005686
      770.560000       0.005753
      770.600000       0.005820
      770.640000       0.005888
      770.680000       0.005956
      770.720000       0.006024
      770.760000       0.006093
      770.800000       0.006162
      770.840000       0.006231
      770.880000       0.006300
      770.920000       0.006370
      770.960000       0.006440
      771.000000       0.006510
      771.040000       0.006580
      771.080000       0.006651
      771.120000       0.006721
      771.160000       0.006792
      771.200000       0.006863
      771.240000       0.006934
      771.280000       0.007005
      771.320000       0.007077
      771.360000       0.007148
      771.400000       0.007219
      771.440000       0.007291
      771.480000       0.007362
      771.520000       0.007434
      771.560000       0.007505
      771.600000       0.007577
      771.640000       0.007636
      771.680000       0.007694
      771.720000       0.007751
      771.760000       0.007809
      771.800000       0.007865
      771.840000       0.007922
      771.880000       0.007978
      771.920000       0.008034
      771.960000       0.008089
      772.000000       0.008144
      772.040000       0.008199
      772.080000       0.008254
      772.120000       0.008308
      772.160000       0.008362
      772.200000       0.008415
      772.240000       0.008468
      772.280000       0.008521
      772.320000       0.008573
      772.360000       0.008626
      772.400000       0.008677
      772.440000       0.008729
      772.480000       0.008780
      772.520000       0.008831
      772.560000       0.008881
      772.600000       0.008931
      772.640000       0.008981
      772.680000       0.009030
      772.720000       0.009079
      772.760000       0.009128
      772.800000       0.009176
      772.840000       0.009224
      772.880000       0.009272
      772.920000       0.009319
      772.960000       0.009366
      773.000000       0.009412
      773.040000       0.009459
      773.080000       0.009505
      773.120000       0.009550
      773.160000       0.009596
      773.200000       0.009641
      773.240000       0.009686
      773.280000       0.009730
      773.320000       0.009774
      773.360000       0.009818
      773.400000       0.009862
      773.440000       0.009905
      773.480000       0.009948
      773.520000       0.009991
      773.560000       0.010034
      773.600000       0.010076
      773.640000       0.010118
      773.680000       0.010160
      773.720000       0.010201
      773.760000       0.010243
      773.800000       0.010284
      773.840000       0.010325
      773.880000       0.010366
      773.920000       0.010406
      773.960000       0.010447
      774.000000       0.010487
      774.040000       0.010527
      774.080000       0.010567
      774.120000       0.010607
      774.160000       0.010647
      774.200000       0.010686
      774.240000       0.010726
      774.280000       0.010765
      774.320000       0.010805
      774.360000       0.010844
      774.400000       0.010884
      774.440000       0.010923
      774.480000       0.010964
      774.520000       0.011017
      774.560000       0.011070
      774.600000       0.011123
      774.640000       0.011177
      774.680000       0.011230
      774.720000       0.011284
      774.760000       0.011338
      774.800000       0.011392
      774.840000       0.011447
      774.880000       0.011501
      774.920000       0.011556
      774.960000       0.011612
      775.000000       0.011667
      775.040000       0.011723
      775.080000       0.011779
      775.120000       0.011835
      775.160000       0.011891
      775.200000       0.011947
      775.240000       0.012004
      775.280000       0.012054
      775.320000       0.012100
      775.360000       0.012146
      775.400000       0.012192
      775.440000       0.012238
      775.480000       0.012284
      775.520000       0.012330
      775.560000       0.012377
      775.600000       0.012424
      775.640000       0.012470
      775.680000       0.012517
      775.720000       0.012564
      775.760000       0.012611
      775.800000       0.012658
      775.840000       0.012705
      775.880000       0.012752
      775.920000       0.012800
      775.960000       0.012847
      776.000000       0.012894
      776.040000       0.012942
      776.080000       0.012989
      776.120000       0.013036
      776.160000       0.013084
      776.200000       0.013131
      776.240000       0.013179
      776.280000       0.013226
      776.320000       0.013273
      776.360000       0.013321
      776.400000       0.013368
      776.440000       0.013415
      776.480000       0.013462
      776.520000       0.013510
      776.560000       0.013557
      776.600000       0.013604
      776.640000       0.013650
      776.680000       0.013697
      776.720000       0.013744
      776.760000       0.013790
      776.800000       0.013837
      776.840000       0.013883
      776.880000       0.013929
      776.920000       0.013975
      776.960000       0.014021
      777.000000       0.014066
      777.040000       0.014111
      777.080000       0.014156
      777.120000       0.014201
      777.160000       0.014246
      777.200000       0.014290
      777.240000       0.014334
      777.280000       0.014378
      777.320000       0.014421
      777.360000       0.014464
      777.400000       0.014495
      777.440000       0.014523
      777.480000       0.014551
      777.520000       0.014578
      777.560000       0.014605
      777.600000       0.014631
      777.640000       0.014657
      777.680000       0.014682
      777.720000       0.014707
      777.760000       0.014731
      777.800000       0.014755
      777.840000       0.014778
      777.880000       0.014801
      777.920000       0.014823
      777.960000       0.014845
      778.000000       0.014866
      778.040000       0.014886
      778.080000       0.014906
      778.120000       0.014926
      778.160000       0.014945
      778.200000       0.014964
      778.240000       0.014982
      778.280000       0.015000
      778.320000       0.015018
      778.360000       0.015035
      778.400000       0.015051
      778.440000       0.015067
      778.480000       0.015083
      778.520000       0.015099
      778.560000       0.015114
      778.600000       0.015128
      778.640000       0.015142
      778.680000       0.015156
      778.720000       0.015169
      778.760000       0.015182
      778.800000       0.015195
      778.840000       0.015208
      778.880000       0.015220
      778.920000       0.015231
      778.960000       0.015243
      779.000000       0.015254
      779.040000       0.015265
      779.080000       0.015276
      779.120000       0.015286
      779.160000       0.015296
      779.200000       0.015306
      779.240000       0.015316
      779.280000       0.015326
      779.320000       0.015335
      779.360000       0.015344
      779.400000       0.015353
      779.440000       0.015362
      779.480000       0.015371
      779.520000       0.015380
      779.560000       0.015388
      779.600000       0.015397
      779.640000       0.015405
      779.680000       0.015413
      779.720000       0.015422
      779.760000       0.015430
      779.800000       0.015439
      779.840000       0.015447
      779.880000       0.015455
      779.920000       0.015464
      779.960000       0.015472
      780.000000       0.015481
      780.040000       0.015490
      780.080000       0.015499
      780.120000       0.015508
      780.160000       0.015517
      780.200000       0.015526
      780.240000       0.015536
      780.280000       0.015547
      780.320000       0.015569
      780.360000       0.015591
      780.400000       0.015613
      780.440000       0.015636
      780.480000       0.015659
      780.520000       0.015682
      780.560000       0.015707
      780.600000       0.015731
      780.640000       0.015756
      780.680000       0.015782
      780.720000       0.015808
      780.760000       0.015834
      780.800000       0.015862
      780.840000       0.015889
      780.880000       0.015917
      780.920000       0.015946
      780.960000       0.015975
      781.000000       0.016005
      781.040000       0.016035
      781.080000       0.016066
      781.120000       0.016098
      781.160000       0.016130
      781.200000       0.016163
      781.240000       0.016196
      781.280000       0.016230
      781.320000       0.016265
      781.360000       0.016300
      781.400000       0.016334
      781.440000       0.016369
      781.480000       0.016404
      781.520000       0.016440
      781.560000       0.016476
      781.600000       0.016513
      781.640000       0.016551
      781.680000       0.016589
      781.720000       0.016628
      781.760000       0.016668
      781.800000       0.016708
      781.840000       0.016750
      781.880000       0.016791
      781.920000       0.016834
      781.960000       0.016877
      782.000000       0.016921
      782.040000       0.016966
      782.080000       0.017011
      782.120000       0.017057
      782.160000       0.017104
      782.200000       0.017152
      782.240000       0.017200
      782.280000       0.017249
      782.320000       0.017299
      782.360000       0.017350
      782.400000       0.017401
      782.440000       0.017453
      782.480000       0.017506
      782.520000       0.017560
      782.560000       0.017614
      782.600000       0.017669
      782.640000       0.017725
      782.680000       0.017782
      782.720000       0.017840
      782.760000       0.017898
      782.800000       0.017957
      782.840000       0.018017
      782.880000       0.018078
      782.920000       0.018140
      782.960000       0.018202
      783.000000       0.018266
      783.040000       0.018330
      783.080000       0.018395
      783.120000       0.018460
      783.160000       0.018527
      783.200000       0.018594
      783.240000       0.018664
      783.280000       0.018734
      783.320000       0.018805
      783.360000       0.018877
      783.400000       0.018950
      783.440000       0.019024
      783.480000       0.019098
      783.520000       0.019174
      783.560000       0.019250
      783.600000       0.019327
      783.640000       0.019405
      783.680000       0.019484
      783.720000       0.019564
      783.760000       0.019645
      783.800000       0.019726
      783.840000       0.019809
      783.880000       0.019892
      783.920000       0.019976
      783.960000       0.020061
      784.000000       0.020147
      784.040000       0.020233
      784.080000       0.020321
      784.120000       0.020409
      784.160000       0.020498
      784.200000       0.020588
      784.240000       0.020679
      784.280000       0.020771
      784.320000       0.020864
      784.360000       0.020957
      784.400000       0.021051
      784.440000       0.021146
      784.480000       0.021242
      784.520000       0.021339
      784.560000       0.021437
      784.600000       0.021535
      784.640000       0.021634
      784.680000       0.021734
      784.720000       0.021835
      784.760000       0.021937
