46,   46, MVIRI VIS channel from srf_MET7_2003123_2003124_1801-Release_S10EE_10.dat
Number of data points:
793
Wavenumber (cm-1)   Filter response
     8442.380800       0.000000
     8449.514200       0.000000
     8456.659600       0.000004
     8463.817200       0.000054
     8470.986900       0.000160
     8478.168700       0.000320
     8485.362700       0.000533
     8492.569000       0.000796
     8499.787500       0.001110
     8507.018300       0.001471
     8514.261400       0.001879
     8521.516800       0.002333
     8528.784600       0.002831
     8536.064900       0.003372
     8543.357500       0.003954
     8550.662700       0.004577
     8557.980300       0.005240
     8565.310500       0.005941
     8572.653200       0.006680
     8580.008600       0.007454
     8587.376600       0.008265
     8594.757200       0.009110
     8602.150500       0.009989
     8609.556600       0.010901
     8616.975400       0.011844
     8624.407100       0.012820
     8631.851500       0.013825
     8639.308900       0.014861
     8646.779100       0.015926
     8654.262200       0.017020
     8661.758300       0.018142
     8669.267400       0.019291
     8676.789600       0.020467
     8684.324800       0.021669
     8691.873100       0.022898
     8699.434500       0.024152
     8707.009100       0.025431
     8714.596900       0.026734
     8722.198000       0.028062
     8729.812300       0.029413
     8737.439900       0.030788
     8745.080900       0.032187
     8752.735200       0.033608
     8760.403000       0.035051
     8768.084200       0.036518
     8775.778900       0.038005
     8783.487000       0.039516
     8791.208800       0.041047
     8798.944100       0.042600
     8806.693100       0.044175
     8814.455700       0.045770
     8822.232000       0.047387
     8830.022100       0.049024
     8837.825900       0.050683
     8845.643500       0.052361
     8853.475000       0.054061
     8861.320300       0.055781
     8869.179600       0.057521
     8877.052800       0.059282
     8884.940000       0.061063
     8892.841300       0.062864
     8900.756600       0.064686
     8908.686000       0.066528
     8916.629500       0.068390
     8924.587200       0.070273
     8932.559200       0.072175
     8940.545400       0.074099
     8948.545900       0.076042
     8956.560700       0.078006
     8964.589900       0.079990
     8972.633500       0.081995
     8980.691500       0.084020
     8988.764000       0.086066
     8996.851100       0.088133
     9004.952700       0.090220
     9013.068900       0.092328
     9021.199800       0.094457
     9029.345400       0.096607
     9037.505600       0.098777
     9045.680700       0.100969
     9053.870500       0.103182
     9062.075200       0.105417
     9070.294800       0.107673
     9078.529300       0.109950
     9086.778700       0.112249
     9095.043200       0.114569
     9103.322700       0.116911
     9111.617300       0.119276
     9119.927000       0.121661
     9128.251900       0.124070
     9136.592100       0.126500
     9144.947400       0.128952
     9153.318100       0.131427
     9161.704100       0.133923
     9170.105500       0.136443
     9178.522300       0.138985
     9186.954500       0.141549
     9195.402300       0.144137
     9203.865600       0.146747
     9212.344500       0.149380
     9220.839100       0.152036
     9229.349300       0.154715
     9237.875300       0.157417
     9246.417000       0.160142
     9254.974500       0.162890
     9263.547900       0.165662
     9272.137200       0.168457
     9280.742500       0.171275
     9289.363700       0.174117
     9298.000900       0.176982
     9306.654300       0.179871
     9315.323700       0.182783
     9324.009300       0.185719
     9332.711200       0.188678
     9341.429200       0.191661
     9350.163600       0.194667
     9358.914400       0.197697
     9367.681500       0.200751
     9376.465100       0.203828
     9385.265100       0.206929
     9394.081700       0.210053
     9402.914900       0.213201
     9411.764700       0.216372
     9420.631200       0.219567
     9429.514400       0.222785
     9438.414300       0.226027
     9447.331100       0.229292
     9456.264800       0.232580
     9465.215300       0.235892
     9474.182900       0.239227
     9483.167400       0.242585
     9492.169000       0.245965
     9501.187600       0.249369
     9510.223500       0.252796
     9519.276500       0.256245
     9528.346800       0.259718
     9537.434400       0.263212
     9546.539400       0.266729
     9555.661700       0.270268
     9564.801500       0.273830
     9573.958800       0.277413
     9583.133700       0.281019
     9592.326100       0.284645
     9601.536200       0.288294
     9610.764100       0.291964
     9620.009600       0.295655
     9629.273000       0.299368
     9638.554200       0.303101
     9647.853400       0.306855
     9657.170400       0.310629
     9666.505600       0.314424
     9675.858700       0.318239
     9685.230000       0.322073
     9694.619500       0.325927
     9704.027200       0.329801
     9713.453100       0.333694
     9722.897400       0.337606
     9732.360100       0.341537
     9741.841200       0.345486
     9751.340800       0.349453
     9760.859000       0.353439
     9770.395700       0.357442
     9779.951100       0.361463
     9789.525200       0.365500
     9799.118100       0.369555
     9808.729800       0.373626
     9818.360300       0.377714
     9828.009800       0.381817
     9837.678300       0.385937
     9847.365800       0.390071
     9857.072400       0.394221
     9866.798200       0.398385
     9876.543200       0.402564
     9886.307500       0.406757
     9896.091000       0.410964
     9905.894000       0.415184
     9915.716400       0.419417
     9925.558300       0.423663
     9935.419800       0.427922
     9945.300800       0.432192
     9955.201600       0.436474
     9965.122100       0.440767
     9975.062300       0.445071
     9985.022500       0.449386
     9995.002500       0.453711
    10005.002500       0.458046
    10015.022500       0.462390
    10025.062700       0.466743
    10035.122900       0.471104
    10045.203400       0.475474
    10055.304200       0.479852
    10065.425300       0.484237
    10075.566800       0.488629
    10085.728700       0.493027
    10095.911200       0.497432
    10106.114200       0.501843
    10116.337900       0.506258
    10126.582300       0.510679
    10136.847400       0.515104
    10147.133400       0.519533
    10157.440300       0.523966
    10167.768200       0.528401
    10178.117000       0.532840
    10188.487000       0.537281
    10198.878100       0.541723
    10209.290500       0.546167
    10219.724100       0.550612
    10230.179000       0.555058
    10240.655400       0.559503
    10251.153300       0.563948
    10261.672700       0.568392
    10272.213700       0.572835
    10282.776300       0.577276
    10293.360800       0.581715
    10303.967000       0.586152
    10314.595200       0.590585
    10325.245200       0.595014
    10335.917300       0.599439
    10346.611500       0.603860
    10357.327800       0.608276
    10368.066400       0.612686
    10378.827200       0.617091
    10389.610400       0.621489
    10400.416000       0.625880
    10411.244100       0.630264
    10422.094800       0.634640
    10432.968200       0.639008
    10443.864200       0.643367
    10454.783100       0.647717
    10465.724800       0.652057
    10476.689400       0.656387
    10487.677000       0.660707
    10498.687700       0.665016
    10509.721500       0.669313
    10520.778500       0.673598
    10531.858900       0.677871
    10542.962600       0.682131
    10554.089700       0.686378
    10565.240400       0.690611
    10576.414600       0.694830
    10587.612500       0.699034
    10598.834100       0.703223
    10610.079600       0.707397
    10621.348900       0.711554
    10632.642200       0.715695
    10643.959600       0.719820
    10655.301000       0.723927
    10666.666700       0.728016
    10678.056600       0.732087
    10689.470900       0.736139
    10700.909600       0.740173
    10712.372800       0.744187
    10723.860600       0.748181
    10735.373100       0.752154
    10746.910300       0.756108
    10758.472300       0.760039
    10770.059200       0.763950
    10781.671200       0.767838
    10793.308100       0.771704
    10804.970300       0.775547
    10816.657700       0.779367
    10828.370300       0.783164
    10840.108400       0.786937
    10851.871900       0.790685
    10863.661100       0.794409
    10875.475800       0.798107
    10887.316300       0.801780
    10899.182600       0.805427
    10911.074700       0.809048
    10922.992900       0.812643
    10934.937100       0.816210
    10946.907500       0.819751
    10958.904100       0.823263
    10970.927000       0.826748
    10982.976400       0.830205
    10995.052200       0.833633
    11007.154700       0.837031
    11019.283700       0.840401
    11031.439600       0.843741
    11043.622300       0.847051
    11055.832000       0.850331
    11068.068600       0.853580
    11080.332400       0.856799
    11092.623400       0.859986
    11104.941700       0.863142
    11117.287400       0.866266
    11129.660500       0.869358
    11142.061300       0.872419
    11154.489700       0.875446
    11166.945800       0.878441
    11179.429800       0.881402
    11191.941800       0.884331
    11204.481800       0.887226
    11217.049900       0.890087
    11229.646300       0.892914
    11242.270900       0.895706
    11254.924000       0.898465
    11267.605600       0.901189
    11280.315800       0.903877
    11293.054800       0.906531
    11305.822500       0.909149
    11318.619100       0.911733
    11331.444800       0.914280
    11344.299500       0.916791
    11357.183400       0.919267
    11370.096600       0.921706
    11383.039300       0.924109
    11396.011400       0.926475
    11409.013100       0.928805
    11422.044500       0.931098
    11435.105800       0.933354
    11448.196900       0.935573
    11461.318100       0.937755
    11474.469300       0.939900
    11487.650800       0.942007
    11500.862600       0.944077
    11514.104800       0.946109
    11527.377500       0.948104
    11540.680900       0.950060
    11554.015000       0.951979
    11567.380000       0.953860
    11580.775900       0.955703
    11594.202900       0.957508
    11607.661100       0.959275
    11621.150500       0.961004
    11634.671300       0.962694
    11648.223600       0.964347
    11661.807600       0.965961
    11675.423200       0.967537
    11689.070700       0.969075
    11702.750100       0.970575
    11716.461600       0.972036
    11730.205300       0.973459
    11743.981200       0.974844
    11757.789500       0.976191
    11771.630400       0.977499
    11785.503800       0.978770
    11799.410000       0.980002
    11813.349100       0.981197
    11827.321100       0.982353
    11841.326200       0.983472
    11855.364600       0.984553
    11869.436200       0.985596
    11883.541300       0.986601
    11897.680000       0.987569
    11911.852300       0.988499
    11926.058400       0.989392
    11940.298500       0.990248
    11954.572600       0.991066
    11968.880900       0.991848
    11983.223500       0.992592
    11997.600500       0.993300
    12012.012000       0.993971
    12026.458200       0.994606
    12040.939200       0.995204
    12055.455100       0.995767
    12070.006000       0.996293
    12084.592100       0.996783
    12099.213600       0.997238
    12113.870400       0.997658
    12128.562800       0.998042
    12143.290800       0.998391
    12158.054700       0.998705
    12172.854500       0.998984
    12187.690400       0.999229
    12202.562500       0.999440
    12217.471000       0.999617
    12232.415900       0.999760
    12247.397400       0.999870
    12262.415700       0.999946
    12277.470800       0.999990
    12292.563000       1.000000
    12307.692300       0.999978
    12322.858900       0.999924
    12338.062900       0.999837
    12353.304500       0.999720
    12368.583800       0.999570
    12383.900900       0.999390
    12399.256000       0.999178
    12414.649300       0.998936
    12430.080800       0.998664
    12445.550700       0.998362
    12461.059200       0.998030
    12476.606400       0.997669
    12492.192400       0.997279
    12507.817400       0.996861
    12523.481500       0.996414
    12539.185000       0.995939
    12554.927800       0.995436
    12570.710200       0.994906
    12586.532400       0.994349
    12602.394500       0.993766
    12618.296500       0.993156
    12634.238800       0.992520
    12650.221400       0.991859
    12666.244500       0.991173
    12682.308200       0.990461
    12698.412700       0.989726
    12714.558200       0.988966
    12730.744700       0.988183
    12746.972600       0.987376
    12763.241900       0.986547
    12779.552700       0.985695
    12795.905300       0.984821
    12812.299800       0.983925
    12828.736400       0.983008
    12845.215200       0.982070
    12861.736300       0.981112
    12878.300100       0.980134
    12894.906500       0.979136
    12911.555800       0.978118
    12928.248200       0.977082
    12944.983800       0.976028
    12961.762800       0.974956
    12978.585300       0.973866
    12995.451600       0.972759
    13012.361700       0.971635
    13029.316000       0.970495
    13046.314400       0.969340
    13063.357300       0.968168
    13080.444700       0.966983
    13097.576900       0.965782
    13114.754100       0.964568
    13131.976400       0.963339
    13149.243900       0.962098
    13166.556900       0.960844
    13183.915600       0.959578
    13201.320100       0.958300
    13218.770700       0.957011
    13236.267400       0.955710
    13253.810500       0.954399
    13271.400100       0.953079
    13289.036500       0.951748
    13306.719900       0.950409
    13324.450400       0.949061
    13342.228200       0.947704
    13360.053400       0.946340
    13377.926400       0.944969
    13395.847300       0.943590
    13413.816200       0.942206
    13431.833400       0.940815
    13449.899100       0.939419
    13468.013500       0.938018
    13486.176700       0.936612
    13504.388900       0.935202
    13522.650400       0.933788
    13540.961400       0.932371
    13559.322000       0.930952
    13577.732500       0.929529
    13596.193100       0.928105
    13614.703900       0.926680
    13633.265200       0.925253
    13651.877100       0.923826
    13670.540000       0.922399
    13689.253900       0.920971
    13708.019200       0.919545
    13726.836000       0.918120
    13745.704500       0.916696
    13764.624900       0.915274
    13783.597500       0.913855
    13802.622500       0.912438
    13821.700100       0.911025
    13840.830400       0.909615
    13860.013900       0.908209
    13879.250500       0.906808
    13898.540700       0.905412
    13917.884500       0.904021
    13937.282200       0.902635
    13956.734100       0.901256
    13976.240400       0.899883
    13995.801300       0.898517
    14015.417000       0.897158
    14035.087700       0.895807
    14054.813800       0.894464
    14074.595400       0.893129
    14094.432700       0.891803
    14114.326000       0.890487
    14134.275600       0.889179
    14154.281700       0.887882
    14174.344400       0.886594
    14194.464200       0.885317
    14214.641100       0.884051
    14234.875400       0.882796
    14255.167500       0.881553
    14275.517500       0.880321
    14295.925700       0.879102
    14316.392300       0.877895
    14336.917600       0.876701
    14357.501800       0.875520
    14378.145200       0.874353
    14398.848100       0.873199
    14419.610700       0.872059
    14440.433200       0.870934
    14461.316000       0.869823
    14482.259200       0.868727
    14503.263200       0.867646
    14524.328200       0.866580
    14545.454500       0.865530
    14566.642400       0.864495
    14587.892000       0.863477
    14609.203800       0.862475
    14630.577900       0.861490
    14652.014700       0.860521
    14673.514300       0.859570
    14695.077100       0.858635
    14716.703500       0.857718
    14738.393500       0.856818
    14760.147600       0.855936
    14781.966000       0.855072
    14803.849000       0.854226
    14825.796900       0.853399
    14847.809900       0.852589
    14869.888500       0.851798
    14892.032800       0.851026
    14914.243100       0.850273
    14936.519800       0.849539
    14958.863100       0.848823
    14981.273400       0.848127
    15003.750900       0.847450
    15026.296000       0.846792
    15048.909000       0.846154
    15071.590100       0.845535
    15094.339600       0.844936
    15117.158000       0.844356
    15140.045400       0.843796
    15163.002300       0.843255
    15186.028900       0.842735
    15209.125500       0.842234
    15232.292500       0.841752
    15255.530100       0.841291
    15278.838800       0.840849
    15302.218800       0.840427
    15325.670500       0.840025
    15349.194200       0.839642
    15372.790200       0.839279
    15396.458800       0.838935
    15420.200500       0.838611
    15444.015400       0.838307
    15467.904100       0.838021
    15491.866800       0.837755
    15515.903800       0.837509
    15540.015500       0.837281
    15564.202300       0.837072
    15588.464500       0.836882
    15612.802500       0.836711
    15637.216600       0.836558
    15661.707100       0.836424
    15686.274500       0.836308
    15710.919100       0.836210
    15735.641200       0.836129
    15760.441300       0.836067
    15785.319700       0.836022
    15810.276700       0.835994
    15835.312700       0.835983
    15860.428200       0.835989
    15885.623500       0.836012
    15910.899000       0.836051
    15936.255000       0.836106
    15961.691900       0.836177
    15987.210200       0.836263
    16012.810200       0.836364
    16038.492400       0.836481
    16064.257000       0.836612
    16090.104600       0.836757
    16116.035500       0.836916
    16142.050000       0.837089
    16168.148700       0.837275
    16194.332000       0.837474
    16220.600200       0.837686
    16246.953700       0.837909
    16273.393000       0.838145
    16299.918500       0.838392
    16326.530600       0.838649
    16353.229800       0.838918
    16380.016400       0.839196
    16406.890900       0.839484
    16433.853700       0.839782
    16460.905300       0.840088
    16488.046200       0.840403
    16515.276600       0.840725
    16542.597200       0.841055
    16570.008300       0.841392
    16597.510400       0.841735
    16625.103900       0.842084
    16652.789300       0.842438
    16680.567100       0.842797
    16708.437800       0.843161
    16736.401700       0.843528
    16764.459300       0.843899
    16792.611300       0.844272
    16820.857900       0.844647
    16849.199700       0.845023
    16877.637100       0.845401
    16906.170800       0.845779
    16934.801000       0.846156
    16963.528400       0.846533
    16992.353400       0.846908
    17021.276600       0.847281
    17050.298400       0.847651
    17079.419300       0.848018
    17108.639900       0.848381
    17137.960600       0.848739
    17167.382000       0.849091
    17196.904600       0.849438
    17226.528900       0.849777
    17256.255400       0.850109
    17286.084700       0.850433
    17316.017300       0.850748
    17346.053800       0.851054
    17376.194600       0.851349
    17406.440400       0.851634
    17436.791600       0.851906
    17467.248900       0.852166
    17497.812800       0.852413
    17528.483800       0.852646
    17559.262500       0.852864
    17590.149500       0.853067
    17621.145400       0.853253
    17652.250700       0.853422
    17683.466000       0.853574
