13,    channel 13 SRF extracted from SRF_FY-4A_AGRI.zip (13.2.txt) (received April 2018)
Number of data points:
274
Wavenumber (cm-1)   Filter response
      701.655900       0.012817
      701.902200       0.011971
      702.148600       0.013757
      702.395200       0.016511
      702.641900       0.018354
      702.888900       0.018395
      703.136000       0.017092
      703.383300       0.015676
      703.630700       0.015188
      703.878400       0.015832
      704.126200       0.017089
      704.374200       0.018327
      704.622300       0.019246
      704.870700       0.019871
      705.119200       0.020241
      705.367800       0.020130
      705.616700       0.019179
      705.865700       0.017370
      706.115000       0.015327
      706.364300       0.014099
      706.613900       0.014530
      706.863600       0.016669
      707.113600       0.019624
      707.363700       0.022136
      707.613900       0.023372
      707.864400       0.023341
      708.115000       0.022691
      708.365800       0.022091
      708.616800       0.021711
      708.867900       0.021232
      709.119300       0.020371
      709.370800       0.019362
      709.622500       0.018923
      709.874400       0.019722
      710.126400       0.021702
      710.378600       0.023867
      710.631000       0.024833
      710.883600       0.023758
      711.136400       0.020960
      711.389300       0.017781
      711.642500       0.015746
      711.895800       0.015575
      712.149300       0.016773
      712.402900       0.018101
      712.656800       0.018491
      712.910800       0.017766
      713.165000       0.016696
      713.419400       0.016386
      713.674000       0.017423
      713.928700       0.019493
      714.183700       0.021661
      714.438800       0.022992
      714.694100       0.023118
      714.949600       0.022333
      715.205300       0.021201
      715.461100       0.020084
      715.717100       0.019005
      715.973400       0.017900
      716.229800       0.017002
      716.486400       0.017048
      716.743100       0.018963
      717.000100       0.023157
      717.257200       0.028962
      717.514500       0.034642
      717.772000       0.038053
      718.029700       0.037807
      718.287600       0.034255
      718.545700       0.029689
      718.803900       0.027594
      719.062300       0.031298
      719.321000       0.042588
      719.579800       0.061009
      719.838800       0.084184
      720.097900       0.108836
      720.357300       0.132005
      720.616800       0.151895
      720.876600       0.168082
      721.136500       0.181240
      721.396600       0.192757
      721.656900       0.204463
      721.917400       0.218418
      722.178100       0.236532
      722.439000       0.259871
      722.700000       0.287857
      722.961200       0.317886
      723.222700       0.345887
      723.484300       0.367850
      723.746100       0.381732
      724.008100       0.388764
      724.270300       0.393285
      724.532700       0.401009
      724.795200       0.416442
      725.058000       0.440735
      725.321000       0.471061
      725.584100       0.501851
      725.847400       0.527285
      726.110900       0.543767
      726.374700       0.551199
      726.638600       0.552526
      726.902700       0.551913
      727.167000       0.552631
      727.431400       0.555781
      727.696100       0.560481
      727.961000       0.565227
      728.226000       0.569499
      728.491300       0.574495
      728.756700       0.582465
      729.022400       0.595049
      729.288200       0.611724
      729.554200       0.629497
      729.820500       0.644207
      730.086900       0.652744
      730.353500       0.654808
      730.620300       0.653065
      730.887300       0.651618
      731.154500       0.653810
      731.421900       0.660772
      731.689500       0.671551
      731.957300       0.684419
      732.225200       0.698149
      732.493400       0.712226
      732.761800       0.725996
      733.030300       0.737790
      733.299100       0.745193
      733.568100       0.746671
      733.837200       0.743374
      734.106600       0.739478
      734.376100       0.740272
      734.645900       0.748934
      734.915900       0.764203
      735.186000       0.780774
      735.456400       0.792409
      735.726900       0.795722
      735.997600       0.792005
      736.268600       0.785852
      736.539700       0.781716
      736.811100       0.781089
      737.082600       0.782404
      737.354400       0.783485
      737.626300       0.784231
      737.898500       0.787001
      738.170800       0.794154
      738.443400       0.804836
      738.716100       0.814119
      738.989100       0.815975
      739.262200       0.808339
      739.535600       0.796355
      739.809100       0.790666
      740.082900       0.801080
      740.356900       0.829659
      740.631000       0.868203
      740.905400       0.902383
      741.180000       0.920074
      741.454700       0.918369
      741.729700       0.904491
      742.004900       0.890167
      742.280300       0.883622
      742.555900       0.884984
      742.831700       0.888170
      743.107700       0.887422
      743.383900       0.883231
      743.660300       0.882895
      743.936900       0.895144
      744.213700       0.922770
      744.490800       0.958767
      744.768000       0.989032
      745.045400       1.000000
      745.323100       0.986215
      745.601000       0.953078
      745.879000       0.913399
      746.157300       0.880351
      746.435800       0.861238
      746.714500       0.855204
      746.993400       0.855139
      747.272500       0.851666
      747.551800       0.836848
      747.831300       0.806440
      748.111000       0.760808
      748.391000       0.704918
      748.671100       0.647229
      748.951500       0.597078
      749.232000       0.560911
      749.512800       0.539043
      749.793800       0.525110
      750.075000       0.509203
      750.356400       0.483254
      750.638000       0.445450
      750.919900       0.400793
      751.201900       0.357496
      751.484200       0.321798
      751.766700       0.294816
      752.049300       0.273433
      752.332200       0.254047
      752.615300       0.235857
      752.898700       0.220965
      753.182200       0.211351
      753.465900       0.205495
      753.749900       0.197860
      754.034100       0.182123
      754.318500       0.155903
      754.603100       0.123207
      754.887900       0.092466
      755.172900       0.071337
      755.458200       0.061940
      755.743700       0.060016
      756.029300       0.058472
      756.315200       0.052474
      756.601300       0.042318
      756.887700       0.032188
      757.174200       0.026133
      757.461000       0.024654
      757.748000       0.024674
      758.035200       0.022542
      758.322600       0.017395
      758.610200       0.012022
      758.898100       0.010535
      759.186200       0.014727
      759.474400       0.022305
      759.763000       0.028462
      760.051700       0.029415
      760.340600       0.025153
      760.629800       0.019219
      760.919200       0.015751
      761.208800       0.016247
      761.498600       0.018760
      761.788700       0.019943
      762.079000       0.018100
      762.369400       0.014728
      762.660200       0.013204
      762.951100       0.015709
      763.242300       0.021103
      763.533600       0.025611
      763.825200       0.025725
      764.117100       0.021105
      764.409100       0.015104
      764.701400       0.012340
      764.993900       0.015171
      765.286600       0.021894
      765.579500       0.027945
      765.872700       0.029150
      766.166100       0.024690
      766.459700       0.017517
      766.753600       0.012034
      767.047600       0.010960
      767.341900       0.013731
      767.636400       0.017294
      767.931200       0.018614
      768.226200       0.016874
      768.521400       0.013722
      768.816800       0.011695
      769.112400       0.012271
      769.408300       0.015005
      769.704400       0.018113
      770.000800       0.020032
      770.297300       0.020467
      770.594100       0.020220
      770.891200       0.020249
      771.188400       0.020842
      771.485900       0.021506
      771.783600       0.021616
      772.081500       0.021145
      772.379700       0.020691
      772.678100       0.020854
      772.976700       0.021618
      773.275600       0.022233
      773.574700       0.021772
      773.874000       0.020007
      774.173600       0.017790
      774.473400       0.016548
      774.773400       0.017315
      775.073600       0.019957
      775.374100       0.023058
      775.674800       0.024724
      775.975800       0.023751
