          10  , Jan 12th 2012 http://fy3.satellite.cma.gov.cn/ArssEn/Download/FY3A_calibration_info_params.rar
Number of data points:
848
Wavenumber (cm-1)   Filter response
      932.835800       0.000141
      933.009800       0.000589
      933.184100       0.000988
      933.358200       0.001270
      933.532500       0.001434
      933.706800       0.001519
      933.881200       0.001562
      934.055700       0.001589
      934.230200       0.001608
      934.404800       0.001592
      934.579500       0.001520
      934.754200       0.001434
      934.929000       0.001308
      935.103800       0.001201
      935.278700       0.001119
      935.453700       0.001057
      935.628800       0.000999
      935.803900       0.000920
      935.979000       0.000781
      936.154200       0.000597
      936.329600       0.000390
      936.504900       0.000197
      936.680400       0.000058
      936.856000       0.000013
      937.031500       0.000089
      937.207100       0.000281
      937.382800       0.000532
      937.558600       0.000736
      937.734500       0.000827
      937.910300       0.000812
      938.086300       0.000746
      938.262300       0.000696
      938.438400       0.000728
      938.614600       0.000856
      938.790800       0.001032
      938.967200       0.001181
      939.143500       0.001264
      939.319900       0.001269
      939.496400       0.001205
      939.673000       0.001096
      939.849600       0.000965
      940.026400       0.000835
      940.203100       0.000735
      940.379900       0.000653
      940.556800       0.000601
      940.733800       0.000579
      940.910800       0.000601
      941.087900       0.000671
      941.265100       0.000774
      941.442300       0.000873
      941.619600       0.000924
      941.796900       0.000874
      941.974400       0.000723
      942.151900       0.000545
      942.329400       0.000419
      942.507100       0.000407
      942.684800       0.000501
      942.862500       0.000636
      943.040300       0.000721
      943.218300       0.000686
      943.396200       0.000546
      943.574300       0.000400
      943.752400       0.000404
      943.930500       0.000623
      944.108800       0.001037
      944.287000       0.001556
      944.465400       0.002063
      944.643900       0.002462
      944.822400       0.002695
      945.001000       0.002737
      945.179600       0.002569
      945.358300       0.002217
      945.537000       0.001777
      945.715900       0.001341
      945.894800       0.001012
      946.073800       0.000828
      946.252900       0.000748
      946.431900       0.000685
      946.611100       0.000581
      946.790300       0.000481
      946.969700       0.000506
      947.149100       0.000699
      947.328600       0.001029
      947.508100       0.001411
      947.687600       0.001769
      947.867300       0.002064
      948.047000       0.002291
      948.226900       0.002454
      948.406700       0.002553
      948.586600       0.002555
      948.766600       0.002418
      948.946700       0.002152
      949.126800       0.001841
      949.306900       0.001527
      949.487300       0.001237
      949.667700       0.000960
      949.848000       0.000696
      950.028500       0.000489
      950.209000       0.000425
      950.389600       0.000570
      950.570300       0.000844
      950.751100       0.001079
      950.931900       0.001172
      951.112800       0.001112
      951.293800       0.000992
      951.474800       0.000925
      951.655800       0.000994
      951.837100       0.001216
      952.018300       0.001537
      952.199600       0.001855
      952.381000       0.002037
      952.562400       0.001973
      952.743900       0.001744
      952.925400       0.001387
      953.107200       0.001014
      953.288900       0.000730
      953.470600       0.000598
      953.652500       0.000630
      953.834400       0.000795
      954.016400       0.001029
      954.198500       0.001271
      954.380600       0.001468
      954.562800       0.001622
      954.745100       0.001731
      954.927400       0.001785
      955.109800       0.001773
      955.292300       0.001710
      955.474900       0.001637
      955.657500       0.001590
      955.840200       0.001602
      956.022900       0.001697
      956.205700       0.001854
      956.388700       0.002060
      956.571600       0.002259
      956.754700       0.002385
      956.937800       0.002375
      957.121000       0.002193
      957.304200       0.001853
      957.487500       0.001418
      957.670900       0.000990
      957.854400       0.000670
      958.038000       0.000520
      958.221600       0.000541
      958.405200       0.000687
      958.588900       0.000922
      958.772800       0.001239
      958.956600       0.001622
      959.140600       0.001990
      959.324600       0.002245
      959.508700       0.002318
      959.692900       0.002230
      959.877100       0.002083
      960.061400       0.002001
      960.245800       0.002044
      960.430300       0.002191
      960.614800       0.002336
      960.799400       0.002372
      960.984000       0.002288
      961.168800       0.002165
      961.353600       0.002100
      961.538500       0.002119
      961.723400       0.002183
      961.908400       0.002219
      962.093500       0.002177
      962.278700       0.002061
      962.463900       0.001923
      962.649200       0.001826
      962.834600       0.001803
      963.020000       0.001863
      963.205600       0.001998
      963.391100       0.002189
      963.576800       0.002393
      963.762500       0.002546
      963.948400       0.002605
      964.134200       0.002547
      964.320200       0.002383
      964.506200       0.002147
      964.692300       0.001884
      964.878400       0.001657
      965.064600       0.001530
      965.251000       0.001543
      965.437400       0.001679
      965.623800       0.001883
      965.810300       0.002076
      965.996900       0.002179
      966.183500       0.002165
      966.370400       0.002060
      966.557100       0.001900
      966.744000       0.001754
      966.931000       0.001668
      967.118000       0.001678
      967.305100       0.001774
      967.492200       0.001909
      967.679600       0.002040
      967.866800       0.002152
      968.054200       0.002252
      968.241600       0.002378
      968.429200       0.002557
      968.616800       0.002772
      968.804600       0.002996
      968.992200       0.003175
      969.180100       0.003271
      969.368000       0.003238
      969.555900       0.003050
      969.744000       0.002730
      969.932100       0.002357
      970.120400       0.002039
      970.308600       0.001856
      970.496900       0.001846
      970.685300       0.001990
      970.873800       0.002219
      971.062300       0.002440
      971.251000       0.002594
      971.439700       0.002639
      971.628500       0.002600
      971.817300       0.002545
      972.006200       0.002540
      972.195200       0.002633
      972.384300       0.002779
      972.573500       0.002909
      972.762700       0.002989
      972.952000       0.003029
      973.141300       0.003141
      973.330700       0.003369
      973.520200       0.003665
      973.709800       0.003871
      973.899500       0.003832
      974.089200       0.003532
      974.279100       0.003124
      974.468900       0.002833
      974.658900       0.002797
      974.848900       0.002960
      975.039100       0.003170
      975.229200       0.003259
      975.419400       0.003177
      975.609700       0.003020
      975.800200       0.002926
      975.990600       0.002994
      976.181200       0.003202
      976.371800       0.003462
      976.562500       0.003692
      976.753300       0.003851
      976.944100       0.003956
      977.135000       0.003999
      977.326000       0.003977
      977.517200       0.003916
      977.708300       0.003839
      977.899500       0.003761
      978.090800       0.003689
      978.282100       0.003627
      978.473600       0.003627
      978.665000       0.003754
      978.856800       0.004019
      979.048400       0.004299
      979.240100       0.004440
      979.431900       0.004348
      979.623800       0.004125
      979.815700       0.003977
      980.007800       0.004090
      980.200000       0.004511
      980.392200       0.005081
      980.584400       0.005527
      980.776800       0.005727
      980.969200       0.005706
      981.161700       0.005557
      981.354300       0.005362
      981.546900       0.005132
      981.739700       0.004873
      981.932400       0.004678
      982.125300       0.004686
      982.318200       0.004972
      982.511200       0.005472
      982.704400       0.006054
      982.897600       0.006556
      983.090800       0.006880
      983.284200       0.006985
      983.477500       0.006874
      983.671000       0.006601
      983.864700       0.006218
      984.058300       0.005909
      984.252000       0.005734
      984.445700       0.005637
      984.639600       0.005542
      984.833600       0.005394
      985.027500       0.005211
      985.221700       0.005068
      985.415900       0.005016
      985.610100       0.005063
      985.804400       0.005120
      985.998800       0.005148
      986.193200       0.005179
      986.387900       0.005284
      986.582500       0.005482
      986.777200       0.005662
      986.972000       0.005673
      987.166800       0.005467
      987.361800       0.005141
      987.556800       0.004871
      987.751900       0.004816
      987.947100       0.004996
      988.142300       0.005335
      988.337600       0.005708
      988.533000       0.006005
      988.728500       0.006163
      988.924000       0.006190
      989.119700       0.006150
      989.315400       0.006110
      989.511200       0.006107
      989.707000       0.006150
      989.903000       0.006207
      990.099000       0.006235
      990.295200       0.005925
      990.491300       0.005861
      990.687600       0.005741
      990.883900       0.005601
      991.080300       0.005488
      991.276700       0.005447
      991.473300       0.005525
      991.670000       0.005748
      991.866700       0.006037
      992.063500       0.006355
      992.260400       0.006648
      992.457300       0.006861
      992.654300       0.006997
      992.851500       0.007048
      993.048700       0.007058
      993.246000       0.007089
      993.443300       0.007212
      993.640700       0.007477
      993.838200       0.007876
      994.035800       0.008341
      994.233500       0.008790
      994.431200       0.009052
      994.629000       0.009101
      994.826900       0.008973
      995.024800       0.008775
      995.222900       0.008632
      995.421100       0.008640
      995.619300       0.008865
      995.817600       0.009336
      996.015900       0.010016
      996.214400       0.010875
      996.412900       0.011643
      996.611500       0.012188
      996.810200       0.012394
      997.009000       0.012309
      997.207800       0.012115
      997.406700       0.012031
      997.605700       0.012202
      997.804800       0.012572
      998.004000       0.012973
      998.203200       0.013297
      998.402600       0.013351
      998.602000       0.013308
      998.801500       0.013302
      999.001000       0.013438
      999.200600       0.013698
      999.400400       0.014015
      999.600200       0.014388
      999.800000       0.014832
     1000.000000       0.015350
     1000.200000       0.016041
     1000.400000       0.016633
     1000.600000       0.017163
     1000.801000       0.017634
     1001.001000       0.018089
     1001.201000       0.018552
     1001.402000       0.019019
     1001.603000       0.019462
     1001.803000       0.019902
     1002.004000       0.020389
     1002.205000       0.021103
     1002.406000       0.021766
     1002.607000       0.022443
     1002.808000       0.023066
     1003.009000       0.023622
     1003.210000       0.024183
     1003.412000       0.024803
     1003.613000       0.025503
     1003.815000       0.026194
     1004.016000       0.026746
     1004.218000       0.027221
     1004.419000       0.027374
     1004.621000       0.027516
     1004.823000       0.027833
     1005.025000       0.028415
     1005.227000       0.029242
     1005.429000       0.030216
     1005.632000       0.031250
     1005.834000       0.032304
     1006.036000       0.033396
     1006.239000       0.034686
     1006.441000       0.035762
     1006.644000       0.036657
     1006.847000       0.037337
     1007.049000       0.037914
     1007.252000       0.038592
     1007.455000       0.039477
     1007.658000       0.040525
     1007.861000       0.041673
     1008.065000       0.042923
     1008.268000       0.044540
     1008.471000       0.046165
     1008.675000       0.047922
     1008.878000       0.049675
     1009.082000       0.051340
     1009.285000       0.052906
     1009.489000       0.054412
     1009.693000       0.055903
     1009.897000       0.057385
     1010.101000       0.058835
     1010.305000       0.060340
     1010.509000       0.061789
     1010.714000       0.063385
     1010.918000       0.065294
     1011.122000       0.067507
     1011.327000       0.069920
     1011.532000       0.072352
     1011.736000       0.074655
     1011.941000       0.076834
     1012.146000       0.079037
     1012.351000       0.081551
     1012.556000       0.084426
     1012.761000       0.087632
     1012.966000       0.091004
     1013.171000       0.094397
     1013.377000       0.097827
     1013.582000       0.101378
     1013.787000       0.105087
     1013.993000       0.108904
     1014.199000       0.112704
     1014.405000       0.116556
     1014.610000       0.120408
     1014.816000       0.124530
     1015.022000       0.129129
     1015.228000       0.134233
     1015.435000       0.139727
     1015.641000       0.145382
     1015.847000       0.151053
     1016.054000       0.156728
     1016.260000       0.162557
     1016.467000       0.168658
     1016.673000       0.175040
     1016.880000       0.181575
     1017.087000       0.188152
     1017.294000       0.194790
     1017.501000       0.201620
     1017.708000       0.208833
     1017.915000       0.216547
     1018.123000       0.224752
     1018.330000       0.233304
     1018.537000       0.242024
     1018.745000       0.251044
     1018.953000       0.260248
     1019.160000       0.269891
     1019.368000       0.280196
     1019.576000       0.291293
     1019.784000       0.303026
     1019.992000       0.315006
     1020.200000       0.326946
     1020.408000       0.338746
     1020.616000       0.350538
     1020.825000       0.363017
     1021.033000       0.376217
     1021.242000       0.390087
     1021.451000       0.404446
     1021.659000       0.419223
     1021.868000       0.434377
     1022.077000       0.449900
     1022.286000       0.465706
     1022.495000       0.481834
     1022.704000       0.497839
     1022.913000       0.514025
     1023.123000       0.530356
     1023.332000       0.546823
     1023.541000       0.563297
     1023.751000       0.579665
     1023.961000       0.596033
     1024.171000       0.612664
     1024.380000       0.629758
     1024.590000       0.647351
     1024.800000       0.665290
     1025.010000       0.683285
     1025.220000       0.701100
     1025.431000       0.718397
     1025.641000       0.734926
     1025.851000       0.750618
     1026.062000       0.765672
     1026.273000       0.778960
     1026.483000       0.791504
     1026.694000       0.804018
     1026.905000       0.816682
     1027.116000       0.828351
     1027.327000       0.839365
     1027.538000       0.849844
     1027.749000       0.859972
     1027.961000       0.869886
     1028.172000       0.879622
     1028.383000       0.889067
     1028.595000       0.898089
     1028.807000       0.906393
     1029.018000       0.914673
     1029.230000       0.921322
     1029.442000       0.927348
     1029.654000       0.933012
     1029.866000       0.938442
     1030.078000       0.943107
     1030.291000       0.946678
     1030.503000       0.949755
     1030.715000       0.952363
     1030.928000       0.954641
     1031.141000       1.000000
     1031.353000       0.996506
     1031.566000       0.992673
     1031.779000       0.988417
     1031.992000       0.983680
     1032.205000       0.978369
     1032.418000       0.972775
     1032.631000       0.967366
     1032.844000       0.962463
     1033.058000       0.957870
     1033.271000       0.952729
     1033.485000       0.953333
     1033.699000       0.953235
     1033.912000       0.953470
     1034.126000       0.955046
     1034.340000       0.956582
     1034.554000       0.957792
     1034.768000       0.958483
     1034.983000       0.958770
     1035.197000       0.958967
     1035.411000       0.952090
     1035.625000       0.952512
     1035.840000       0.952718
     1036.055000       0.952530
     1036.270000       0.951869
     1036.484000       0.950654
     1036.699000       0.948808
     1036.914000       0.946380
     1037.129000       0.943535
     1037.344000       0.940392
     1037.560000       0.930148
     1037.775000       0.926543
     1037.990000       0.923099
     1038.206000       0.918933
     1038.422000       0.913883
     1038.637000       0.907884
     1038.853000       0.900882
     1039.069000       0.892913
     1039.285000       0.884186
     1039.501000       0.874874
     1039.717000       0.860365
     1039.933000       0.849935
     1040.150000       0.838834
     1040.366000       0.826914
     1040.583000       0.814232
     1040.799000       0.800962
     1041.016000       0.787293
     1041.233000       0.773347
     1041.450000       0.758960
     1041.667000       0.743475
     1041.884000       0.724100
     1042.101000       0.706755
     1042.318000       0.689193
     1042.535000       0.671764
     1042.753000       0.654461
     1042.970000       0.636971
     1043.188000       0.618915
     1043.406000       0.600200
     1043.624000       0.581204
     1043.841000       0.562455
     1044.059000       0.542420
     1044.277000       0.524393
     1044.495000       0.506534
     1044.714000       0.489009
     1044.932000       0.472059
     1045.151000       0.455690
     1045.369000       0.439680
     1045.588000       0.423619
     1045.806000       0.407740
     1046.025000       0.392347
     1046.244000       0.376124
     1046.463000       0.362140
     1046.682000       0.348691
     1046.901000       0.335632
     1047.120000       0.322907
     1047.340000       0.310456
     1047.559000       0.298268
     1047.779000       0.286376
     1047.998000       0.274885
     1048.218000       0.264020
     1048.438000       0.252431
     1048.658000       0.242635
     1048.878000       0.233008
     1049.098000       0.223528
     1049.318000       0.214377
     1049.538000       0.205805
     1049.759000       0.197910
     1049.979000       0.190524
     1050.199000       0.183300
     1050.420000       0.175952
     1050.641000       0.167743
     1050.862000       0.160715
     1051.083000       0.154280
     1051.304000       0.148438
     1051.525000       0.143000
     1051.746000       0.137792
     1051.967000       0.132829
     1052.189000       0.128085
     1052.410000       0.123392
     1052.632000       0.118493
     1052.853000       0.102776
     1053.075000       0.099395
     1053.297000       0.096178
     1053.519000       0.093311
     1053.741000       0.090818
     1053.963000       0.088692
     1054.185000       0.086881
     1054.407000       0.085290
