73,   73, MVIRI VIS channel from srf_MET2_1991078_1991079_1801-Release_S10EL_10.dat
Number of data points:
730
Wavenumber (cm-1)   Filter response
     8916.629500       0.000000
     8924.587200       0.000000
     8932.559200       0.000002
     8940.545400       0.000012
     8948.545900       0.000033
     8956.560700       0.000070
     8964.589900       0.000128
     8972.633500       0.000211
     8980.691500       0.000323
     8988.764000       0.000468
     8996.851100       0.000650
     9004.952700       0.000871
     9013.068900       0.001137
     9021.199800       0.001449
     9029.345400       0.001810
     9037.505600       0.002225
     9045.680700       0.002695
     9053.870500       0.003224
     9062.075200       0.003813
     9070.294800       0.004466
     9078.529300       0.005184
     9086.778700       0.005969
     9095.043200       0.006825
     9103.322700       0.007751
     9111.617300       0.008751
     9119.927000       0.009826
     9128.251900       0.010977
     9136.592100       0.012205
     9144.947400       0.013513
     9153.318100       0.014902
     9161.704100       0.016371
     9170.105500       0.017924
     9178.522300       0.019559
     9186.954500       0.021279
     9195.402300       0.023084
     9203.865600       0.024974
     9212.344500       0.026950
     9220.839100       0.029014
     9229.349300       0.031163
     9237.875300       0.033401
     9246.417000       0.035725
     9254.974500       0.038138
     9263.547900       0.040638
     9272.137200       0.043226
     9280.742500       0.045902
     9289.363700       0.048665
     9298.000900       0.051515
     9306.654300       0.054453
     9315.323700       0.057478
     9324.009300       0.060589
     9332.711200       0.063786
     9341.429200       0.067069
     9350.163600       0.070437
     9358.914400       0.073889
     9367.681500       0.077425
     9376.465100       0.081044
     9385.265100       0.084746
     9394.081700       0.088529
     9402.914900       0.092393
     9411.764700       0.096338
     9420.631200       0.100361
     9429.514400       0.104463
     9438.414300       0.108642
     9447.331100       0.112897
     9456.264800       0.117227
     9465.215300       0.121632
     9474.182900       0.126109
     9483.167400       0.130659
     9492.169000       0.135279
     9501.187600       0.139970
     9510.223500       0.144729
     9519.276500       0.149554
     9528.346800       0.154446
     9537.434400       0.159403
     9546.539400       0.164423
     9555.661700       0.169505
     9564.801500       0.174648
     9573.958800       0.179851
     9583.133700       0.185112
     9592.326100       0.190429
     9601.536200       0.195803
     9610.764100       0.201230
     9620.009600       0.206710
     9629.273000       0.212241
     9638.554200       0.217822
     9647.853400       0.223452
     9657.170400       0.229128
     9666.505600       0.234850
     9675.858700       0.240616
     9685.230000       0.246425
     9694.619500       0.252275
     9704.027200       0.258165
     9713.453100       0.264093
     9722.897400       0.270059
     9732.360100       0.276059
     9741.841200       0.282093
     9751.340800       0.288160
     9760.859000       0.294258
     9770.395700       0.300386
     9779.951100       0.306541
     9789.525200       0.312724
     9799.118100       0.318932
     9808.729800       0.325163
     9818.360300       0.331417
     9828.009800       0.337691
     9837.678300       0.343986
     9847.365800       0.350299
     9857.072400       0.356628
     9866.798200       0.362973
     9876.543200       0.369331
     9886.307500       0.375702
     9896.091000       0.382084
     9905.894000       0.388476
     9915.716400       0.394877
     9925.558300       0.401284
     9935.419800       0.407698
     9945.300800       0.414116
     9955.201600       0.420536
     9965.122100       0.426960
     9975.062300       0.433383
     9985.022500       0.439806
     9995.002500       0.446227
    10005.002500       0.452644
    10015.022500       0.459058
    10025.062700       0.465465
    10035.122900       0.471866
    10045.203400       0.478258
    10055.304200       0.484642
    10065.425300       0.491015
    10075.566800       0.497376
    10085.728700       0.503725
    10095.911200       0.510061
    10106.114200       0.516381
    10116.337900       0.522685
    10126.582300       0.528972
    10136.847400       0.535241
    10147.133400       0.541491
    10157.440300       0.547721
    10167.768200       0.553930
    10178.117000       0.560116
    10188.487000       0.566280
    10198.878100       0.572419
    10209.290500       0.578533
    10219.724100       0.584622
    10230.179000       0.590683
    10240.655400       0.596717
    10251.153300       0.602722
    10261.672700       0.608698
    10272.213700       0.614643
    10282.776300       0.620558
    10293.360800       0.626440
    10303.967000       0.632290
    10314.595200       0.638106
    10325.245200       0.643888
    10335.917300       0.649635
    10346.611500       0.655346
    10357.327800       0.661021
    10368.066400       0.666659
    10378.827200       0.672259
    10389.610400       0.677820
    10400.416000       0.683343
    10411.244100       0.688826
    10422.094800       0.694268
    10432.968200       0.699670
    10443.864200       0.705030
    10454.783100       0.710349
    10465.724800       0.715624
    10476.689400       0.720857
    10487.677000       0.726047
    10498.687700       0.731192
    10509.721500       0.736292
    10520.778500       0.741348
    10531.858900       0.746358
    10542.962600       0.751323
    10554.089700       0.756241
    10565.240400       0.761113
    10576.414600       0.765938
    10587.612500       0.770715
    10598.834100       0.775445
    10610.079600       0.780126
    10621.348900       0.784759
    10632.642200       0.789344
    10643.959600       0.793880
    10655.301000       0.798366
    10666.666700       0.802803
    10678.056600       0.807190
    10689.470900       0.811527
    10700.909600       0.815814
    10712.372800       0.820051
    10723.860600       0.824237
    10735.373100       0.828372
    10746.910300       0.832457
    10758.472300       0.836490
    10770.059200       0.840472
    10781.671200       0.844403
    10793.308100       0.848282
    10804.970300       0.852110
    10816.657700       0.855886
    10828.370300       0.859610
    10840.108400       0.863283
    10851.871900       0.866904
    10863.661100       0.870473
    10875.475800       0.873990
    10887.316300       0.877455
    10899.182600       0.880869
    10911.074700       0.884230
    10922.992900       0.887539
    10934.937100       0.890797
    10946.907500       0.894003
    10958.904100       0.897157
    10970.927000       0.900259
    10982.976400       0.903309
    10995.052200       0.906308
    11007.154700       0.909256
    11019.283700       0.912152
    11031.439600       0.914996
    11043.622300       0.917790
    11055.832000       0.920532
    11068.068600       0.923223
    11080.332400       0.925864
    11092.623400       0.928454
    11104.941700       0.930993
    11117.287400       0.933482
    11129.660500       0.935921
    11142.061300       0.938309
    11154.489700       0.940648
    11166.945800       0.942937
    11179.429800       0.945177
    11191.941800       0.947367
    11204.481800       0.949509
    11217.049900       0.951601
    11229.646300       0.953645
    11242.270900       0.955640
    11254.924000       0.957588
    11267.605600       0.959487
    11280.315800       0.961338
    11293.054800       0.963143
    11305.822500       0.964900
    11318.619100       0.966610
    11331.444800       0.968273
    11344.299500       0.969890
    11357.183400       0.971461
    11370.096600       0.972986
    11383.039300       0.974465
    11396.011400       0.975900
    11409.013100       0.977289
    11422.044500       0.978633
    11435.105800       0.979933
    11448.196900       0.981189
    11461.318100       0.982402
    11474.469300       0.983570
    11487.650800       0.984696
    11500.862600       0.985778
    11514.104800       0.986818
    11527.377500       0.987816
    11540.680900       0.988772
    11554.015000       0.989686
    11567.380000       0.990559
    11580.775900       0.991391
    11594.202900       0.992183
    11607.661100       0.992934
    11621.150500       0.993645
    11634.671300       0.994316
    11648.223600       0.994948
    11661.807600       0.995541
    11675.423200       0.996095
    11689.070700       0.996612
    11702.750100       0.997090
    11716.461600       0.997530
    11730.205300       0.997933
    11743.981200       0.998299
    11757.789500       0.998629
    11771.630400       0.998922
    11785.503800       0.999179
    11799.410000       0.999400
    11813.349100       0.999587
    11827.321100       0.999738
    11841.326200       0.999855
    11855.364600       0.999937
    11869.436200       0.999985
    11883.541300       1.000000
    11897.680000       0.999981
    11911.852300       0.999930
    11926.058400       0.999846
    11940.298500       0.999729
    11954.572600       0.999581
    11968.880900       0.999401
    11983.223500       0.999189
    11997.600500       0.998947
    12012.012000       0.998674
    12026.458200       0.998370
    12040.939200       0.998037
    12055.455100       0.997673
    12070.006000       0.997281
    12084.592100       0.996859
    12099.213600       0.996409
    12113.870400       0.995930
    12128.562800       0.995423
    12143.290800       0.994888
    12158.054700       0.994325
    12172.854500       0.993735
    12187.690400       0.993119
    12202.562500       0.992475
    12217.471000       0.991806
    12232.415900       0.991110
    12247.397400       0.990389
    12262.415700       0.989642
    12277.470800       0.988869
    12292.563000       0.988072
    12307.692300       0.987251
    12322.858900       0.986405
    12338.062900       0.985534
    12353.304500       0.984640
    12368.583800       0.983723
    12383.900900       0.982782
    12399.256000       0.981819
    12414.649300       0.980832
    12430.080800       0.979823
    12445.550700       0.978792
    12461.059200       0.977739
    12476.606400       0.976664
    12492.192400       0.975567
    12507.817400       0.974450
    12523.481500       0.973311
    12539.185000       0.972152
    12554.927800       0.970972
    12570.710200       0.969771
    12586.532400       0.968551
    12602.394500       0.967311
    12618.296500       0.966051
    12634.238800       0.964772
    12650.221400       0.963474
    12666.244500       0.962156
    12682.308200       0.960820
    12698.412700       0.959466
    12714.558200       0.958093
    12730.744700       0.956702
    12746.972600       0.955293
    12763.241900       0.953866
    12779.552700       0.952421
    12795.905300       0.950960
    12812.299800       0.949481
    12828.736400       0.947985
    12845.215200       0.946472
    12861.736300       0.944943
    12878.300100       0.943397
    12894.906500       0.941835
    12911.555800       0.940256
    12928.248200       0.938662
    12944.983800       0.937052
    12961.762800       0.935427
    12978.585300       0.933786
    12995.451600       0.932129
    13012.361700       0.930457
    13029.316000       0.928771
    13046.314400       0.927069
    13063.357300       0.925353
    13080.444700       0.923623
    13097.576900       0.921877
    13114.754100       0.920118
    13131.976400       0.918344
    13149.243900       0.916557
    13166.556900       0.914755
    13183.915600       0.912940
    13201.320100       0.911111
    13218.770700       0.909268
    13236.267400       0.907412
    13253.810500       0.905543
    13271.400100       0.903660
    13289.036500       0.901765
    13306.719900       0.899857
    13324.450400       0.897935
    13342.228200       0.896001
    13360.053400       0.894055
    13377.926400       0.892096
    13395.847300       0.890125
    13413.816200       0.888141
    13431.833400       0.886145
    13449.899100       0.884137
    13468.013500       0.882117
    13486.176700       0.880085
    13504.388900       0.878041
    13522.650400       0.875985
    13540.961400       0.873918
    13559.322000       0.871839
    13577.732500       0.869749
    13596.193100       0.867647
    13614.703900       0.865535
    13633.265200       0.863411
    13651.877100       0.861275
    13670.540000       0.859129
    13689.253900       0.856972
    13708.019200       0.854804
    13726.836000       0.852625
    13745.704500       0.850435
    13764.624900       0.848235
    13783.597500       0.846024
    13802.622500       0.843802
    13821.700100       0.841570
    13840.830400       0.839328
    13860.013900       0.837076
    13879.250500       0.834813
    13898.540700       0.832540
    13917.884500       0.830257
    13937.282200       0.827964
    13956.734100       0.825661
    13976.240400       0.823348
    13995.801300       0.821026
    14015.417000       0.818693
    14035.087700       0.816351
    14054.813800       0.814000
    14074.595400       0.811639
    14094.432700       0.809268
    14114.326000       0.806888
    14134.275600       0.804499
    14154.281700       0.802100
    14174.344400       0.799692
    14194.464200       0.797276
    14214.641100       0.794850
    14234.875400       0.792415
    14255.167500       0.789971
    14275.517500       0.787518
    14295.925700       0.785057
    14316.392300       0.782587
    14336.917600       0.780108
    14357.501800       0.777621
    14378.145200       0.775125
    14398.848100       0.772621
    14419.610700       0.770108
    14440.433200       0.767587
    14461.316000       0.765058
    14482.259200       0.762521
    14503.263200       0.759976
    14524.328200       0.757423
    14545.454500       0.754862
    14566.642400       0.752293
    14587.892000       0.749716
    14609.203800       0.747132
    14630.577900       0.744540
    14652.014700       0.741940
    14673.514300       0.739334
    14695.077100       0.736719
    14716.703500       0.734098
    14738.393500       0.731469
    14760.147600       0.728834
    14781.966000       0.726191
    14803.849000       0.723541
    14825.796900       0.720885
    14847.809900       0.718222
    14869.888500       0.715552
    14892.032800       0.712876
    14914.243100       0.710193
    14936.519800       0.707504
    14958.863100       0.704808
    14981.273400       0.702107
    15003.750900       0.699399
    15026.296000       0.696686
    15048.909000       0.693966
    15071.590100       0.691241
    15094.339600       0.688510
    15117.158000       0.685774
    15140.045400       0.683032
    15163.002300       0.680284
    15186.028900       0.677532
    15209.125500       0.674774
    15232.292500       0.672012
    15255.530100       0.669244
    15278.838800       0.666472
    15302.218800       0.663695
    15325.670500       0.660913
    15349.194200       0.658127
    15372.790200       0.655337
    15396.458800       0.652542
    15420.200500       0.649744
    15444.015400       0.646941
    15467.904100       0.644135
    15491.866800       0.641325
    15515.903800       0.638511
    15540.015500       0.635694
    15564.202300       0.632873
    15588.464500       0.630049
    15612.802500       0.627222
    15637.216600       0.624393
    15661.707100       0.621560
    15686.274500       0.618725
    15710.919100       0.615887
    15735.641200       0.613047
    15760.441300       0.610204
    15785.319700       0.607360
    15810.276700       0.604513
    15835.312700       0.601665
    15860.428200       0.598814
    15885.623500       0.595962
    15910.899000       0.593109
    15936.255000       0.590255
    15961.691900       0.587399
    15987.210200       0.584542
    16012.810200       0.581685
    16038.492400       0.578827
    16064.257000       0.575968
    16090.104600       0.573109
    16116.035500       0.570249
    16142.050000       0.567389
    16168.148700       0.564530
    16194.332000       0.561670
    16220.600200       0.558811
    16246.953700       0.555952
    16273.393000       0.553094
    16299.918500       0.550237
    16326.530600       0.547381
    16353.229800       0.544525
    16380.016400       0.541671
    16406.890900       0.538819
    16433.853700       0.535967
    16460.905300       0.533118
    16488.046200       0.530270
    16515.276600       0.527424
    16542.597200       0.524581
    16570.008300       0.521739
    16597.510400       0.518900
    16625.103900       0.516064
    16652.789300       0.513230
    16680.567100       0.510399
    16708.437800       0.507572
    16736.401700       0.504747
    16764.459300       0.501925
    16792.611300       0.499108
    16820.857900       0.496293
    16849.199700       0.493483
    16877.637100       0.490676
    16906.170800       0.487873
    16934.801000       0.485075
    16963.528400       0.482280
    16992.353400       0.479491
    17021.276600       0.476705
    17050.298400       0.473925
    17079.419300       0.471149
    17108.639900       0.468379
    17137.960600       0.465613
    17167.382000       0.462853
    17196.904600       0.460098
    17226.528900       0.457349
    17256.255400       0.454605
    17286.084700       0.451867
    17316.017300       0.449135
    17346.053800       0.446409
    17376.194600       0.443689
    17406.440400       0.440975
    17436.791600       0.438268
    17467.248900       0.435567
    17497.812800       0.432872
    17528.483800       0.430185
    17559.262500       0.427504
    17590.149500       0.424830
    17621.145400       0.422163
    17652.250700       0.419503
    17683.466000       0.416851
    17714.791900       0.414205
    17746.228900       0.411567
    17777.777800       0.408937
    17809.439000       0.406314
    17841.213200       0.403699
    17873.101000       0.401091
    17905.103000       0.398492
    17937.219700       0.395900
    17969.451900       0.393316
    18001.800200       0.390740
    18034.265100       0.388172
    18066.847300       0.385613
    18099.547500       0.383062
    18132.366300       0.380519
    18165.304300       0.377984
    18198.362100       0.375457
    18231.540600       0.372939
    18264.840200       0.370430
    18298.261700       0.367929
    18331.805700       0.365436
    18365.472900       0.362952
    18399.264000       0.360477
    18433.179700       0.358011
    18467.220700       0.355552
    18501.387600       0.353103
    18535.681200       0.350663
    18570.102100       0.348231
    18604.651200       0.345807
    18639.329000       0.343393
    18674.136300       0.340987
    18709.073900       0.338590
    18744.142500       0.336201
    18779.342700       0.333822
    18814.675400       0.331450
    18850.141400       0.329088
    18885.741300       0.326734
    18921.475900       0.324389
    18957.346000       0.322052
    18993.352300       0.319724
    19029.495700       0.317404
    19065.776900       0.315093
    19102.196800       0.312790
    19138.756000       0.310496
    19175.455400       0.308210
    19212.295900       0.305932
    19249.278200       0.303662
    19286.403100       0.301400
    19323.671500       0.299146
    19361.084200       0.296901
    19398.642100       0.294663
    19436.346000       0.292433
    19474.196700       0.290210
    19512.195100       0.287996
    19550.342100       0.285788
    19588.638600       0.283589
    19627.085400       0.281396
    19665.683400       0.279211
    19704.433500       0.277032
    19743.336600       0.274861
    19782.393700       0.272697
    19821.605600       0.270539
    19860.973200       0.268388
    19900.497500       0.266243
