03, goes_15_imager_04.flt Release RevH plus STAR correction
Number of data points:
1651
Wavenumber (cm-1)   Filter response
      855.000000       0.000000
      855.100000       0.000000
      855.200000       0.000000
      855.300000       0.000000
      855.400000       0.000001
      855.500000       0.000001
      855.600000       0.000002
      855.700000       0.000002
      855.800000       0.000003
      855.900000       0.000003
      856.000000       0.000004
      856.100000       0.000004
      856.200000       0.000005
      856.300000       0.000005
      856.400000       0.000006
      856.500000       0.000007
      856.600000       0.000007
      856.700000       0.000008
      856.800000       0.000008
      856.900000       0.000009
      857.000000       0.000010
      857.100000       0.000011
      857.200000       0.000012
      857.300000       0.000013
      857.400000       0.000014
      857.500000       0.000016
      857.600000       0.000017
      857.700000       0.000018
      857.800000       0.000019
      857.900000       0.000021
      858.000000       0.000022
      858.100000       0.000022
      858.200000       0.000023
      858.300000       0.000024
      858.400000       0.000024
      858.500000       0.000024
      858.600000       0.000024
      858.700000       0.000024
      858.800000       0.000024
      858.900000       0.000024
      859.000000       0.000024
      859.100000       0.000024
      859.200000       0.000024
      859.300000       0.000024
      859.400000       0.000025
      859.500000       0.000025
      859.600000       0.000025
      859.700000       0.000025
      859.800000       0.000025
      859.900000       0.000025
      860.000000       0.000025
      860.100000       0.000025
      860.200000       0.000025
      860.300000       0.000024
      860.400000       0.000024
      860.500000       0.000023
      860.600000       0.000022
      860.700000       0.000022
      860.800000       0.000021
      860.900000       0.000020
      861.000000       0.000019
      861.100000       0.000018
      861.200000       0.000017
      861.300000       0.000016
      861.400000       0.000014
      861.500000       0.000013
      861.600000       0.000012
      861.700000       0.000011
      861.800000       0.000010
      861.900000       0.000009
      862.000000       0.000008
      862.100000       0.000007
      862.200000       0.000007
      862.300000       0.000006
      862.400000       0.000005
      862.500000       0.000004
      862.600000       0.000003
      862.700000       0.000002
      862.800000       0.000001
      862.900000       0.000001
      863.000000       0.000000
      863.100000       0.000000
      863.200000       0.000000
      863.300000       0.000000
      863.400000       0.000000
      863.500000       0.000000
      863.600000       0.000000
      863.700000       0.000000
      863.800000       0.000000
      863.900000       0.000000
      864.000000       0.000002
      864.100000       0.000005
      864.200000       0.000008
      864.300000       0.000013
      864.400000       0.000017
      864.500000       0.000023
      864.600000       0.000029
      864.700000       0.000035
      864.800000       0.000041
      864.900000       0.000048
      865.000000       0.000055
      865.100000       0.000062
      865.200000       0.000070
      865.300000       0.000078
      865.400000       0.000086
      865.500000       0.000095
      865.600000       0.000104
      865.700000       0.000114
      865.800000       0.000124
      865.900000       0.000136
      866.000000       0.000148
      866.100000       0.000160
      866.200000       0.000174
      866.300000       0.000188
      866.400000       0.000203
      866.500000       0.000219
      866.600000       0.000236
      866.700000       0.000254
      866.800000       0.000272
      866.900000       0.000292
      867.000000       0.000312
      867.100000       0.000333
      867.200000       0.000355
      867.300000       0.000378
      867.400000       0.000401
      867.500000       0.000425
      867.600000       0.000449
      867.700000       0.000474
      867.800000       0.000500
      867.900000       0.000525
      868.000000       0.000551
      868.100000       0.000578
      868.200000       0.000605
      868.300000       0.000632
      868.400000       0.000661
      868.500000       0.000691
      868.600000       0.000721
      868.700000       0.000753
      868.800000       0.000786
      868.900000       0.000821
      869.000000       0.000857
      869.100000       0.000895
      869.200000       0.000934
      869.300000       0.000974
      869.400000       0.001015
      869.500000       0.001057
      869.600000       0.001100
      869.700000       0.001143
      869.800000       0.001187
      869.900000       0.001231
      870.000000       0.001276
      870.100000       0.001322
      870.200000       0.001369
      870.300000       0.001416
      870.400000       0.001464
      870.500000       0.001514
      870.600000       0.001564
      870.700000       0.001617
      870.800000       0.001670
      870.900000       0.001726
      871.000000       0.001783
      871.100000       0.001842
      871.200000       0.001902
      871.300000       0.001965
      871.400000       0.002029
      871.500000       0.002095
      871.600000       0.002163
      871.700000       0.002233
      871.800000       0.002306
      871.900000       0.002380
      872.000000       0.002457
      872.100000       0.002536
      872.200000       0.002617
      872.300000       0.002701
      872.400000       0.002787
      872.500000       0.002875
      872.600000       0.002967
      872.700000       0.003061
      872.800000       0.003158
      872.900000       0.003258
      873.000000       0.003361
      873.100000       0.003468
      873.200000       0.003578
      873.300000       0.003691
      873.400000       0.003809
      873.500000       0.003930
      873.600000       0.004056
      873.700000       0.004186
      873.800000       0.004321
      873.900000       0.004460
      874.000000       0.004605
      874.100000       0.004753
      874.200000       0.004907
      874.300000       0.005065
      874.400000       0.005228
      874.500000       0.005395
      874.600000       0.005567
      874.700000       0.005745
      874.800000       0.005928
      874.900000       0.006117
      875.000000       0.006311
      875.100000       0.006511
      875.200000       0.006717
      875.300000       0.006929
      875.400000       0.007149
      875.500000       0.007375
      875.600000       0.007610
      875.700000       0.007853
      875.800000       0.008104
      875.900000       0.008364
      876.000000       0.008633
      876.100000       0.008910
      876.200000       0.009197
      876.300000       0.009492
      876.400000       0.009798
      876.500000       0.010113
      876.600000       0.010439
      876.700000       0.010777
      876.800000       0.011125
      876.900000       0.011485
      877.000000       0.011856
      877.100000       0.012238
      877.200000       0.012632
      877.300000       0.013038
      877.400000       0.013456
      877.500000       0.013887
      877.600000       0.014332
      877.700000       0.014791
      877.800000       0.015264
      877.900000       0.015750
      878.000000       0.016251
      878.100000       0.016766
      878.200000       0.017295
      878.300000       0.017839
      878.400000       0.018399
      878.500000       0.018975
      878.600000       0.019568
      878.700000       0.020178
      878.800000       0.020804
      878.900000       0.021446
      879.000000       0.022103
      879.100000       0.022774
      879.200000       0.023460
      879.300000       0.024159
      879.400000       0.024873
      879.500000       0.025601
      879.600000       0.026343
      879.700000       0.027100
      879.800000       0.027871
      879.900000       0.028660
      880.000000       0.029464
      880.100000       0.030285
      880.200000       0.031126
      880.300000       0.031987
      880.400000       0.032869
      880.500000       0.033775
      880.600000       0.034705
      880.700000       0.035664
      880.800000       0.036648
      880.900000       0.037660
      881.000000       0.038697
      881.100000       0.039759
      881.200000       0.040847
      881.300000       0.041960
      881.400000       0.043100
      881.500000       0.044267
      881.600000       0.045462
      881.700000       0.046689
      881.800000       0.047945
      881.900000       0.049233
      882.000000       0.050551
      882.100000       0.051899
      882.200000       0.053278
      882.300000       0.054687
      882.400000       0.056129
      882.500000       0.057603
      882.600000       0.059110
      882.700000       0.060654
      882.800000       0.062235
      882.900000       0.063856
      883.000000       0.065515
      883.100000       0.067211
      883.200000       0.068946
      883.300000       0.070719
      883.400000       0.072533
      883.500000       0.074386
      883.600000       0.076281
      883.700000       0.078223
      883.800000       0.080210
      883.900000       0.082247
      884.000000       0.084334
      884.100000       0.086468
      884.200000       0.088651
      884.300000       0.090878
      884.400000       0.093152
      884.500000       0.095470
      884.600000       0.097834
      884.700000       0.100246
      884.800000       0.102705
      884.900000       0.105216
      885.000000       0.107777
      885.100000       0.110390
      885.200000       0.113056
      885.300000       0.115769
      885.400000       0.118533
      885.500000       0.121344
      885.600000       0.124204
      885.700000       0.127115
      885.800000       0.130076
      885.900000       0.133092
      886.000000       0.136162
      886.100000       0.139289
      886.200000       0.142473
      886.300000       0.145708
      886.400000       0.148996
      886.500000       0.152333
      886.600000       0.155720
      886.700000       0.159158
      886.800000       0.162644
      886.900000       0.166183
      887.000000       0.169772
      887.100000       0.173415
      887.200000       0.177112
      887.300000       0.180858
      887.400000       0.184655
      887.500000       0.188497
      887.600000       0.192384
      887.700000       0.196321
      887.800000       0.200301
      887.900000       0.204329
      888.000000       0.208402
      888.100000       0.212524
      888.200000       0.216697
      888.300000       0.220916
      888.400000       0.225183
      888.500000       0.229494
      888.600000       0.233850
      888.700000       0.238254
      888.800000       0.242702
      888.900000       0.247199
      889.000000       0.251743
      889.100000       0.256337
      889.200000       0.260987
      889.300000       0.265685
      889.400000       0.270436
      889.500000       0.275231
      889.600000       0.280073
      889.700000       0.284964
      889.800000       0.289899
      889.900000       0.294884
      890.000000       0.299915
      890.100000       0.304996
      890.200000       0.310131
      890.300000       0.315314
      890.400000       0.320549
      890.500000       0.325827
      890.600000       0.331150
      890.700000       0.336522
      890.800000       0.341934
      890.900000       0.347393
      891.000000       0.352892
      891.100000       0.358436
      891.200000       0.364027
      891.300000       0.369655
      891.400000       0.375325
      891.500000       0.381026
      891.600000       0.386759
      891.700000       0.392524
      891.800000       0.398314
      891.900000       0.404133
      892.000000       0.409972
      892.100000       0.415836
      892.200000       0.421723
      892.300000       0.427625
      892.400000       0.433546
      892.500000       0.439476
      892.600000       0.445414
      892.700000       0.451363
      892.800000       0.457311
      892.900000       0.463263
      893.000000       0.469209
      893.100000       0.475150
      893.200000       0.481087
      893.300000       0.487012
      893.400000       0.492932
      893.500000       0.498839
      893.600000       0.504733
      893.700000       0.510619
      893.800000       0.516487
      893.900000       0.522344
      894.000000       0.528179
      894.100000       0.533996
      894.200000       0.539798
      894.300000       0.545577
      894.400000       0.551340
      894.500000       0.557080
      894.600000       0.562801
      894.700000       0.568503
      894.800000       0.574181
      894.900000       0.579839
      895.000000       0.585469
      895.100000       0.591073
      895.200000       0.596656
      895.300000       0.602211
      895.400000       0.607746
      895.500000       0.613253
      895.600000       0.618736
      895.700000       0.624199
      895.800000       0.629635
      895.900000       0.635051
      896.000000       0.640439
      896.100000       0.645801
      896.200000       0.651139
      896.300000       0.656442
      896.400000       0.661715
      896.500000       0.666948
      896.600000       0.672140
      896.700000       0.677292
      896.800000       0.682391
      896.900000       0.687443
      897.000000       0.692444
      897.100000       0.697396
      897.200000       0.702301
      897.300000       0.707153
      897.400000       0.711955
      897.500000       0.716701
      897.600000       0.721389
      897.700000       0.726019
      897.800000       0.730586
      897.900000       0.735099
      898.000000       0.739554
      898.100000       0.743955
      898.200000       0.748305
      898.300000       0.752598
      898.400000       0.756838
      898.500000       0.761019
      898.600000       0.765142
      898.700000       0.769211
      898.800000       0.773226
      898.900000       0.777195
      899.000000       0.781116
      899.100000       0.784993
      899.200000       0.788830
      899.300000       0.792619
      899.400000       0.796365
      899.500000       0.800060
      899.600000       0.803708
      899.700000       0.807317
      899.800000       0.810883
      899.900000       0.814416
      900.000000       0.817913
      900.100000       0.821379
      900.200000       0.824814
      900.300000       0.828211
      900.400000       0.831573
      900.500000       0.834892
      900.600000       0.838172
      900.700000       0.841418
      900.800000       0.844628
      900.900000       0.847807
      901.000000       0.850952
      901.100000       0.854066
      901.200000       0.857150
      901.300000       0.860200
      901.400000       0.863215
      901.500000       0.866193
      901.600000       0.869137
      901.700000       0.872049
      901.800000       0.874927
      901.900000       0.877774
      902.000000       0.880590
      902.100000       0.883373
      902.200000       0.886126
      902.300000       0.888842
      902.400000       0.891525
      902.500000       0.894168
      902.600000       0.896773
      902.700000       0.899344
      902.800000       0.901877
      902.900000       0.904376
      903.000000       0.906835
      903.100000       0.909256
      903.200000       0.911640
      903.300000       0.913985
      903.400000       0.916292
      903.500000       0.918557
      903.600000       0.920783
      903.700000       0.922970
      903.800000       0.925119
      903.900000       0.927231
      904.000000       0.929305
      904.100000       0.931342
      904.200000       0.933343
      904.300000       0.935304
      904.400000       0.937228
      904.500000       0.939112
      904.600000       0.940955
      904.700000       0.942759
      904.800000       0.944520
      904.900000       0.946243
      905.000000       0.947924
      905.100000       0.949562
      905.200000       0.951162
      905.300000       0.952721
      905.400000       0.954244
      905.500000       0.955726
      905.600000       0.957171
      905.700000       0.958577
      905.800000       0.959945
      905.900000       0.961278
      906.000000       0.962574
      906.100000       0.963834
      906.200000       0.965061
      906.300000       0.966256
      906.400000       0.967420
      906.500000       0.968552
      906.600000       0.969655
      906.700000       0.970729
      906.800000       0.971772
      906.900000       0.972785
      907.000000       0.973769
      907.100000       0.974725
      907.200000       0.975655
      907.300000       0.976557
      907.400000       0.977433
      907.500000       0.978285
      907.600000       0.979111
      907.700000       0.979913
      907.800000       0.980690
      907.900000       0.981442
      908.000000       0.982169
      908.100000       0.982871
      908.200000       0.983550
      908.300000       0.984207
      908.400000       0.984843
      908.500000       0.985458
      908.600000       0.986054
      908.700000       0.986631
      908.800000       0.987190
      908.900000       0.987729
      909.000000       0.988249
      909.100000       0.988749
      909.200000       0.989232
      909.300000       0.989695
      909.400000       0.990141
      909.500000       0.990569
      909.600000       0.990980
      909.700000       0.991375
      909.800000       0.991754
      909.900000       0.992120
      910.000000       0.992472
      910.100000       0.992812
      910.200000       0.993140
      910.300000       0.993456
      910.400000       0.993762
      910.500000       0.994057
      910.600000       0.994342
      910.700000       0.994618
      910.800000       0.994882
      910.900000       0.995133
      911.000000       0.995372
      911.100000       0.995596
      911.200000       0.995806
      911.300000       0.996002
      911.400000       0.996184
      911.500000       0.996352
      911.600000       0.996507
      911.700000       0.996648
      911.800000       0.996777
      911.900000       0.996893
      912.000000       0.996996
      912.100000       0.997088
      912.200000       0.997166
      912.300000       0.997236
      912.400000       0.997295
      912.500000       0.997346
      912.600000       0.997390
      912.700000       0.997425
      912.800000       0.997454
      912.900000       0.997474
      913.000000       0.997488
      913.100000       0.997494
      913.200000       0.997494
      913.300000       0.997487
      913.400000       0.997475
      913.500000       0.997457
      913.600000       0.997434
      913.700000       0.997406
      913.800000       0.997374
      913.900000       0.997337
      914.000000       0.997296
      914.100000       0.997251
      914.200000       0.997202
      914.300000       0.997151
      914.400000       0.997097
      914.500000       0.997040
      914.600000       0.996982
      914.700000       0.996923
      914.800000       0.996863
      914.900000       0.996804
      915.000000       0.996747
      915.100000       0.996692
      915.200000       0.996639
      915.300000       0.996590
      915.400000       0.996542
      915.500000       0.996496
      915.600000       0.996454
      915.700000       0.996414
      915.800000       0.996378
      915.900000       0.996344
      916.000000       0.996314
      916.100000       0.996287
      916.200000       0.996264
      916.300000       0.996245
      916.400000       0.996229
      916.500000       0.996217
      916.600000       0.996209
      916.700000       0.996205
      916.800000       0.996204
      916.900000       0.996207
      917.000000       0.996213
