114,   114, MVIRI VIS channel from srf_MET5_2005168_2005169_1801-Release_S10EL_10.dat
Number of data points:
806
Wavenumber (cm-1)   Filter response
     8350.730700       0.000000
     8357.710000       0.000000
     8364.701000       0.000000
     8371.703600       0.000002
     8378.718100       0.000004
     8385.744200       0.000009
     8392.782200       0.000017
     8399.832000       0.000028
     8406.893700       0.000043
     8413.967200       0.000062
     8421.052600       0.000086
     8428.150000       0.000115
     8435.259400       0.000150
     8442.380800       0.000191
     8449.514200       0.000239
     8456.659600       0.000294
     8463.817200       0.000356
     8470.986900       0.000427
     8478.168700       0.000505
     8485.362700       0.000593
     8492.569000       0.000689
     8499.787500       0.000795
     8507.018300       0.000910
     8514.261400       0.001035
     8521.516800       0.001170
     8528.784600       0.001317
     8536.064900       0.001473
     8543.357500       0.001642
     8550.662700       0.001821
     8557.980300       0.002012
     8565.310500       0.002215
     8572.653200       0.002431
     8580.008600       0.002658
     8587.376600       0.002899
     8594.757200       0.003152
     8602.150500       0.003418
     8609.556600       0.003697
     8616.975400       0.003990
     8624.407100       0.004297
     8631.851500       0.004618
     8639.308900       0.004952
     8646.779100       0.005301
     8654.262200       0.005664
     8661.758300       0.006042
     8669.267400       0.006434
     8676.789600       0.006842
     8684.324800       0.007264
     8691.873100       0.007702
     8699.434500       0.008155
     8707.009100       0.008624
     8714.596900       0.009108
     8722.198000       0.009608
     8729.812300       0.010124
     8737.439900       0.010656
     8745.080900       0.011204
     8752.735200       0.011769
     8760.403000       0.012350
     8768.084200       0.012948
     8775.778900       0.013562
     8783.487000       0.014193
     8791.208800       0.014841
     8798.944100       0.015507
     8806.693100       0.016189
     8814.455700       0.016889
     8822.232000       0.017606
     8830.022100       0.018341
     8837.825900       0.019093
     8845.643500       0.019864
     8853.475000       0.020652
     8861.320300       0.021458
     8869.179600       0.022282
     8877.052800       0.023125
     8884.940000       0.023985
     8892.841300       0.024865
     8900.756600       0.025762
     8908.686000       0.026679
     8916.629500       0.027614
     8924.587200       0.028568
     8932.559200       0.029541
     8940.545400       0.030533
     8948.545900       0.031544
     8956.560700       0.032574
     8964.589900       0.033624
     8972.633500       0.034693
     8980.691500       0.035782
     8988.764000       0.036890
     8996.851100       0.038018
     9004.952700       0.039166
     9013.068900       0.040334
     9021.199800       0.041523
     9029.345400       0.042731
     9037.505600       0.043959
     9045.680700       0.045208
     9053.870500       0.046477
     9062.075200       0.047767
     9070.294800       0.049078
     9078.529300       0.050409
     9086.778700       0.051761
     9095.043200       0.053135
     9103.322700       0.054529
     9111.617300       0.055944
     9119.927000       0.057380
     9128.251900       0.058838
     9136.592100       0.060317
     9144.947400       0.061817
     9153.318100       0.063340
     9161.704100       0.064883
     9170.105500       0.066449
     9178.522300       0.068037
     9186.954500       0.069646
     9195.402300       0.071277
     9203.865600       0.072931
     9212.344500       0.074606
     9220.839100       0.076304
     9229.349300       0.078024
     9237.875300       0.079767
     9246.417000       0.081532
     9254.974500       0.083320
     9263.547900       0.085130
     9272.137200       0.086963
     9280.742500       0.088819
     9289.363700       0.090698
     9298.000900       0.092599
     9306.654300       0.094524
     9315.323700       0.096471
     9324.009300       0.098442
     9332.711200       0.100436
     9341.429200       0.102453
     9350.163600       0.104494
     9358.914400       0.106557
     9367.681500       0.108644
     9376.465100       0.110755
     9385.265100       0.112889
     9394.081700       0.115047
     9402.914900       0.117228
     9411.764700       0.119433
     9420.631200       0.121661
     9429.514400       0.123913
     9438.414300       0.126189
     9447.331100       0.128489
     9456.264800       0.130812
     9465.215300       0.133160
     9474.182900       0.135531
     9483.167400       0.137926
     9492.169000       0.140344
     9501.187600       0.142787
     9510.223500       0.145254
     9519.276500       0.147744
     9528.346800       0.150259
     9537.434400       0.152797
     9546.539400       0.155359
     9555.661700       0.157945
     9564.801500       0.160555
     9573.958800       0.163189
     9583.133700       0.165847
     9592.326100       0.168528
     9601.536200       0.171234
     9610.764100       0.173963
     9620.009600       0.176716
     9629.273000       0.179493
     9638.554200       0.182293
     9647.853400       0.185117
     9657.170400       0.187965
     9666.505600       0.190836
     9675.858700       0.193731
     9685.230000       0.196649
     9694.619500       0.199591
     9704.027200       0.202556
     9713.453100       0.205544
     9722.897400       0.208556
     9732.360100       0.211590
     9741.841200       0.214648
     9751.340800       0.217728
     9760.859000       0.220832
     9770.395700       0.223958
     9779.951100       0.227107
     9789.525200       0.230279
     9799.118100       0.233473
     9808.729800       0.236689
     9818.360300       0.239928
     9828.009800       0.243189
     9837.678300       0.246472
     9847.365800       0.249777
     9857.072400       0.253103
     9866.798200       0.256452
     9876.543200       0.259821
     9886.307500       0.263213
     9896.091000       0.266625
     9905.894000       0.270058
     9915.716400       0.273513
     9925.558300       0.276988
     9935.419800       0.280484
     9945.300800       0.284000
     9955.201600       0.287536
     9965.122100       0.291093
     9975.062300       0.294669
     9985.022500       0.298266
     9995.002500       0.301882
    10005.002500       0.305517
    10015.022500       0.309171
    10025.062700       0.312844
    10035.122900       0.316536
    10045.203400       0.320246
    10055.304200       0.323975
    10065.425300       0.327722
    10075.566800       0.331487
    10085.728700       0.335269
    10095.911200       0.339069
    10106.114200       0.342886
    10116.337900       0.346720
    10126.582300       0.350571
    10136.847400       0.354438
    10147.133400       0.358321
    10157.440300       0.362220
    10167.768200       0.366135
    10178.117000       0.370066
    10188.487000       0.374011
    10198.878100       0.377972
    10209.290500       0.381947
    10219.724100       0.385936
    10230.179000       0.389940
    10240.655400       0.393957
    10251.153300       0.397988
    10261.672700       0.402031
    10272.213700       0.406088
    10282.776300       0.410157
    10293.360800       0.414239
    10303.967000       0.418333
    10314.595200       0.422438
    10325.245200       0.426554
    10335.917300       0.430682
    10346.611500       0.434820
    10357.327800       0.438969
    10368.066400       0.443128
    10378.827200       0.447296
    10389.610400       0.451474
    10400.416000       0.455661
    10411.244100       0.459857
    10422.094800       0.464061
    10432.968200       0.468272
    10443.864200       0.472492
    10454.783100       0.476719
    10465.724800       0.480953
    10476.689400       0.485193
    10487.677000       0.489440
    10498.687700       0.493693
    10509.721500       0.497951
    10520.778500       0.502214
    10531.858900       0.506482
    10542.962600       0.510755
    10554.089700       0.515031
    10565.240400       0.519311
    10576.414600       0.523594
    10587.612500       0.527880
    10598.834100       0.532169
    10610.079600       0.536460
    10621.348900       0.540752
    10632.642200       0.545046
    10643.959600       0.549341
    10655.301000       0.553637
    10666.666700       0.557932
    10678.056600       0.562227
    10689.470900       0.566522
    10700.909600       0.570815
    10712.372800       0.575108
    10723.860600       0.579398
    10735.373100       0.583686
    10746.910300       0.587971
    10758.472300       0.592254
    10770.059200       0.596532
    10781.671200       0.600807
    10793.308100       0.605078
    10804.970300       0.609344
    10816.657700       0.613605
    10828.370300       0.617861
    10840.108400       0.622110
    10851.871900       0.626354
    10863.661100       0.630590
    10875.475800       0.634820
    10887.316300       0.639041
    10899.182600       0.643255
    10911.074700       0.647461
    10922.992900       0.651658
    10934.937100       0.655845
    10946.907500       0.660023
    10958.904100       0.664191
    10970.927000       0.668349
    10982.976400       0.672496
    10995.052200       0.676631
    11007.154700       0.680755
    11019.283700       0.684867
    11031.439600       0.688966
    11043.622300       0.693053
    11055.832000       0.697126
    11068.068600       0.701185
    11080.332400       0.705231
    11092.623400       0.709262
    11104.941700       0.713278
    11117.287400       0.717279
    11129.660500       0.721264
    11142.061300       0.725234
    11154.489700       0.729187
    11166.945800       0.733123
    11179.429800       0.737041
    11191.941800       0.740943
    11204.481800       0.744826
    11217.049900       0.748690
    11229.646300       0.752536
    11242.270900       0.756363
    11254.924000       0.760171
    11267.605600       0.763958
    11280.315800       0.767725
    11293.054800       0.771472
    11305.822500       0.775197
    11318.619100       0.778902
    11331.444800       0.782584
    11344.299500       0.786244
    11357.183400       0.789882
    11370.096600       0.793498
    11383.039300       0.797090
    11396.011400       0.800658
    11409.013100       0.804203
    11422.044500       0.807723
    11435.105800       0.811220
    11448.196900       0.814691
    11461.318100       0.818137
    11474.469300       0.821557
    11487.650800       0.824952
    11500.862600       0.828321
    11514.104800       0.831663
    11527.377500       0.834978
    11540.680900       0.838267
    11554.015000       0.841528
    11567.380000       0.844761
    11580.775900       0.847966
    11594.202900       0.851144
    11607.661100       0.854292
    11621.150500       0.857412
    11634.671300       0.860503
    11648.223600       0.863564
    11661.807600       0.866596
    11675.423200       0.869597
    11689.070700       0.872569
    11702.750100       0.875510
    11716.461600       0.878421
    11730.205300       0.881300
    11743.981200       0.884149
    11757.789500       0.886966
    11771.630400       0.889751
    11785.503800       0.892505
    11799.410000       0.895226
    11813.349100       0.897916
    11827.321100       0.900572
    11841.326200       0.903197
    11855.364600       0.905788
    11869.436200       0.908346
    11883.541300       0.910871
    11897.680000       0.913362
    11911.852300       0.915820
    11926.058400       0.918244
    11940.298500       0.920634
    11954.572600       0.922989
    11968.880900       0.925311
    11983.223500       0.927598
    11997.600500       0.929850
    12012.012000       0.932068
    12026.458200       0.934251
    12040.939200       0.936399
    12055.455100       0.938512
    12070.006000       0.940589
    12084.592100       0.942631
    12099.213600       0.944638
    12113.870400       0.946609
    12128.562800       0.948545
    12143.290800       0.950445
    12158.054700       0.952309
    12172.854500       0.954137
    12187.690400       0.955929
    12202.562500       0.957685
    12217.471000       0.959405
    12232.415900       0.961089
    12247.397400       0.962737
    12262.415700       0.964349
    12277.470800       0.965924
    12292.563000       0.967464
    12307.692300       0.968966
    12322.858900       0.970433
    12338.062900       0.971863
    12353.304500       0.973257
    12368.583800       0.974615
    12383.900900       0.975936
    12399.256000       0.977222
    12414.649300       0.978471
    12430.080800       0.979683
    12445.550700       0.980860
    12461.059200       0.982000
    12476.606400       0.983105
    12492.192400       0.984173
    12507.817400       0.985205
    12523.481500       0.986202
    12539.185000       0.987162
    12554.927800       0.988087
    12570.710200       0.988977
    12586.532400       0.989830
    12602.394500       0.990648
    12618.296500       0.991431
    12634.238800       0.992179
    12650.221400       0.992891
    12666.244500       0.993568
    12682.308200       0.994211
    12698.412700       0.994819
    12714.558200       0.995392
    12730.744700       0.995930
    12746.972600       0.996435
    12763.241900       0.996905
    12779.552700       0.997341
    12795.905300       0.997743
    12812.299800       0.998112
    12828.736400       0.998447
    12845.215200       0.998749
    12861.736300       0.999017
    12878.300100       0.999253
    12894.906500       0.999456
    12911.555800       0.999627
    12928.248200       0.999765
    12944.983800       0.999871
    12961.762800       0.999946
    12978.585300       0.999989
    12995.451600       1.000000
    13012.361700       0.999980
    13029.316000       0.999930
    13046.314400       0.999849
    13063.357300       0.999737
    13080.444700       0.999595
    13097.576900       0.999424
    13114.754100       0.999222
    13131.976400       0.998992
    13149.243900       0.998733
    13166.556900       0.998444
    13183.915600       0.998128
    13201.320100       0.997783
    13218.770700       0.997410
    13236.267400       0.997010
    13253.810500       0.996582
    13271.400100       0.996128
    13289.036500       0.995647
    13306.719900       0.995140
    13324.450400       0.994607
    13342.228200       0.994048
    13360.053400       0.993463
    13377.926400       0.992854
    13395.847300       0.992220
    13413.816200       0.991562
    13431.833400       0.990880
    13449.899100       0.990175
    13468.013500       0.989446
    13486.176700       0.988694
    13504.388900       0.987920
    13522.650400       0.987124
    13540.961400       0.986306
    13559.322000       0.985466
    13577.732500       0.984606
    13596.193100       0.983725
    13614.703900       0.982823
    13633.265200       0.981902
    13651.877100       0.980961
    13670.540000       0.980001
    13689.253900       0.979023
    13708.019200       0.978026
    13726.836000       0.977011
    13745.704500       0.975979
    13764.624900       0.974929
    13783.597500       0.973863
    13802.622500       0.972780
    13821.700100       0.971682
    13840.830400       0.970568
    13860.013900       0.969439
    13879.250500       0.968295
    13898.540700       0.967137
    13917.884500       0.965966
    13937.282200       0.964780
    13956.734100       0.963582
    13976.240400       0.962371
    13995.801300       0.961148
    14015.417000       0.959913
    14035.087700       0.958667
    14054.813800       0.957410
    14074.595400       0.956142
    14094.432700       0.954864
    14114.326000       0.953577
    14134.275600       0.952280
    14154.281700       0.950974
    14174.344400       0.949660
    14194.464200       0.948338
    14214.641100       0.947009
    14234.875400       0.945672
    14255.167500       0.944329
    14275.517500       0.942979
    14295.925700       0.941623
    14316.392300       0.940262
    14336.917600       0.938896
    14357.501800       0.937525
    14378.145200       0.936150
    14398.848100       0.934771
    14419.610700       0.933388
    14440.433200       0.932003
    14461.316000       0.930614
    14482.259200       0.929224
    14503.263200       0.927832
    14524.328200       0.926438
    14545.454500       0.925044
    14566.642400       0.923649
    14587.892000       0.922253
    14609.203800       0.920858
    14630.577900       0.919463
    14652.014700       0.918070
    14673.514300       0.916677
    14695.077100       0.915287
    14716.703500       0.913898
    14738.393500       0.912512
    14760.147600       0.911129
    14781.966000       0.909749
    14803.849000       0.908372
    14825.796900       0.906999
    14847.809900       0.905631
    14869.888500       0.904267
    14892.032800       0.902908
    14914.243100       0.901555
    14936.519800       0.900207
    14958.863100       0.898865
    14981.273400       0.897529
    15003.750900       0.896200
    15026.296000       0.894878
    15048.909000       0.893564
    15071.590100       0.892256
    15094.339600       0.890957
    15117.158000       0.889666
    15140.045400       0.888383
    15163.002300       0.887110
    15186.028900       0.885845
    15209.125500       0.884589
    15232.292500       0.883343
    15255.530100       0.882107
    15278.838800       0.880881
    15302.218800       0.879666
    15325.670500       0.878461
    15349.194200       0.877267
    15372.790200       0.876084
    15396.458800       0.874912
    15420.200500       0.873752
    15444.015400       0.872604
    15467.904100       0.871468
    15491.866800       0.870344
    15515.903800       0.869232
    15540.015500       0.868133
    15564.202300       0.867046
    15588.464500       0.865973
    15612.802500       0.864913
    15637.216600       0.863865
    15661.707100       0.862832
    15686.274500       0.861811
    15710.919100       0.860805
    15735.641200       0.859812
    15760.441300       0.858833
    15785.319700       0.857868
    15810.276700       0.856918
    15835.312700       0.855981
    15860.428200       0.855059
    15885.623500       0.854151
    15910.899000       0.853258
    15936.255000       0.852379
    15961.691900       0.851515
    15987.210200       0.850666
    16012.810200       0.849831
    16038.492400       0.849010
    16064.257000       0.848205
    16090.104600       0.847414
    16116.035500       0.846638
    16142.050000       0.845877
    16168.148700       0.845130
    16194.332000       0.844398
    16220.600200       0.843681
    16246.953700       0.842978
    16273.393000       0.842290
    16299.918500       0.841616
    16326.530600       0.840957
    16353.229800       0.840312
    16380.016400       0.839681
    16406.890900       0.839064
    16433.853700       0.838461
    16460.905300       0.837872
    16488.046200       0.837297
    16515.276600       0.836736
    16542.597200       0.836188
    16570.008300       0.835653
    16597.510400       0.835131
    16625.103900       0.834623
    16652.789300       0.834127
    16680.567100       0.833643
    16708.437800       0.833172
    16736.401700       0.832713
    16764.459300       0.832266
    16792.611300       0.831831
    16820.857900       0.831407
    16849.199700       0.830994
    16877.637100       0.830592
    16906.170800       0.830201
    16934.801000       0.829820
    16963.528400       0.829449
    16992.353400       0.829088
    17021.276600       0.828736
    17050.298400       0.828393
    17079.419300       0.828059
    17108.639900       0.827733
    17137.960600       0.827415
    17167.382000       0.827105
    17196.904600       0.826802
    17226.528900       0.826506
    17256.255400       0.826217
    17286.084700       0.825933
