49,   49, MVIRI VIS channel from srf_MET5_1997123_1997124_1801-Release_S10EL_10.dat
Number of data points:
806
Wavenumber (cm-1)   Filter response
     8350.730700       0.000000
     8357.710000       0.000000
     8364.701000       0.000000
     8371.703600       0.000002
     8378.718100       0.000004
     8385.744200       0.000009
     8392.782200       0.000016
     8399.832000       0.000027
     8406.893700       0.000041
     8413.967200       0.000059
     8421.052600       0.000082
     8428.150000       0.000110
     8435.259400       0.000144
     8442.380800       0.000183
     8449.514200       0.000229
     8456.659600       0.000282
     8463.817200       0.000342
     8470.986900       0.000410
     8478.168700       0.000485
     8485.362700       0.000569
     8492.569000       0.000662
     8499.787500       0.000763
     8507.018300       0.000874
     8514.261400       0.000994
     8521.516800       0.001124
     8528.784600       0.001265
     8536.064900       0.001416
     8543.357500       0.001577
     8550.662700       0.001750
     8557.980300       0.001933
     8565.310500       0.002129
     8572.653200       0.002336
     8580.008600       0.002555
     8587.376600       0.002786
     8594.757200       0.003029
     8602.150500       0.003285
     8609.556600       0.003554
     8616.975400       0.003836
     8624.407100       0.004131
     8631.851500       0.004440
     8639.308900       0.004762
     8646.779100       0.005097
     8654.262200       0.005447
     8661.758300       0.005811
     8669.267400       0.006189
     8676.789600       0.006581
     8684.324800       0.006988
     8691.873100       0.007409
     8699.434500       0.007846
     8707.009100       0.008297
     8714.596900       0.008764
     8722.198000       0.009245
     8729.812300       0.009743
     8737.439900       0.010255
     8745.080900       0.010784
     8752.735200       0.011328
     8760.403000       0.011888
     8768.084200       0.012464
     8775.778900       0.013057
     8783.487000       0.013665
     8791.208800       0.014290
     8798.944100       0.014932
     8806.693100       0.015590
     8814.455700       0.016265
     8822.232000       0.016957
     8830.022100       0.017666
     8837.825900       0.018392
     8845.643500       0.019136
     8853.475000       0.019896
     8861.320300       0.020674
     8869.179600       0.021470
     8877.052800       0.022283
     8884.940000       0.023114
     8892.841300       0.023963
     8900.756600       0.024830
     8908.686000       0.025715
     8916.629500       0.026619
     8924.587200       0.027540
     8932.559200       0.028480
     8940.545400       0.029439
     8948.545900       0.030416
     8956.560700       0.031412
     8964.589900       0.032426
     8972.633500       0.033460
     8980.691500       0.034512
     8988.764000       0.035584
     8996.851100       0.036675
     9004.952700       0.037785
     9013.068900       0.038915
     9021.199800       0.040064
     9029.345400       0.041233
     9037.505600       0.042422
     9045.680700       0.043630
     9053.870500       0.044858
     9062.075200       0.046107
     9070.294800       0.047375
     9078.529300       0.048664
     9086.778700       0.049973
     9095.043200       0.051303
     9103.322700       0.052652
     9111.617300       0.054023
     9119.927000       0.055414
     9128.251900       0.056827
     9136.592100       0.058259
     9144.947400       0.059713
     9153.318100       0.061188
     9161.704100       0.062685
     9170.105500       0.064202
     9178.522300       0.065741
     9186.954500       0.067301
     9195.402300       0.068883
     9203.865600       0.070486
     9212.344500       0.072111
     9220.839100       0.073758
     9229.349300       0.075427
     9237.875300       0.077117
     9246.417000       0.078830
     9254.974500       0.080564
     9263.547900       0.082322
     9272.137200       0.084100
     9280.742500       0.085902
     9289.363700       0.087726
     9298.000900       0.089572
     9306.654300       0.091441
     9315.323700       0.093332
     9324.009300       0.095247
     9332.711200       0.097184
     9341.429200       0.099143
     9350.163600       0.101126
     9358.914400       0.103131
     9367.681500       0.105160
     9376.465100       0.107211
     9385.265100       0.109286
     9394.081700       0.111384
     9402.914900       0.113504
     9411.764700       0.115649
     9420.631200       0.117816
     9429.514400       0.120007
     9438.414300       0.122221
     9447.331100       0.124458
     9456.264800       0.126719
     9465.215300       0.129003
     9474.182900       0.131311
     9483.167400       0.133643
     9492.169000       0.135997
     9501.187600       0.138376
     9510.223500       0.140778
     9519.276500       0.143203
     9528.346800       0.145653
     9537.434400       0.148126
     9546.539400       0.150622
     9555.661700       0.153142
     9564.801500       0.155685
     9573.958800       0.158253
     9583.133700       0.160844
     9592.326100       0.163458
     9601.536200       0.166096
     9610.764100       0.168757
     9620.009600       0.171442
     9629.273000       0.174151
     9638.554200       0.176883
     9647.853400       0.179639
     9657.170400       0.182417
     9666.505600       0.185220
     9675.858700       0.188046
     9685.230000       0.190894
     9694.619500       0.193767
     9704.027200       0.196662
     9713.453100       0.199580
     9722.897400       0.202522
     9732.360100       0.205486
     9741.841200       0.208474
     9751.340800       0.211484
     9760.859000       0.214517
     9770.395700       0.217573
     9779.951100       0.220652
     9789.525200       0.223753
     9799.118100       0.226876
     9808.729800       0.230022
     9818.360300       0.233190
     9828.009800       0.236380
     9837.678300       0.239592
     9847.365800       0.242826
     9857.072400       0.246082
     9866.798200       0.249360
     9876.543200       0.252659
     9886.307500       0.255979
     9896.091000       0.259321
     9905.894000       0.262684
     9915.716400       0.266068
     9925.558300       0.269472
     9935.419800       0.272898
     9945.300800       0.276344
     9955.201600       0.279810
     9965.122100       0.283297
     9975.062300       0.286804
     9985.022500       0.290330
     9995.002500       0.293877
    10005.002500       0.297443
    10015.022500       0.301028
    10025.062700       0.304632
    10035.122900       0.308255
    10045.203400       0.311897
    10055.304200       0.315558
    10065.425300       0.319237
    10075.566800       0.322934
    10085.728700       0.326649
    10095.911200       0.330382
    10106.114200       0.334133
    10116.337900       0.337900
    10126.582300       0.341685
    10136.847400       0.345486
    10147.133400       0.349304
    10157.440300       0.353139
    10167.768200       0.356989
    10178.117000       0.360855
    10188.487000       0.364737
    10198.878100       0.368634
    10209.290500       0.372546
    10219.724100       0.376473
    10230.179000       0.380415
    10240.655400       0.384371
    10251.153300       0.388340
    10261.672700       0.392324
    10272.213700       0.396320
    10282.776300       0.400330
    10293.360800       0.404353
    10303.967000       0.408388
    10314.595200       0.412436
    10325.245200       0.416495
    10335.917300       0.420567
    10346.611500       0.424649
    10357.327800       0.428742
    10368.066400       0.432846
    10378.827200       0.436961
    10389.610400       0.441086
    10400.416000       0.445220
    10411.244100       0.449363
    10422.094800       0.453516
    10432.968200       0.457678
    10443.864200       0.461848
    10454.783100       0.466026
    10465.724800       0.470211
    10476.689400       0.474404
    10487.677000       0.478604
    10498.687700       0.482811
    10509.721500       0.487024
    10520.778500       0.491243
    10531.858900       0.495467
    10542.962600       0.499697
    10554.089700       0.503932
    10565.240400       0.508171
    10576.414600       0.512414
    10587.612500       0.516661
    10598.834100       0.520912
    10610.079600       0.525166
    10621.348900       0.529422
    10632.642200       0.533680
    10643.959600       0.537941
    10655.301000       0.542203
    10666.666700       0.546465
    10678.056600       0.550729
    10689.470900       0.554993
    10700.909600       0.559258
    10712.372800       0.563521
    10723.860600       0.567784
    10735.373100       0.572045
    10746.910300       0.576306
    10758.472300       0.580564
    10770.059200       0.584819
    10781.671200       0.589072
    10793.308100       0.593322
    10804.970300       0.597568
    10816.657700       0.601810
    10828.370300       0.606048
    10840.108400       0.610281
    10851.871900       0.614509
    10863.661100       0.618731
    10875.475800       0.622947
    10887.316300       0.627157
    10899.182600       0.631360
    10911.074700       0.635556
    10922.992900       0.639744
    10934.937100       0.643925
    10946.907500       0.648096
    10958.904100       0.652259
    10970.927000       0.656414
    10982.976400       0.660558
    10995.052200       0.664692
    11007.154700       0.668816
    11019.283700       0.672929
    11031.439600       0.677031
    11043.622300       0.681121
    11055.832000       0.685200
    11068.068600       0.689265
    11080.332400       0.693319
    11092.623400       0.697359
    11104.941700       0.701385
    11117.287400       0.705397
    11129.660500       0.709395
    11142.061300       0.713378
    11154.489700       0.717347
    11166.945800       0.721299
    11179.429800       0.725236
    11191.941800       0.729156
    11204.481800       0.733060
    11217.049900       0.736946
    11229.646300       0.740815
    11242.270900       0.744667
    11254.924000       0.748500
    11267.605600       0.752315
    11280.315800       0.756110
    11293.054800       0.759887
    11305.822500       0.763643
    11318.619100       0.767380
    11331.444800       0.771096
    11344.299500       0.774792
    11357.183400       0.778466
    11370.096600       0.782119
    11383.039300       0.785750
    11396.011400       0.789359
    11409.013100       0.792946
    11422.044500       0.796510
    11435.105800       0.800050
    11448.196900       0.803567
    11461.318100       0.807060
    11474.469300       0.810529
    11487.650800       0.813974
    11500.862600       0.817394
    11514.104800       0.820788
    11527.377500       0.824158
    11540.680900       0.827501
    11554.015000       0.830819
    11567.380000       0.834110
    11580.775900       0.837374
    11594.202900       0.840611
    11607.661100       0.843822
    11621.150500       0.847004
    11634.671300       0.850159
    11648.223600       0.853286
    11661.807600       0.856384
    11675.423200       0.859454
    11689.070700       0.862495
    11702.750100       0.865507
    11716.461600       0.868490
    11730.205300       0.871442
    11743.981200       0.874365
    11757.789500       0.877258
    11771.630400       0.880120
    11785.503800       0.882952
    11799.410000       0.885753
    11813.349100       0.888523
    11827.321100       0.891262
    11841.326200       0.893969
    11855.364600       0.896644
    11869.436200       0.899288
    11883.541300       0.901899
    11897.680000       0.904478
    11911.852300       0.907025
    11926.058400       0.909539
    11940.298500       0.912020
    11954.572600       0.914468
    11968.880900       0.916883
    11983.223500       0.919265
    11997.600500       0.921613
    12012.012000       0.923928
    12026.458200       0.926209
    12040.939200       0.928456
    12055.455100       0.930669
    12070.006000       0.932847
    12084.592100       0.934992
    12099.213600       0.937102
    12113.870400       0.939177
    12128.562800       0.941218
    12143.290800       0.943224
    12158.054700       0.945196
    12172.854500       0.947132
    12187.690400       0.949034
    12202.562500       0.950900
    12217.471000       0.952732
    12232.415900       0.954528
    12247.397400       0.956289
    12262.415700       0.958015
    12277.470800       0.959705
    12292.563000       0.961360
    12307.692300       0.962980
    12322.858900       0.964564
    12338.062900       0.966113
    12353.304500       0.967626
    12368.583800       0.969104
    12383.900900       0.970547
    12399.256000       0.971954
    12414.649300       0.973325
    12430.080800       0.974662
    12445.550700       0.975962
    12461.059200       0.977228
    12476.606400       0.978458
    12492.192400       0.979652
    12507.817400       0.980812
    12523.481500       0.981936
    12539.185000       0.983025
    12554.927800       0.984079
    12570.710200       0.985098
    12586.532400       0.986083
    12602.394500       0.987032
    12618.296500       0.987947
    12634.238800       0.988827
    12650.221400       0.989672
    12666.244500       0.990483
    12682.308200       0.991259
    12698.412700       0.992002
    12714.558200       0.992710
    12730.744700       0.993385
    12746.972600       0.994025
    12763.241900       0.994632
    12779.552700       0.995205
    12795.905300       0.995746
    12812.299800       0.996252
    12828.736400       0.996726
    12845.215200       0.997167
    12861.736300       0.997575
    12878.300100       0.997951
    12894.906500       0.998295
    12911.555800       0.998606
    12928.248200       0.998885
    12944.983800       0.999133
    12961.762800       0.999349
    12978.585300       0.999534
    12995.451600       0.999688
    13012.361700       0.999811
    13029.316000       0.999904
    13046.314400       0.999966
    13063.357300       0.999998
    13080.444700       1.000000
    13097.576900       0.999973
    13114.754100       0.999916
    13131.976400       0.999830
    13149.243900       0.999715
    13166.556900       0.999572
    13183.915600       0.999400
    13201.320100       0.999201
    13218.770700       0.998974
    13236.267400       0.998719
    13253.810500       0.998437
    13271.400100       0.998129
    13289.036500       0.997794
    13306.719900       0.997433
    13324.450400       0.997045
    13342.228200       0.996633
    13360.053400       0.996195
    13377.926400       0.995732
    13395.847300       0.995245
    13413.816200       0.994733
    13431.833400       0.994198
    13449.899100       0.993639
    13468.013500       0.993057
    13486.176700       0.992451
    13504.388900       0.991824
    13522.650400       0.991174
    13540.961400       0.990503
    13559.322000       0.989810
    13577.732500       0.989096
    13596.193100       0.988361
    13614.703900       0.987606
    13633.265200       0.986831
    13651.877100       0.986036
    13670.540000       0.985223
    13689.253900       0.984390
    13708.019200       0.983539
    13726.836000       0.982670
    13745.704500       0.981784
    13764.624900       0.980880
    13783.597500       0.979959
    13802.622500       0.979022
    13821.700100       0.978069
    13840.830400       0.977101
    13860.013900       0.976117
    13879.250500       0.975118
    13898.540700       0.974105
    13917.884500       0.973078
    13937.282200       0.972037
    13956.734100       0.970983
    13976.240400       0.969916
    13995.801300       0.968837
    14015.417000       0.967746
    14035.087700       0.966643
    14054.813800       0.965530
    14074.595400       0.964405
    14094.432700       0.963271
    14114.326000       0.962126
    14134.275600       0.960972
    14154.281700       0.959809
    14174.344400       0.958638
    14194.464200       0.957458
    14214.641100       0.956271
    14234.875400       0.955076
    14255.167500       0.953874
    14275.517500       0.952666
    14295.925700       0.951452
    14316.392300       0.950231
    14336.917600       0.949006
    14357.501800       0.947776
    14378.145200       0.946542
    14398.848100       0.945303
    14419.610700       0.944061
    14440.433200       0.942816
    14461.316000       0.941567
    14482.259200       0.940317
    14503.263200       0.939064
    14524.328200       0.937810
    14545.454500       0.936555
    14566.642400       0.935299
    14587.892000       0.934043
    14609.203800       0.932787
    14630.577900       0.931531
    14652.014700       0.930276
    14673.514300       0.929022
    14695.077100       0.927770
    14716.703500       0.926519
    14738.393500       0.925271
    14760.147600       0.924026
    14781.966000       0.922784
    14803.849000       0.921545
    14825.796900       0.920310
    14847.809900       0.919079
    14869.888500       0.917853
    14892.032800       0.916632
    14914.243100       0.915416
    14936.519800       0.914206
    14958.863100       0.913001
    14981.273400       0.911803
    15003.750900       0.910611
    15026.296000       0.909426
    15048.909000       0.908249
    15071.590100       0.907079
    15094.339600       0.905917
    15117.158000       0.904763
    15140.045400       0.903618
    15163.002300       0.902481
    15186.028900       0.901354
    15209.125500       0.900236
    15232.292500       0.899127
    15255.530100       0.898029
    15278.838800       0.896941
    15302.218800       0.895863
    15325.670500       0.894796
    15349.194200       0.893740
    15372.790200       0.892695
    15396.458800       0.891661
    15420.200500       0.890640
    15444.015400       0.889630
    15467.904100       0.888632
    15491.866800       0.887647
    15515.903800       0.886674
    15540.015500       0.885714
    15564.202300       0.884767
    15588.464500       0.883833
    15612.802500       0.882912
    15637.216600       0.882005
    15661.707100       0.881111
    15686.274500       0.880231
    15710.919100       0.879365
    15735.641200       0.878514
    15760.441300       0.877676
    15785.319700       0.876853
    15810.276700       0.876044
    15835.312700       0.875249
    15860.428200       0.874470
    15885.623500       0.873705
    15910.899000       0.872954
    15936.255000       0.872219
    15961.691900       0.871499
    15987.210200       0.870793
    16012.810200       0.870103
    16038.492400       0.869428
    16064.257000       0.868767
    16090.104600       0.868122
    16116.035500       0.867492
    16142.050000       0.866877
    16168.148700       0.866278
    16194.332000       0.865693
    16220.600200       0.865123
    16246.953700       0.864569
    16273.393000       0.864029
    16299.918500       0.863505
    16326.530600       0.862995
    16353.229800       0.862500
    16380.016400       0.862019
    16406.890900       0.861554
    16433.853700       0.861102
    16460.905300       0.860666
    16488.046200       0.860243
    16515.276600       0.859835
    16542.597200       0.859440
    16570.008300       0.859059
    16597.510400       0.858692
    16625.103900       0.858339
    16652.789300       0.857998
    16680.567100       0.857671
    16708.437800       0.857357
    16736.401700       0.857055
    16764.459300       0.856766
    16792.611300       0.856489
    16820.857900       0.856223
    16849.199700       0.855970
    16877.637100       0.855728
    16906.170800       0.855497
    16934.801000       0.855277
    16963.528400       0.855067
    16992.353400       0.854868
    17021.276600       0.854678
    17050.298400       0.854498
    17079.419300       0.854327
    17108.639900       0.854166
    17137.960600       0.854012
    17167.382000       0.853867
    17196.904600       0.853729
    17226.528900       0.853599
    17256.255400       0.853476
    17286.084700       0.853359
