41,   41, MVIRI VIS channel from srf_MET2_1987078_1987079_1801-Release_S10EL_10.dat
Number of data points:
730
Wavenumber (cm-1)   Filter response
     8916.629500       0.000000
     8924.587200       0.000000
     8932.559200       0.000002
     8940.545400       0.000011
     8948.545900       0.000032
     8956.560700       0.000069
     8964.589900       0.000126
     8972.633500       0.000208
     8980.691500       0.000319
     8988.764000       0.000462
     8996.851100       0.000641
     9004.952700       0.000859
     9013.068900       0.001121
     9021.199800       0.001429
     9029.345400       0.001785
     9037.505600       0.002194
     9045.680700       0.002658
     9053.870500       0.003180
     9062.075200       0.003761
     9070.294800       0.004405
     9078.529300       0.005113
     9086.778700       0.005888
     9095.043200       0.006732
     9103.322700       0.007646
     9111.617300       0.008632
     9119.927000       0.009692
     9128.251900       0.010828
     9136.592100       0.012041
     9144.947400       0.013331
     9153.318100       0.014701
     9161.704100       0.016152
     9170.105500       0.017684
     9178.522300       0.019298
     9186.954500       0.020995
     9195.402300       0.022777
     9203.865600       0.024642
     9212.344500       0.026593
     9220.839100       0.028630
     9229.349300       0.030752
     9237.875300       0.032961
     9246.417000       0.035256
     9254.974500       0.037638
     9263.547900       0.040106
     9272.137200       0.042662
     9280.742500       0.045304
     9289.363700       0.048032
     9298.000900       0.050847
     9306.654300       0.053749
     9315.323700       0.056736
     9324.009300       0.059809
     9332.711200       0.062967
     9341.429200       0.066209
     9350.163600       0.069536
     9358.914400       0.072946
     9367.681500       0.076440
     9376.465100       0.080016
     9385.265100       0.083673
     9394.081700       0.087411
     9402.914900       0.091229
     9411.764700       0.095127
     9420.631200       0.099103
     9429.514400       0.103157
     9438.414300       0.107287
     9447.331100       0.111492
     9456.264800       0.115773
     9465.215300       0.120127
     9474.182900       0.124553
     9483.167400       0.129051
     9492.169000       0.133619
     9501.187600       0.138256
     9510.223500       0.142961
     9519.276500       0.147733
     9528.346800       0.152571
     9537.434400       0.157473
     9546.539400       0.162437
     9555.661700       0.167464
     9564.801500       0.172551
     9573.958800       0.177698
     9583.133700       0.182902
     9592.326100       0.188163
     9601.536200       0.193479
     9610.764100       0.198848
     9620.009600       0.204271
     9629.273000       0.209745
     9638.554200       0.215267
     9647.853400       0.220839
     9657.170400       0.226457
     9666.505600       0.232121
     9675.858700       0.237829
     9685.230000       0.243579
     9694.619500       0.249371
     9704.027200       0.255202
     9713.453100       0.261073
     9722.897400       0.266980
     9732.360100       0.272922
     9741.841200       0.278898
     9751.340800       0.284907
     9760.859000       0.290948
     9770.395700       0.297018
     9779.951100       0.303116
     9789.525200       0.309242
     9799.118100       0.315393
     9808.729800       0.321567
     9818.360300       0.327765
     9828.009800       0.333984
     9837.678300       0.340223
     9847.365800       0.346480
     9857.072400       0.352754
     9866.798200       0.359045
     9876.543200       0.365349
     9886.307500       0.371666
     9896.091000       0.377996
     9905.894000       0.384335
     9915.716400       0.390684
     9925.558300       0.397039
     9935.419800       0.403402
     9945.300800       0.409769
     9955.201600       0.416140
     9965.122100       0.422514
     9975.062300       0.428888
     9985.022500       0.435264
     9995.002500       0.441637
    10005.002500       0.448008
    10015.022500       0.454375
    10025.062700       0.460737
    10035.122900       0.467094
    10045.203400       0.473442
    10055.304200       0.479783
    10065.425300       0.486114
    10075.566800       0.492433
    10085.728700       0.498741
    10095.911200       0.505037
    10106.114200       0.511318
    10116.337900       0.517584
    10126.582300       0.523833
    10136.847400       0.530066
    10147.133400       0.536280
    10157.440300       0.542475
    10167.768200       0.548650
    10178.117000       0.554803
    10188.487000       0.560935
    10198.878100       0.567043
    10209.290500       0.573127
    10219.724100       0.579186
    10230.179000       0.585219
    10240.655400       0.591226
    10251.153300       0.597204
    10261.672700       0.603155
    10272.213700       0.609076
    10282.776300       0.614966
    10293.360800       0.620827
    10303.967000       0.626655
    10314.595200       0.632450
    10325.245200       0.638213
    10335.917300       0.643942
    10346.611500       0.649636
    10357.327800       0.655294
    10368.066400       0.660917
    10378.827200       0.666502
    10389.610400       0.672051
    10400.416000       0.677562
    10411.244100       0.683033
    10422.094800       0.688466
    10432.968200       0.693859
    10443.864200       0.699212
    10454.783100       0.704523
    10465.724800       0.709794
    10476.689400       0.715022
    10487.677000       0.720208
    10498.687700       0.725351
    10509.721500       0.730450
    10520.778500       0.735506
    10531.858900       0.740517
    10542.962600       0.745484
    10554.089700       0.750405
    10565.240400       0.755281
    10576.414600       0.760111
    10587.612500       0.764895
    10598.834100       0.769632
    10610.079600       0.774323
    10621.348900       0.778965
    10632.642200       0.783561
    10643.959600       0.788109
    10655.301000       0.792608
    10666.666700       0.797059
    10678.056600       0.801461
    10689.470900       0.805815
    10700.909600       0.810119
    10712.372800       0.814374
    10723.860600       0.818580
    10735.373100       0.822736
    10746.910300       0.826842
    10758.472300       0.830898
    10770.059200       0.834904
    10781.671200       0.838859
    10793.308100       0.842765
    10804.970300       0.846620
    10816.657700       0.850424
    10828.370300       0.854177
    10840.108400       0.857880
    10851.871900       0.861532
    10863.661100       0.865133
    10875.475800       0.868683
    10887.316300       0.872183
    10899.182600       0.875631
    10911.074700       0.879029
    10922.992900       0.882376
    10934.937100       0.885671
    10946.907500       0.888916
    10958.904100       0.892110
    10970.927000       0.895254
    10982.976400       0.898347
    10995.052200       0.901389
    11007.154700       0.904380
    11019.283700       0.907321
    11031.439600       0.910212
    11043.622300       0.913052
    11055.832000       0.915842
    11068.068600       0.918582
    11080.332400       0.921273
    11092.623400       0.923913
    11104.941700       0.926504
    11117.287400       0.929045
    11129.660500       0.931537
    11142.061300       0.933980
    11154.489700       0.936374
    11166.945800       0.938719
    11179.429800       0.941015
    11191.941800       0.943263
    11204.481800       0.945463
    11217.049900       0.947615
    11229.646300       0.949719
    11242.270900       0.951775
    11254.924000       0.953784
    11267.605600       0.955746
    11280.315800       0.957661
    11293.054800       0.959530
    11305.822500       0.961352
    11318.619100       0.963128
    11331.444800       0.964857
    11344.299500       0.966542
    11357.183400       0.968181
    11370.096600       0.969775
    11383.039300       0.971324
    11396.011400       0.972828
    11409.013100       0.974288
    11422.044500       0.975704
    11435.105800       0.977077
    11448.196900       0.978406
    11461.318100       0.979692
    11474.469300       0.980935
    11487.650800       0.982136
    11500.862600       0.983294
    11514.104800       0.984411
    11527.377500       0.985486
    11540.680900       0.986519
    11554.015000       0.987512
    11567.380000       0.988464
    11580.775900       0.989375
    11594.202900       0.990247
    11607.661100       0.991079
    11621.150500       0.991871
    11634.671300       0.992625
    11648.223600       0.993339
    11661.807600       0.994016
    11675.423200       0.994654
    11689.070700       0.995254
    11702.750100       0.995817
    11716.461600       0.996343
    11730.205300       0.996832
    11743.981200       0.997285
    11757.789500       0.997701
    11771.630400       0.998082
    11785.503800       0.998427
    11799.410000       0.998737
    11813.349100       0.999012
    11827.321100       0.999253
    11841.326200       0.999460
    11855.364600       0.999632
    11869.436200       0.999772
    11883.541300       0.999878
    11897.680000       0.999951
    11911.852300       0.999992
    11926.058400       1.000000
    11940.298500       0.999977
    11954.572600       0.999922
    11968.880900       0.999835
    11983.223500       0.999718
    11997.600500       0.999571
    12012.012000       0.999393
    12026.458200       0.999185
    12040.939200       0.998947
    12055.455100       0.998680
    12070.006000       0.998384
    12084.592100       0.998059
    12099.213600       0.997706
    12113.870400       0.997325
    12128.562800       0.996916
    12143.290800       0.996479
    12158.054700       0.996016
    12172.854500       0.995525
    12187.690400       0.995008
    12202.562500       0.994464
    12217.471000       0.993894
    12232.415900       0.993299
    12247.397400       0.992678
    12262.415700       0.992032
    12277.470800       0.991360
    12292.563000       0.990665
    12307.692300       0.989945
    12322.858900       0.989201
    12338.062900       0.988433
    12353.304500       0.987641
    12368.583800       0.986826
    12383.900900       0.985989
    12399.256000       0.985128
    12414.649300       0.984245
    12430.080800       0.983339
    12445.550700       0.982412
    12461.059200       0.981463
    12476.606400       0.980492
    12492.192400       0.979500
    12507.817400       0.978487
    12523.481500       0.977453
    12539.185000       0.976399
    12554.927800       0.975324
    12570.710200       0.974229
    12586.532400       0.973115
    12602.394500       0.971980
    12618.296500       0.970826
    12634.238800       0.969653
    12650.221400       0.968461
    12666.244500       0.967250
    12682.308200       0.966021
    12698.412700       0.964773
    12714.558200       0.963506
    12730.744700       0.962222
    12746.972600       0.960920
    12763.241900       0.959600
    12779.552700       0.958263
    12795.905300       0.956909
    12812.299800       0.955537
    12828.736400       0.954149
    12845.215200       0.952744
    12861.736300       0.951322
    12878.300100       0.949884
    12894.906500       0.948430
    12911.555800       0.946959
    12928.248200       0.945473
    12944.983800       0.943971
    12961.762800       0.942454
    12978.585300       0.940921
    12995.451600       0.939373
    13012.361700       0.937809
    13029.316000       0.936231
    13046.314400       0.934638
    13063.357300       0.933030
    13080.444700       0.931408
    13097.576900       0.929771
    13114.754100       0.928120
    13131.976400       0.926454
    13149.243900       0.924775
    13166.556900       0.923082
    13183.915600       0.921375
    13201.320100       0.919654
    13218.770700       0.917920
    13236.267400       0.916172
    13253.810500       0.914411
    13271.400100       0.912637
    13289.036500       0.910850
    13306.719900       0.909050
    13324.450400       0.907237
    13342.228200       0.905411
    13360.053400       0.903573
    13377.926400       0.901721
    13395.847300       0.899858
    13413.816200       0.897982
    13431.833400       0.896094
    13449.899100       0.894193
    13468.013500       0.892281
    13486.176700       0.890356
    13504.388900       0.888420
    13522.650400       0.886471
    13540.961400       0.884511
    13559.322000       0.882540
    13577.732500       0.880556
    13596.193100       0.878562
    13614.703900       0.876555
    13633.265200       0.874538
    13651.877100       0.872509
    13670.540000       0.870469
    13689.253900       0.868417
    13708.019200       0.866355
    13726.836000       0.864282
    13745.704500       0.862198
    13764.624900       0.860103
    13783.597500       0.857997
    13802.622500       0.855880
    13821.700100       0.853753
    13840.830400       0.851616
    13860.013900       0.849467
    13879.250500       0.847309
    13898.540700       0.845140
    13917.884500       0.842961
    13937.282200       0.840771
    13956.734100       0.838571
    13976.240400       0.836361
    13995.801300       0.834141
    14015.417000       0.831912
    14035.087700       0.829672
    14054.813800       0.827422
    14074.595400       0.825163
    14094.432700       0.822893
    14114.326000       0.820614
    14134.275600       0.818326
    14154.281700       0.816028
    14174.344400       0.813720
    14194.464200       0.811403
    14214.641100       0.809077
    14234.875400       0.806741
    14255.167500       0.804396
    14275.517500       0.802042
    14295.925700       0.799678
    14316.392300       0.797306
    14336.917600       0.794925
    14357.501800       0.792534
    14378.145200       0.790135
    14398.848100       0.787727
    14419.610700       0.785311
    14440.433200       0.782885
    14461.316000       0.780451
    14482.259200       0.778009
    14503.263200       0.775558
    14524.328200       0.773099
    14545.454500       0.770631
    14566.642400       0.768155
    14587.892000       0.765671
    14609.203800       0.763179
    14630.577900       0.760679
    14652.014700       0.758170
    14673.514300       0.755654
    14695.077100       0.753130
    14716.703500       0.750599
    14738.393500       0.748059
    14760.147600       0.745512
    14781.966000       0.742958
    14803.849000       0.740396
    14825.796900       0.737827
    14847.809900       0.735251
    14869.888500       0.732667
    14892.032800       0.730077
    14914.243100       0.727479
    14936.519800       0.724874
    14958.863100       0.722263
    14981.273400       0.719645
    15003.750900       0.717020
    15026.296000       0.714389
    15048.909000       0.711751
    15071.590100       0.709107
    15094.339600       0.706457
    15117.158000       0.703800
    15140.045400       0.701138
    15163.002300       0.698470
    15186.028900       0.695795
    15209.125500       0.693115
    15232.292500       0.690429
    15255.530100       0.687738
    15278.838800       0.685042
    15302.218800       0.682340
    15325.670500       0.679632
    15349.194200       0.676920
    15372.790200       0.674203
    15396.458800       0.671481
    15420.200500       0.668754
    15444.015400       0.666022
    15467.904100       0.663286
    15491.866800       0.660546
    15515.903800       0.657801
    15540.015500       0.655052
    15564.202300       0.652299
    15588.464500       0.649543
    15612.802500       0.646782
    15637.216600       0.644018
    15661.707100       0.641250
    15686.274500       0.638479
    15710.919100       0.635704
    15735.641200       0.632927
    15760.441300       0.630146
    15785.319700       0.627362
    15810.276700       0.624576
    15835.312700       0.621787
    15860.428200       0.618996
    15885.623500       0.616202
    15910.899000       0.613407
    15936.255000       0.610609
    15961.691900       0.607809
    15987.210200       0.605008
    16012.810200       0.602204
    16038.492400       0.599400
    16064.257000       0.596594
    16090.104600       0.593786
    16116.035500       0.590978
    16142.050000       0.588169
    16168.148700       0.585359
    16194.332000       0.582549
    16220.600200       0.579738
    16246.953700       0.576926
    16273.393000       0.574115
    16299.918500       0.571303
    16326.530600       0.568492
    16353.229800       0.565681
    16380.016400       0.562870
    16406.890900       0.560060
    16433.853700       0.557250
    16460.905300       0.554442
    16488.046200       0.551634
    16515.276600       0.548828
    16542.597200       0.546022
    16570.008300       0.543219
    16597.510400       0.540417
    16625.103900       0.537617
    16652.789300       0.534818
    16680.567100       0.532022
    16708.437800       0.529228
    16736.401700       0.526436
    16764.459300       0.523647
    16792.611300       0.520860
    16820.857900       0.518077
    16849.199700       0.515296
    16877.637100       0.512518
    16906.170800       0.509743
    16934.801000       0.506972
    16963.528400       0.504205
    16992.353400       0.501441
    17021.276600       0.498680
    17050.298400       0.495924
    17079.419300       0.493172
    17108.639900       0.490424
    17137.960600       0.487680
    17167.382000       0.484941
    17196.904600       0.482206
    17226.528900       0.479476
    17256.255400       0.476751
    17286.084700       0.474031
    17316.017300       0.471316
    17346.053800       0.468606
    17376.194600       0.465902
    17406.440400       0.463203
    17436.791600       0.460509
    17467.248900       0.457822
    17497.812800       0.455140
    17528.483800       0.452464
    17559.262500       0.449794
    17590.149500       0.447130
    17621.145400       0.444473
    17652.250700       0.441822
    17683.466000       0.439177
    17714.791900       0.436539
    17746.228900       0.433907
    17777.777800       0.431283
    17809.439000       0.428665
    17841.213200       0.426054
    17873.101000       0.423450
    17905.103000       0.420853
    17937.219700       0.418263
    17969.451900       0.415681
    18001.800200       0.413105
    18034.265100       0.410537
    18066.847300       0.407977
    18099.547500       0.405424
    18132.366300       0.402879
    18165.304300       0.400341
    18198.362100       0.397811
    18231.540600       0.395288
    18264.840200       0.392774
    18298.261700       0.390267
    18331.805700       0.387768
    18365.472900       0.385277
    18399.264000       0.382793
    18433.179700       0.380318
    18467.220700       0.377851
    18501.387600       0.375391
    18535.681200       0.372940
    18570.102100       0.370496
    18604.651200       0.368061
    18639.329000       0.365633
    18674.136300       0.363214
    18709.073900       0.360802
    18744.142500       0.358399
    18779.342700       0.356003
    18814.675400       0.353616
    18850.141400       0.351236
    18885.741300       0.348864
    18921.475900       0.346501
    18957.346000       0.344144
    18993.352300       0.341796
    19029.495700       0.339456
    19065.776900       0.337123
    19102.196800       0.334798
    19138.756000       0.332481
    19175.455400       0.330171
    19212.295900       0.327868
    19249.278200       0.325573
    19286.403100       0.323285
    19323.671500       0.321005
    19361.084200       0.318732
    19398.642100       0.316466
    19436.346000       0.314206
    19474.196700       0.311954
    19512.195100       0.309709
    19550.342100       0.307470
    19588.638600       0.305238
    19627.085400       0.303012
    19665.683400       0.300793
    19704.433500       0.298580
    19743.336600       0.296373
    19782.393700       0.294172
    19821.605600       0.291976
    19860.973200       0.289787
    19900.497500       0.287603
