108,   108, MVIRI VIS channel from srf_MET5_2004258_2004259_1801-Release_S10EL_10.dat
Number of data points:
806
Wavenumber (cm-1)   Filter response
     8350.730700       0.000000
     8357.710000       0.000000
     8364.701000       0.000000
     8371.703600       0.000002
     8378.718100       0.000004
     8385.744200       0.000009
     8392.782200       0.000017
     8399.832000       0.000028
     8406.893700       0.000042
     8413.967200       0.000061
     8421.052600       0.000085
     8428.150000       0.000114
     8435.259400       0.000149
     8442.380800       0.000190
     8449.514200       0.000238
     8456.659600       0.000293
     8463.817200       0.000355
     8470.986900       0.000425
     8478.168700       0.000504
     8485.362700       0.000590
     8492.569000       0.000686
     8499.787500       0.000792
     8507.018300       0.000906
     8514.261400       0.001031
     8521.516800       0.001166
     8528.784600       0.001312
     8536.064900       0.001468
     8543.357500       0.001636
     8550.662700       0.001814
     8557.980300       0.002005
     8565.310500       0.002207
     8572.653200       0.002422
     8580.008600       0.002648
     8587.376600       0.002888
     8594.757200       0.003140
     8602.150500       0.003405
     8609.556600       0.003684
     8616.975400       0.003976
     8624.407100       0.004281
     8631.851500       0.004601
     8639.308900       0.004934
     8646.779100       0.005282
     8654.262200       0.005644
     8661.758300       0.006020
     8669.267400       0.006411
     8676.789600       0.006817
     8684.324800       0.007238
     8691.873100       0.007674
     8699.434500       0.008126
     8707.009100       0.008593
     8714.596900       0.009075
     8722.198000       0.009574
     8729.812300       0.010088
     8737.439900       0.010618
     8745.080900       0.011165
     8752.735200       0.011727
     8760.403000       0.012306
     8768.084200       0.012902
     8775.778900       0.013515
     8783.487000       0.014144
     8791.208800       0.014790
     8798.944100       0.015453
     8806.693100       0.016133
     8814.455700       0.016831
     8822.232000       0.017545
     8830.022100       0.018278
     8837.825900       0.019028
     8845.643500       0.019796
     8853.475000       0.020581
     8861.320300       0.021385
     8869.179600       0.022206
     8877.052800       0.023046
     8884.940000       0.023904
     8892.841300       0.024780
     8900.756600       0.025675
     8908.686000       0.026588
     8916.629500       0.027520
     8924.587200       0.028471
     8932.559200       0.029441
     8940.545400       0.030430
     8948.545900       0.031438
     8956.560700       0.032465
     8964.589900       0.033512
     8972.633500       0.034577
     8980.691500       0.035663
     8988.764000       0.036768
     8996.851100       0.037892
     9004.952700       0.039037
     9013.068900       0.040201
     9021.199800       0.041386
     9029.345400       0.042591
     9037.505600       0.043815
     9045.680700       0.045060
     9053.870500       0.046326
     9062.075200       0.047612
     9070.294800       0.048918
     9078.529300       0.050246
     9086.778700       0.051594
     9095.043200       0.052963
     9103.322700       0.054353
     9111.617300       0.055764
     9119.927000       0.057196
     9128.251900       0.058650
     9136.592100       0.060124
     9144.947400       0.061621
     9153.318100       0.063138
     9161.704100       0.064678
     9170.105500       0.066239
     9178.522300       0.067822
     9186.954500       0.069426
     9195.402300       0.071053
     9203.865600       0.072702
     9212.344500       0.074373
     9220.839100       0.076066
     9229.349300       0.077781
     9237.875300       0.079519
     9246.417000       0.081279
     9254.974500       0.083062
     9263.547900       0.084867
     9272.137200       0.086695
     9280.742500       0.088546
     9289.363700       0.090419
     9298.000900       0.092316
     9306.654300       0.094235
     9315.323700       0.096178
     9324.009300       0.098143
     9332.711200       0.100132
     9341.429200       0.102144
     9350.163600       0.104179
     9358.914400       0.106237
     9367.681500       0.108319
     9376.465100       0.110424
     9385.265100       0.112552
     9394.081700       0.114704
     9402.914900       0.116880
     9411.764700       0.119079
     9420.631200       0.121302
     9429.514400       0.123548
     9438.414300       0.125818
     9447.331100       0.128112
     9456.264800       0.130430
     9465.215300       0.132771
     9474.182900       0.135136
     9483.167400       0.137526
     9492.169000       0.139938
     9501.187600       0.142375
     9510.223500       0.144836
     9519.276500       0.147320
     9528.346800       0.149829
     9537.434400       0.152361
     9546.539400       0.154917
     9555.661700       0.157497
     9564.801500       0.160101
     9573.958800       0.162728
     9583.133700       0.165380
     9592.326100       0.168055
     9601.536200       0.170754
     9610.764100       0.173477
     9620.009600       0.176224
     9629.273000       0.178994
     9638.554200       0.181788
     9647.853400       0.184606
     9657.170400       0.187447
     9666.505600       0.190312
     9675.858700       0.193201
     9685.230000       0.196112
     9694.619500       0.199048
     9704.027200       0.202006
     9713.453100       0.204988
     9722.897400       0.207993
     9732.360100       0.211021
     9741.841200       0.214072
     9751.340800       0.217146
     9760.859000       0.220243
     9770.395700       0.223363
     9779.951100       0.226505
     9789.525200       0.229671
     9799.118100       0.232858
     9808.729800       0.236068
     9818.360300       0.239300
     9828.009800       0.242554
     9837.678300       0.245831
     9847.365800       0.249129
     9857.072400       0.252449
     9866.798200       0.255791
     9876.543200       0.259154
     9886.307500       0.262539
     9896.091000       0.265945
     9905.894000       0.269372
     9915.716400       0.272820
     9925.558300       0.276288
     9935.419800       0.279777
     9945.300800       0.283287
     9955.201600       0.286817
     9965.122100       0.290367
     9975.062300       0.293937
     9985.022500       0.297527
     9995.002500       0.301137
    10005.002500       0.304765
    10015.022500       0.308413
    10025.062700       0.312080
    10035.122900       0.315765
    10045.203400       0.319470
    10055.304200       0.323192
    10065.425300       0.326933
    10075.566800       0.330691
    10085.728700       0.334467
    10095.911200       0.338261
    10106.114200       0.342072
    10116.337900       0.345900
    10126.582300       0.349745
    10136.847400       0.353606
    10147.133400       0.357483
    10157.440300       0.361376
    10167.768200       0.365285
    10178.117000       0.369210
    10188.487000       0.373149
    10198.878100       0.377104
    10209.290500       0.381073
    10219.724100       0.385057
    10230.179000       0.389055
    10240.655400       0.393067
    10251.153300       0.397092
    10261.672700       0.401130
    10272.213700       0.405181
    10282.776300       0.409245
    10293.360800       0.413321
    10303.967000       0.417410
    10314.595200       0.421510
    10325.245200       0.425621
    10335.917300       0.429744
    10346.611500       0.433877
    10357.327800       0.438020
    10368.066400       0.442174
    10378.827200       0.446338
    10389.610400       0.450511
    10400.416000       0.454693
    10411.244100       0.458884
    10422.094800       0.463083
    10432.968200       0.467290
    10443.864200       0.471505
    10454.783100       0.475728
    10465.724800       0.479957
    10476.689400       0.484193
    10487.677000       0.488436
    10498.687700       0.492685
    10509.721500       0.496939
    10520.778500       0.501198
    10531.858900       0.505462
    10542.962600       0.509731
    10554.089700       0.514003
    10565.240400       0.518279
    10576.414600       0.522559
    10587.612500       0.526842
    10598.834100       0.531127
    10610.079600       0.535415
    10621.348900       0.539704
    10632.642200       0.543995
    10643.959600       0.548287
    10655.301000       0.552579
    10666.666700       0.556871
    10678.056600       0.561164
    10689.470900       0.565456
    10700.909600       0.569747
    10712.372800       0.574036
    10723.860600       0.578324
    10735.373100       0.582610
    10746.910300       0.586893
    10758.472300       0.591173
    10770.059200       0.595450
    10781.671200       0.599723
    10793.308100       0.603992
    10804.970300       0.608257
    10816.657700       0.612516
    10828.370300       0.616770
    10840.108400       0.621018
    10851.871900       0.625260
    10863.661100       0.629496
    10875.475800       0.633724
    10887.316300       0.637945
    10899.182600       0.642158
    10911.074700       0.646363
    10922.992900       0.650559
    10934.937100       0.654746
    10946.907500       0.658924
    10958.904100       0.663091
    10970.927000       0.667249
    10982.976400       0.671396
    10995.052200       0.675531
    11007.154700       0.679655
    11019.283700       0.683767
    11031.439600       0.687867
    11043.622300       0.691954
    11055.832000       0.696028
    11068.068600       0.700088
    11080.332400       0.704135
    11092.623400       0.708167
    11104.941700       0.712184
    11117.287400       0.716186
    11129.660500       0.720173
    11142.061300       0.724144
    11154.489700       0.728098
    11166.945800       0.732036
    11179.429800       0.735956
    11191.941800       0.739860
    11204.481800       0.743745
    11217.049900       0.747612
    11229.646300       0.751460
    11242.270900       0.755289
    11254.924000       0.759099
    11267.605600       0.762890
    11280.315800       0.766660
    11293.054800       0.770409
    11305.822500       0.774138
    11318.619100       0.777845
    11331.444800       0.781531
    11344.299500       0.785195
    11357.183400       0.788836
    11370.096600       0.792455
    11383.039300       0.796051
    11396.011400       0.799624
    11409.013100       0.803172
    11422.044500       0.806697
    11435.105800       0.810198
    11448.196900       0.813673
    11461.318100       0.817124
    11474.469300       0.820549
    11487.650800       0.823949
    11500.862600       0.827322
    11514.104800       0.830669
    11527.377500       0.833990
    11540.680900       0.837284
    11554.015000       0.840550
    11567.380000       0.843789
    11580.775900       0.847000
    11594.202900       0.850183
    11607.661100       0.853337
    11621.150500       0.856463
    11634.671300       0.859560
    11648.223600       0.862628
    11661.807600       0.865666
    11675.423200       0.868674
    11689.070700       0.871652
    11702.750100       0.874600
    11716.461600       0.877518
    11730.205300       0.880404
    11743.981200       0.883260
    11757.789500       0.886084
    11771.630400       0.888877
    11785.503800       0.891638
    11799.410000       0.894367
    11813.349100       0.897064
    11827.321100       0.899728
    11841.326200       0.902360
    11855.364600       0.904959
    11869.436200       0.907526
    11883.541300       0.910059
    11897.680000       0.912558
    11911.852300       0.915025
    11926.058400       0.917457
    11940.298500       0.919856
    11954.572600       0.922220
    11968.880900       0.924551
    11983.223500       0.926847
    11997.600500       0.929108
    12012.012000       0.931335
    12026.458200       0.933527
    12040.939200       0.935684
    12055.455100       0.937806
    12070.006000       0.939894
    12084.592100       0.941945
    12099.213600       0.943962
    12113.870400       0.945943
    12128.562800       0.947888
    12143.290800       0.949798
    12158.054700       0.951672
    12172.854500       0.953511
    12187.690400       0.955313
    12202.562500       0.957080
    12217.471000       0.958810
    12232.415900       0.960505
    12247.397400       0.962163
    12262.415700       0.963786
    12277.470800       0.965372
    12292.563000       0.966922
    12307.692300       0.968436
    12322.858900       0.969914
    12338.062900       0.971355
    12353.304500       0.972760
    12368.583800       0.974129
    12383.900900       0.975462
    12399.256000       0.976759
    12414.649300       0.978019
    12430.080800       0.979244
    12445.550700       0.980432
    12461.059200       0.981584
    12476.606400       0.982700
    12492.192400       0.983780
    12507.817400       0.984824
    12523.481500       0.985833
    12539.185000       0.986805
    12554.927800       0.987742
    12570.710200       0.988644
    12586.532400       0.989510
    12602.394500       0.990340
    12618.296500       0.991135
    12634.238800       0.991895
    12650.221400       0.992620
    12666.244500       0.993310
    12682.308200       0.993965
    12698.412700       0.994585
    12714.558200       0.995171
    12730.744700       0.995722
    12746.972600       0.996239
    12763.241900       0.996722
    12779.552700       0.997171
    12795.905300       0.997586
    12812.299800       0.997967
    12828.736400       0.998315
    12845.215200       0.998630
    12861.736300       0.998912
    12878.300100       0.999161
    12894.906500       0.999377
    12911.555800       0.999561
    12928.248200       0.999712
    12944.983800       0.999832
    12961.762800       0.999919
    12978.585300       0.999975
    12995.451600       1.000000
    13012.361700       0.999994
    13029.316000       0.999956
    13046.314400       0.999888
    13063.357300       0.999790
    13080.444700       0.999662
    13097.576900       0.999504
    13114.754100       0.999316
    13131.976400       0.999099
    13149.243900       0.998853
    13166.556900       0.998578
    13183.915600       0.998275
    13201.320100       0.997944
    13218.770700       0.997584
    13236.267400       0.997198
    13253.810500       0.996784
    13271.400100       0.996343
    13289.036500       0.995875
    13306.719900       0.995382
    13324.450400       0.994862
    13342.228200       0.994317
    13360.053400       0.993746
    13377.926400       0.993150
    13395.847300       0.992530
    13413.816200       0.991886
    13431.833400       0.991217
    13449.899100       0.990525
    13468.013500       0.989810
    13486.176700       0.989072
    13504.388900       0.988311
    13522.650400       0.987528
    13540.961400       0.986724
    13559.322000       0.985898
    13577.732500       0.985051
    13596.193100       0.984183
    13614.703900       0.983296
    13633.265200       0.982388
    13651.877100       0.981461
    13670.540000       0.980514
    13689.253900       0.979549
    13708.019200       0.978566
    13726.836000       0.977564
    13745.704500       0.976546
    13764.624900       0.975509
    13783.597500       0.974457
    13802.622500       0.973388
    13821.700100       0.972303
    13840.830400       0.971202
    13860.013900       0.970086
    13879.250500       0.968956
    13898.540700       0.967812
    13917.884500       0.966653
    13937.282200       0.965481
    13956.734100       0.964296
    13976.240400       0.963098
    13995.801300       0.961889
    14015.417000       0.960667
    14035.087700       0.959434
    14054.813800       0.958190
    14074.595400       0.956935
    14094.432700       0.955671
    14114.326000       0.954397
    14134.275600       0.953113
    14154.281700       0.951820
    14174.344400       0.950520
    14194.464200       0.949211
    14214.641100       0.947894
    14234.875400       0.946570
    14255.167500       0.945240
    14275.517500       0.943903
    14295.925700       0.942560
    14316.392300       0.941212
    14336.917600       0.939859
    14357.501800       0.938501
    14378.145200       0.937139
    14398.848100       0.935772
    14419.610700       0.934403
    14440.433200       0.933030
    14461.316000       0.931655
    14482.259200       0.930277
    14503.263200       0.928898
    14524.328200       0.927517
    14545.454500       0.926136
    14566.642400       0.924753
    14587.892000       0.923371
    14609.203800       0.921988
    14630.577900       0.920606
    14652.014700       0.919225
    14673.514300       0.917845
    14695.077100       0.916467
    14716.703500       0.915091
    14738.393500       0.913718
    14760.147600       0.912347
    14781.966000       0.910980
    14803.849000       0.909616
    14825.796900       0.908256
    14847.809900       0.906900
    14869.888500       0.905549
    14892.032800       0.904202
    14914.243100       0.902861
    14936.519800       0.901526
    14958.863100       0.900197
    14981.273400       0.898874
    15003.750900       0.897557
    15026.296000       0.896248
    15048.909000       0.894946
    15071.590100       0.893651
    15094.339600       0.892364
    15117.158000       0.891086
    15140.045400       0.889815
    15163.002300       0.888554
    15186.028900       0.887302
    15209.125500       0.886059
    15232.292500       0.884826
    15255.530100       0.883602
    15278.838800       0.882389
    15302.218800       0.881186
    15325.670500       0.879993
    15349.194200       0.878812
    15372.790200       0.877642
    15396.458800       0.876483
    15420.200500       0.875335
    15444.015400       0.874199
    15467.904100       0.873076
    15491.866800       0.871964
    15515.903800       0.870865
    15540.015500       0.869779
    15564.202300       0.868705
    15588.464500       0.867644
    15612.802500       0.866597
    15637.216600       0.865562
    15661.707100       0.864541
    15686.274500       0.863534
    15710.919100       0.862540
    15735.641200       0.861560
    15760.441300       0.860594
    15785.319700       0.859642
    15810.276700       0.858704
    15835.312700       0.857780
    15860.428200       0.856871
    15885.623500       0.855976
    15910.899000       0.855096
    15936.255000       0.854230
    15961.691900       0.853379
    15987.210200       0.852543
    16012.810200       0.851721
    16038.492400       0.850914
    16064.257000       0.850122
    16090.104600       0.849344
    16116.035500       0.848581
    16142.050000       0.847833
    16168.148700       0.847100
    16194.332000       0.846381
    16220.600200       0.845677
    16246.953700       0.844988
    16273.393000       0.844313
    16299.918500       0.843653
    16326.530600       0.843007
    16353.229800       0.842376
    16380.016400       0.841758
    16406.890900       0.841155
    16433.853700       0.840566
    16460.905300       0.839991
    16488.046200       0.839430
    16515.276600       0.838882
    16542.597200       0.838348
    16570.008300       0.837827
    16597.510400       0.837320
    16625.103900       0.836825
    16652.789300       0.836343
    16680.567100       0.835874
    16708.437800       0.835417
    16736.401700       0.834972
    16764.459300       0.834540
    16792.611300       0.834119
    16820.857900       0.833709
    16849.199700       0.833311
    16877.637100       0.832923
    16906.170800       0.832546
    16934.801000       0.832180
    16963.528400       0.831824
    16992.353400       0.831477
    17021.276600       0.831140
    17050.298400       0.830812
    17079.419300       0.830492
    17108.639900       0.830181
    17137.960600       0.829878
    17167.382000       0.829583
    17196.904600       0.829295
    17226.528900       0.829014
    17256.255400       0.828739
    17286.084700       0.828471
