22,   22, MVIRI VIS channel from srf_MET5_1993348_1993349_1801-Release_S10EL_10.dat
Number of data points:
806
Wavenumber (cm-1)   Filter response
     8350.730700       0.000000
     8357.710000       0.000000
     8364.701000       0.000000
     8371.703600       0.000001
     8378.718100       0.000004
     8385.744200       0.000009
     8392.782200       0.000016
     8399.832000       0.000026
     8406.893700       0.000040
     8413.967200       0.000058
     8421.052600       0.000081
     8428.150000       0.000108
     8435.259400       0.000141
     8442.380800       0.000180
     8449.514200       0.000225
     8456.659600       0.000277
     8463.817200       0.000336
     8470.986900       0.000403
     8478.168700       0.000477
     8485.362700       0.000559
     8492.569000       0.000650
     8499.787500       0.000750
     8507.018300       0.000859
     8514.261400       0.000977
     8521.516800       0.001105
     8528.784600       0.001243
     8536.064900       0.001392
     8543.357500       0.001551
     8550.662700       0.001720
     8557.980300       0.001901
     8565.310500       0.002093
     8572.653200       0.002297
     8580.008600       0.002512
     8587.376600       0.002740
     8594.757200       0.002979
     8602.150500       0.003231
     8609.556600       0.003496
     8616.975400       0.003773
     8624.407100       0.004063
     8631.851500       0.004367
     8639.308900       0.004684
     8646.779100       0.005014
     8654.262200       0.005358
     8661.758300       0.005716
     8669.267400       0.006088
     8676.789600       0.006474
     8684.324800       0.006874
     8691.873100       0.007289
     8699.434500       0.007719
     8707.009100       0.008163
     8714.596900       0.008622
     8722.198000       0.009097
     8729.812300       0.009586
     8737.439900       0.010091
     8745.080900       0.010611
     8752.735200       0.011147
     8760.403000       0.011698
     8768.084200       0.012266
     8775.778900       0.012849
     8783.487000       0.013448
     8791.208800       0.014064
     8798.944100       0.014696
     8806.693100       0.015344
     8814.455700       0.016009
     8822.232000       0.016691
     8830.022100       0.017389
     8837.825900       0.018104
     8845.643500       0.018836
     8853.475000       0.019586
     8861.320300       0.020352
     8869.179600       0.021136
     8877.052800       0.021937
     8884.940000       0.022756
     8892.841300       0.023593
     8900.756600       0.024447
     8908.686000       0.025319
     8916.629500       0.026209
     8924.587200       0.027118
     8932.559200       0.028044
     8940.545400       0.028989
     8948.545900       0.029952
     8956.560700       0.030933
     8964.589900       0.031933
     8972.633500       0.032952
     8980.691500       0.033990
     8988.764000       0.035047
     8996.851100       0.036122
     9004.952700       0.037217
     9013.068900       0.038331
     9021.199800       0.039464
     9029.345400       0.040616
     9037.505600       0.041788
     9045.680700       0.042980
     9053.870500       0.044192
     9062.075200       0.045423
     9070.294800       0.046674
     9078.529300       0.047945
     9086.778700       0.049236
     9095.043200       0.050548
     9103.322700       0.051880
     9111.617300       0.053232
     9119.927000       0.054604
     9128.251900       0.055998
     9136.592100       0.057411
     9144.947400       0.058846
     9153.318100       0.060302
     9161.704100       0.061778
     9170.105500       0.063276
     9178.522300       0.064794
     9186.954500       0.066334
     9195.402300       0.067895
     9203.865600       0.069478
     9212.344500       0.071082
     9220.839100       0.072708
     9229.349300       0.074355
     9237.875300       0.076024
     9246.417000       0.077715
     9254.974500       0.079427
     9263.547900       0.081162
     9272.137200       0.082919
     9280.742500       0.084698
     9289.363700       0.086499
     9298.000900       0.088322
     9306.654300       0.090168
     9315.323700       0.092036
     9324.009300       0.093927
     9332.711200       0.095840
     9341.429200       0.097776
     9350.163600       0.099735
     9358.914400       0.101716
     9367.681500       0.103720
     9376.465100       0.105747
     9385.265100       0.107797
     9394.081700       0.109870
     9402.914900       0.111965
     9411.764700       0.114084
     9420.631200       0.116226
     9429.514400       0.118391
     9438.414300       0.120580
     9447.331100       0.122791
     9456.264800       0.125026
     9465.215300       0.127284
     9474.182900       0.129566
     9483.167400       0.131871
     9492.169000       0.134199
     9501.187600       0.136551
     9510.223500       0.138926
     9519.276500       0.141324
     9528.346800       0.143746
     9537.434400       0.146192
     9546.539400       0.148661
     9555.661700       0.151153
     9564.801500       0.153669
     9573.958800       0.156208
     9583.133700       0.158771
     9592.326100       0.161358
     9601.536200       0.163968
     9610.764100       0.166601
     9620.009600       0.169258
     9629.273000       0.171938
     9638.554200       0.174641
     9647.853400       0.177368
     9657.170400       0.180118
     9666.505600       0.182892
     9675.858700       0.185689
     9685.230000       0.188508
     9694.619500       0.191352
     9704.027200       0.194218
     9713.453100       0.197107
     9722.897400       0.200019
     9732.360100       0.202954
     9741.841200       0.205913
     9751.340800       0.208893
     9760.859000       0.211897
     9770.395700       0.214924
     9779.951100       0.217972
     9789.525200       0.221044
     9799.118100       0.224138
     9808.729800       0.227254
     9818.360300       0.230392
     9828.009800       0.233552
     9837.678300       0.236735
     9847.365800       0.239939
     9857.072400       0.243165
     9866.798200       0.246413
     9876.543200       0.249682
     9886.307500       0.252973
     9896.091000       0.256285
     9905.894000       0.259618
     9915.716400       0.262973
     9925.558300       0.266348
     9935.419800       0.269744
     9945.300800       0.273160
     9955.201600       0.276597
     9965.122100       0.280054
     9975.062300       0.283531
     9985.022500       0.287029
     9995.002500       0.290546
    10005.002500       0.294082
    10015.022500       0.297638
    10025.062700       0.301214
    10035.122900       0.304808
    10045.203400       0.308421
    10055.304200       0.312053
    10065.425300       0.315703
    10075.566800       0.319372
    10085.728700       0.323058
    10095.911200       0.326763
    10106.114200       0.330485
    10116.337900       0.334224
    10126.582300       0.337981
    10136.847400       0.341754
    10147.133400       0.345545
    10157.440300       0.349351
    10167.768200       0.353174
    10178.117000       0.357013
    10188.487000       0.360868
    10198.878100       0.364738
    10209.290500       0.368623
    10219.724100       0.372524
    10230.179000       0.376439
    10240.655400       0.380368
    10251.153300       0.384312
    10261.672700       0.388270
    10272.213700       0.392241
    10282.776300       0.396225
    10293.360800       0.400223
    10303.967000       0.404233
    10314.595200       0.408256
    10325.245200       0.412291
    10335.917300       0.416338
    10346.611500       0.420396
    10357.327800       0.424466
    10368.066400       0.428546
    10378.827200       0.432638
    10389.610400       0.436739
    10400.416000       0.440851
    10411.244100       0.444972
    10422.094800       0.449103
    10432.968200       0.453242
    10443.864200       0.457391
    10454.783100       0.461547
    10465.724800       0.465712
    10476.689400       0.469884
    10487.677000       0.474064
    10498.687700       0.478251
    10509.721500       0.482444
    10520.778500       0.486644
    10531.858900       0.490849
    10542.962600       0.495061
    10554.089700       0.499277
    10565.240400       0.503498
    10576.414600       0.507724
    10587.612500       0.511954
    10598.834100       0.516188
    10610.079600       0.520425
    10621.348900       0.524665
    10632.642200       0.528907
    10643.959600       0.533152
    10655.301000       0.537399
    10666.666700       0.541648
    10678.056600       0.545897
    10689.470900       0.550148
    10700.909600       0.554399
    10712.372800       0.558649
    10723.860600       0.562900
    10735.373100       0.567149
    10746.910300       0.571398
    10758.472300       0.575644
    10770.059200       0.579889
    10781.671200       0.584132
    10793.308100       0.588372
    10804.970300       0.592608
    10816.657700       0.596842
    10828.370300       0.601071
    10840.108400       0.605296
    10851.871900       0.609516
    10863.661100       0.613731
    10875.475800       0.617941
    10887.316300       0.622144
    10899.182600       0.626342
    10911.074700       0.630532
    10922.992900       0.634716
    10934.937100       0.638892
    10946.907500       0.643060
    10958.904100       0.647220
    10970.927000       0.651371
    10982.976400       0.655513
    10995.052200       0.659646
    11007.154700       0.663768
    11019.283700       0.667881
    11031.439600       0.671983
    11043.622300       0.676073
    11055.832000       0.680152
    11068.068600       0.684220
    11080.332400       0.688275
    11092.623400       0.692317
    11104.941700       0.696346
    11117.287400       0.700362
    11129.660500       0.704364
    11142.061300       0.708352
    11154.489700       0.712325
    11166.945800       0.716283
    11179.429800       0.720226
    11191.941800       0.724153
    11204.481800       0.728064
    11217.049900       0.731959
    11229.646300       0.735836
    11242.270900       0.739696
    11254.924000       0.743539
    11267.605600       0.747364
    11280.315800       0.751170
    11293.054800       0.754957
    11305.822500       0.758726
    11318.619100       0.762475
    11331.444800       0.766204
    11344.299500       0.769913
    11357.183400       0.773601
    11370.096600       0.777268
    11383.039300       0.780915
    11396.011400       0.784539
    11409.013100       0.788142
    11422.044500       0.791722
    11435.105800       0.795280
    11448.196900       0.798815
    11461.318100       0.802326
    11474.469300       0.805814
    11487.650800       0.809278
    11500.862600       0.812718
    11514.104800       0.816133
    11527.377500       0.819524
    11540.680900       0.822889
    11554.015000       0.826228
    11567.380000       0.829542
    11580.775900       0.832830
    11594.202900       0.836091
    11607.661100       0.839326
    11621.150500       0.842534
    11634.671300       0.845714
    11648.223600       0.848867
    11661.807600       0.851992
    11675.423200       0.855089
    11689.070700       0.858158
    11702.750100       0.861198
    11716.461600       0.864209
    11730.205300       0.867191
    11743.981200       0.870144
    11757.789500       0.873067
    11771.630400       0.875960
    11785.503800       0.878823
    11799.410000       0.881656
    11813.349100       0.884458
    11827.321100       0.887230
    11841.326200       0.889970
    11855.364600       0.892680
    11869.436200       0.895358
    11883.541300       0.898004
    11897.680000       0.900619
    11911.852300       0.903201
    11926.058400       0.905752
    11940.298500       0.908270
    11954.572600       0.910755
    11968.880900       0.913208
    11983.223500       0.915628
    11997.600500       0.918015
    12012.012000       0.920369
    12026.458200       0.922690
    12040.939200       0.924977
    12055.455100       0.927231
    12070.006000       0.929451
    12084.592100       0.931637
    12099.213600       0.933789
    12113.870400       0.935907
    12128.562800       0.937991
    12143.290800       0.940040
    12158.054700       0.942056
    12172.854500       0.944036
    12187.690400       0.945983
    12202.562500       0.947894
    12217.471000       0.949771
    12232.415900       0.951613
    12247.397400       0.953421
    12262.415700       0.955193
    12277.470800       0.956931
    12292.563000       0.958633
    12307.692300       0.960301
    12322.858900       0.961933
    12338.062900       0.963530
    12353.304500       0.965093
    12368.583800       0.966620
    12383.900900       0.968112
    12399.256000       0.969569
    12414.649300       0.970991
    12430.080800       0.972378
    12445.550700       0.973730
    12461.059200       0.975047
    12476.606400       0.976328
    12492.192400       0.977575
    12507.817400       0.978787
    12523.481500       0.979964
    12539.185000       0.981106
    12554.927800       0.982214
    12570.710200       0.983286
    12586.532400       0.984324
    12602.394500       0.985328
    12618.296500       0.986297
    12634.238800       0.987231
    12650.221400       0.988132
    12666.244500       0.988998
    12682.308200       0.989830
    12698.412700       0.990628
    12714.558200       0.991392
    12730.744700       0.992123
    12746.972600       0.992820
    12763.241900       0.993484
    12779.552700       0.994114
    12795.905300       0.994711
    12812.299800       0.995275
    12828.736400       0.995807
    12845.215200       0.996305
    12861.736300       0.996771
    12878.300100       0.997205
    12894.906500       0.997607
    12911.555800       0.997977
    12928.248200       0.998315
    12944.983800       0.998621
    12961.762800       0.998897
    12978.585300       0.999141
    12995.451600       0.999354
    13012.361700       0.999536
    13029.316000       0.999688
    13046.314400       0.999810
    13063.357300       0.999902
    13080.444700       0.999964
    13097.576900       0.999997
    13114.754100       1.000000
    13131.976400       0.999974
    13149.243900       0.999920
    13166.556900       0.999837
    13183.915600       0.999726
    13201.320100       0.999588
    13218.770700       0.999421
    13236.267400       0.999227
    13253.810500       0.999006
    13271.400100       0.998759
    13289.036500       0.998485
    13306.719900       0.998185
    13324.450400       0.997859
    13342.228200       0.997508
    13360.053400       0.997131
    13377.926400       0.996730
    13395.847300       0.996304
    13413.816200       0.995853
    13431.833400       0.995379
    13449.899100       0.994882
    13468.013500       0.994361
    13486.176700       0.993817
    13504.388900       0.993251
    13522.650400       0.992663
    13540.961400       0.992053
    13559.322000       0.991422
    13577.732500       0.990769
    13596.193100       0.990096
    13614.703900       0.989403
    13633.265200       0.988689
    13651.877100       0.987956
    13670.540000       0.987204
    13689.253900       0.986433
    13708.019200       0.985644
    13726.836000       0.984836
    13745.704500       0.984011
    13764.624900       0.983169
    13783.597500       0.982309
    13802.622500       0.981434
    13821.700100       0.980542
    13840.830400       0.979634
    13860.013900       0.978712
    13879.250500       0.977774
    13898.540700       0.976822
    13917.884500       0.975856
    13937.282200       0.974876
    13956.734100       0.973883
    13976.240400       0.972877
    13995.801300       0.971859
    14015.417000       0.970829
    14035.087700       0.969787
    14054.813800       0.968734
    14074.595400       0.967671
    14094.432700       0.966597
    14114.326000       0.965513
    14134.275600       0.964419
    14154.281700       0.963317
    14174.344400       0.962206
    14194.464200       0.961086
    14214.641100       0.959959
    14234.875400       0.958825
    14255.167500       0.957683
    14275.517500       0.956535
    14295.925700       0.955381
    14316.392300       0.954220
    14336.917600       0.953055
    14357.501800       0.951885
    14378.145200       0.950710
    14398.848100       0.949531
    14419.610700       0.948349
    14440.433200       0.947163
    14461.316000       0.945975
    14482.259200       0.944784
    14503.263200       0.943591
    14524.328200       0.942396
    14545.454500       0.941200
    14566.642400       0.940004
    14587.892000       0.938807
    14609.203800       0.937609
    14630.577900       0.936413
    14652.014700       0.935217
    14673.514300       0.934022
    14695.077100       0.932829
    14716.703500       0.931638
    14738.393500       0.930449
    14760.147600       0.929262
    14781.966000       0.928079
    14803.849000       0.926899
    14825.796900       0.925723
    14847.809900       0.924551
    14869.888500       0.923384
    14892.032800       0.922222
    14914.243100       0.921064
    14936.519800       0.919913
    14958.863100       0.918767
    14981.273400       0.917628
    15003.750900       0.916495
    15026.296000       0.915369
    15048.909000       0.914250
    15071.590100       0.913139
    15094.339600       0.912036
    15117.158000       0.910941
    15140.045400       0.909855
    15163.002300       0.908777
    15186.028900       0.907709
    15209.125500       0.906650
    15232.292500       0.905600
    15255.530100       0.904561
    15278.838800       0.903532
    15302.218800       0.902513
    15325.670500       0.901505
    15349.194200       0.900509
    15372.790200       0.899523
    15396.458800       0.898549
    15420.200500       0.897587
    15444.015400       0.896636
    15467.904100       0.895698
    15491.866800       0.894773
    15515.903800       0.893860
    15540.015500       0.892960
    15564.202300       0.892073
    15588.464500       0.891199
    15612.802500       0.890338
    15637.216600       0.889491
    15661.707100       0.888658
    15686.274500       0.887839
    15710.919100       0.887034
    15735.641200       0.886243
    15760.441300       0.885466
    15785.319700       0.884704
    15810.276700       0.883956
    15835.312700       0.883223
    15860.428200       0.882505
    15885.623500       0.881801
    15910.899000       0.881113
    15936.255000       0.880439
    15961.691900       0.879781
    15987.210200       0.879138
    16012.810200       0.878510
    16038.492400       0.877897
    16064.257000       0.877300
    16090.104600       0.876718
    16116.035500       0.876151
    16142.050000       0.875600
    16168.148700       0.875064
    16194.332000       0.874543
    16220.600200       0.874037
    16246.953700       0.873547
    16273.393000       0.873072
    16299.918500       0.872612
    16326.530600       0.872167
    16353.229800       0.871737
    16380.016400       0.871322
    16406.890900       0.870921
    16433.853700       0.870536
    16460.905300       0.870165
    16488.046200       0.869808
    16515.276600       0.869466
    16542.597200       0.869138
    16570.008300       0.868825
    16597.510400       0.868525
    16625.103900       0.868238
    16652.789300       0.867966
    16680.567100       0.867706
    16708.437800       0.867460
    16736.401700       0.867227
    16764.459300       0.867006
    16792.611300       0.866797
    16820.857900       0.866601
    16849.199700       0.866417
    16877.637100       0.866245
    16906.170800       0.866083
    16934.801000       0.865933
    16963.528400       0.865794
    16992.353400       0.865665
    17021.276600       0.865546
    17050.298400       0.865437
    17079.419300       0.865338
    17108.639900       0.865247
    17137.960600       0.865166
    17167.382000       0.865092
    17196.904600       0.865027
    17226.528900       0.864969
    17256.255400       0.864918
    17286.084700       0.864874
