74,   74, MVIRI VIS channel from srf_MET5_2000168_2000169_1801-Release_S10EL_10.dat
Number of data points:
806
Wavenumber (cm-1)   Filter response
     8350.730700       0.000000
     8357.710000       0.000000
     8364.701000       0.000000
     8371.703600       0.000002
     8378.718100       0.000004
     8385.744200       0.000009
     8392.782200       0.000017
     8399.832000       0.000027
     8406.893700       0.000042
     8413.967200       0.000060
     8421.052600       0.000083
     8428.150000       0.000112
     8435.259400       0.000146
     8442.380800       0.000186
     8449.514200       0.000233
     8456.659600       0.000287
     8463.817200       0.000348
     8470.986900       0.000416
     8478.168700       0.000493
     8485.362700       0.000578
     8492.569000       0.000672
     8499.787500       0.000775
     8507.018300       0.000887
     8514.261400       0.001010
     8521.516800       0.001142
     8528.784600       0.001284
     8536.064900       0.001438
     8543.357500       0.001602
     8550.662700       0.001777
     8557.980300       0.001964
     8565.310500       0.002162
     8572.653200       0.002372
     8580.008600       0.002594
     8587.376600       0.002829
     8594.757200       0.003076
     8602.150500       0.003336
     8609.556600       0.003609
     8616.975400       0.003895
     8624.407100       0.004194
     8631.851500       0.004508
     8639.308900       0.004834
     8646.779100       0.005175
     8654.262200       0.005530
     8661.758300       0.005899
     8669.267400       0.006282
     8676.789600       0.006680
     8684.324800       0.007093
     8691.873100       0.007521
     8699.434500       0.007964
     8707.009100       0.008422
     8714.596900       0.008895
     8722.198000       0.009384
     8729.812300       0.009888
     8737.439900       0.010408
     8745.080900       0.010944
     8752.735200       0.011496
     8760.403000       0.012064
     8768.084200       0.012649
     8775.778900       0.013250
     8783.487000       0.013867
     8791.208800       0.014501
     8798.944100       0.015151
     8806.693100       0.015819
     8814.455700       0.016504
     8822.232000       0.017205
     8830.022100       0.017924
     8837.825900       0.018660
     8845.643500       0.019414
     8853.475000       0.020185
     8861.320300       0.020974
     8869.179600       0.021780
     8877.052800       0.022605
     8884.940000       0.023447
     8892.841300       0.024308
     8900.756600       0.025186
     8908.686000       0.026083
     8916.629500       0.026999
     8924.587200       0.027933
     8932.559200       0.028885
     8940.545400       0.029857
     8948.545900       0.030847
     8956.560700       0.031856
     8964.589900       0.032884
     8972.633500       0.033931
     8980.691500       0.034997
     8988.764000       0.036083
     8996.851100       0.037188
     9004.952700       0.038313
     9013.068900       0.039457
     9021.199800       0.040622
     9029.345400       0.041806
     9037.505600       0.043009
     9045.680700       0.044233
     9053.870500       0.045477
     9062.075200       0.046742
     9070.294800       0.048026
     9078.529300       0.049331
     9086.778700       0.050657
     9095.043200       0.052003
     9103.322700       0.053370
     9111.617300       0.054758
     9119.927000       0.056166
     9128.251900       0.057596
     9136.592100       0.059046
     9144.947400       0.060518
     9153.318100       0.062011
     9161.704100       0.063525
     9170.105500       0.065061
     9178.522300       0.066619
     9186.954500       0.068198
     9195.402300       0.069799
     9203.865600       0.071421
     9212.344500       0.073066
     9220.839100       0.074732
     9229.349300       0.076420
     9237.875300       0.078131
     9246.417000       0.079864
     9254.974500       0.081619
     9263.547900       0.083396
     9272.137200       0.085196
     9280.742500       0.087018
     9289.363700       0.088863
     9298.000900       0.090731
     9306.654300       0.092621
     9315.323700       0.094534
     9324.009300       0.096470
     9332.711200       0.098429
     9341.429200       0.100410
     9350.163600       0.102415
     9358.914400       0.104443
     9367.681500       0.106494
     9376.465100       0.108568
     9385.265100       0.110665
     9394.081700       0.112786
     9402.914900       0.114930
     9411.764700       0.117097
     9420.631200       0.119288
     9429.514400       0.121503
     9438.414300       0.123740
     9447.331100       0.126002
     9456.264800       0.128287
     9465.215300       0.130595
     9474.182900       0.132927
     9483.167400       0.135283
     9492.169000       0.137662
     9501.187600       0.140066
     9510.223500       0.142492
     9519.276500       0.144943
     9528.346800       0.147417
     9537.434400       0.149915
     9546.539400       0.152437
     9555.661700       0.154982
     9564.801500       0.157551
     9573.958800       0.160144
     9583.133700       0.162761
     9592.326100       0.165401
     9601.536200       0.168065
     9610.764100       0.170752
     9620.009600       0.173464
     9629.273000       0.176198
     9638.554200       0.178957
     9647.853400       0.181739
     9657.170400       0.184544
     9666.505600       0.187373
     9675.858700       0.190225
     9685.230000       0.193101
     9694.619500       0.196000
     9704.027200       0.198922
     9713.453100       0.201867
     9722.897400       0.204836
     9732.360100       0.207827
     9741.841200       0.210842
     9751.340800       0.213879
     9760.859000       0.216939
     9770.395700       0.220022
     9779.951100       0.223128
     9789.525200       0.226256
     9799.118100       0.229407
     9808.729800       0.232580
     9818.360300       0.235775
     9828.009800       0.238992
     9837.678300       0.242232
     9847.365800       0.245493
     9857.072400       0.248776
     9866.798200       0.252081
     9876.543200       0.255407
     9886.307500       0.258755
     9896.091000       0.262124
     9905.894000       0.265514
     9915.716400       0.268926
     9925.558300       0.272357
     9935.419800       0.275810
     9945.300800       0.279283
     9955.201600       0.282776
     9965.122100       0.286290
     9975.062300       0.289824
     9985.022500       0.293377
     9995.002500       0.296951
    10005.002500       0.300543
    10015.022500       0.304155
    10025.062700       0.307786
    10035.122900       0.311436
    10045.203400       0.315104
    10055.304200       0.318791
    10065.425300       0.322497
    10075.566800       0.326220
    10085.728700       0.329961
    10095.911200       0.333720
    10106.114200       0.337496
    10116.337900       0.341289
    10126.582300       0.345099
    10136.847400       0.348926
    10147.133400       0.352770
    10157.440300       0.356629
    10167.768200       0.360504
    10178.117000       0.364395
    10188.487000       0.368302
    10198.878100       0.372224
    10209.290500       0.376160
    10219.724100       0.380111
    10230.179000       0.384077
    10240.655400       0.388057
    10251.153300       0.392050
    10261.672700       0.396057
    10272.213700       0.400077
    10282.776300       0.404110
    10293.360800       0.408156
    10303.967000       0.412214
    10314.595200       0.416284
    10325.245200       0.420365
    10335.917300       0.424459
    10346.611500       0.428563
    10357.327800       0.432678
    10368.066400       0.436803
    10378.827200       0.440938
    10389.610400       0.445084
    10400.416000       0.449239
    10411.244100       0.453403
    10422.094800       0.457575
    10432.968200       0.461756
    10443.864200       0.465946
    10454.783100       0.470143
    10465.724800       0.474347
    10476.689400       0.478559
    10487.677000       0.482777
    10498.687700       0.487002
    10509.721500       0.491233
    10520.778500       0.495469
    10531.858900       0.499710
    10542.962600       0.503957
    10554.089700       0.508208
    10565.240400       0.512463
    10576.414600       0.516722
    10587.612500       0.520985
    10598.834100       0.525251
    10610.079600       0.529519
    10621.348900       0.533789
    10632.642200       0.538062
    10643.959600       0.542336
    10655.301000       0.546611
    10666.666700       0.550887
    10678.056600       0.555163
    10689.470900       0.559439
    10700.909600       0.563715
    10712.372800       0.567990
    10723.860600       0.572264
    10735.373100       0.576536
    10746.910300       0.580806
    10758.472300       0.585074
    10770.059200       0.589339
    10781.671200       0.593601
    10793.308100       0.597859
    10804.970300       0.602113
    10816.657700       0.606363
    10828.370300       0.610608
    10840.108400       0.614848
    10851.871900       0.619082
    10863.661100       0.623310
    10875.475800       0.627532
    10887.316300       0.631747
    10899.182600       0.635955
    10911.074700       0.640155
    10922.992900       0.644347
    10934.937100       0.648530
    10946.907500       0.652705
    10958.904100       0.656870
    10970.927000       0.661026
    10982.976400       0.665172
    10995.052200       0.669307
    11007.154700       0.673432
    11019.283700       0.677545
    11031.439600       0.681646
    11043.622300       0.685735
    11055.832000       0.689812
    11068.068600       0.693876
    11080.332400       0.697927
    11092.623400       0.701964
    11104.941700       0.705987
    11117.287400       0.709995
    11129.660500       0.713989
    11142.061300       0.717967
    11154.489700       0.721930
    11166.945800       0.725877
    11179.429800       0.729807
    11191.941800       0.733721
    11204.481800       0.737617
    11217.049900       0.741496
    11229.646300       0.745356
    11242.270900       0.749199
    11254.924000       0.753023
    11267.605600       0.756827
    11280.315800       0.760612
    11293.054800       0.764378
    11305.822500       0.768123
    11318.619100       0.771848
    11331.444800       0.775552
    11344.299500       0.779234
    11357.183400       0.782895
    11370.096600       0.786534
    11383.039300       0.790151
    11396.011400       0.793745
    11409.013100       0.797316
    11422.044500       0.800863
    11435.105800       0.804387
    11448.196900       0.807887
    11461.318100       0.811363
    11474.469300       0.814814
    11487.650800       0.818239
    11500.862600       0.821640
    11514.104800       0.825015
    11527.377500       0.828364
    11540.680900       0.831687
    11554.015000       0.834983
    11567.380000       0.838253
    11580.775900       0.841495
    11594.202900       0.844710
    11607.661100       0.847897
    11621.150500       0.851056
    11634.671300       0.854186
    11648.223600       0.857288
    11661.807600       0.860362
    11675.423200       0.863406
    11689.070700       0.866421
    11702.750100       0.869406
    11716.461600       0.872361
    11730.205300       0.875286
    11743.981200       0.878181
    11757.789500       0.881045
    11771.630400       0.883878
    11785.503800       0.886681
    11799.410000       0.889451
    11813.349100       0.892191
    11827.321100       0.894899
    11841.326200       0.897574
    11855.364600       0.900218
    11869.436200       0.902829
    11883.541300       0.905407
    11897.680000       0.907953
    11911.852300       0.910466
    11926.058400       0.912946
    11940.298500       0.915393
    11954.572600       0.917806
    11968.880900       0.920185
    11983.223500       0.922531
    11997.600500       0.924843
    12012.012000       0.927121
    12026.458200       0.929364
    12040.939200       0.931573
    12055.455100       0.933748
    12070.006000       0.935889
    12084.592100       0.937994
    12099.213600       0.940065
    12113.870400       0.942101
    12128.562800       0.944101
    12143.290800       0.946067
    12158.054700       0.947998
    12172.854500       0.949893
    12187.690400       0.951753
    12202.562500       0.953577
    12217.471000       0.955366
    12232.415900       0.957120
    12247.397400       0.958837
    12262.415700       0.960520
    12277.470800       0.962166
    12292.563000       0.963777
    12307.692300       0.965352
    12322.858900       0.966892
    12338.062900       0.968395
    12353.304500       0.969863
    12368.583800       0.971295
    12383.900900       0.972691
    12399.256000       0.974052
    12414.649300       0.975376
    12430.080800       0.976665
    12445.550700       0.977919
    12461.059200       0.979136
    12476.606400       0.980318
    12492.192400       0.981465
    12507.817400       0.982576
    12523.481500       0.983651
    12539.185000       0.984691
    12554.927800       0.985695
    12570.710200       0.986665
    12586.532400       0.987599
    12602.394500       0.988498
    12618.296500       0.989362
    12634.238800       0.990192
    12650.221400       0.990986
    12666.244500       0.991746
    12682.308200       0.992471
    12698.412700       0.993162
    12714.558200       0.993818
    12730.744700       0.994441
    12746.972600       0.995029
    12763.241900       0.995584
    12779.552700       0.996104
    12795.905300       0.996592
    12812.299800       0.997045
    12828.736400       0.997466
    12845.215200       0.997854
    12861.736300       0.998208
    12878.300100       0.998530
    12894.906500       0.998820
    12911.555800       0.999077
    12928.248200       0.999302
    12944.983800       0.999496
    12961.762800       0.999658
    12978.585300       0.999788
    12995.451600       0.999887
    13012.361700       0.999955
    13029.316000       0.999993
    13046.314400       1.000000
    13063.357300       0.999977
    13080.444700       0.999924
    13097.576900       0.999841
    13114.754100       0.999729
    13131.976400       0.999587
    13149.243900       0.999417
    13166.556900       0.999218
    13183.915600       0.998990
    13201.320100       0.998735
    13218.770700       0.998452
    13236.267400       0.998141
    13253.810500       0.997803
    13271.400100       0.997439
    13289.036500       0.997047
    13306.719900       0.996630
    13324.450400       0.996187
    13342.228200       0.995718
    13360.053400       0.995223
    13377.926400       0.994704
    13395.847300       0.994160
    13413.816200       0.993592
    13431.833400       0.993001
    13449.899100       0.992385
    13468.013500       0.991746
    13486.176700       0.991085
    13504.388900       0.990401
    13522.650400       0.989694
    13540.961400       0.988966
    13559.322000       0.988217
    13577.732500       0.987446
    13596.193100       0.986655
    13614.703900       0.985844
    13633.265200       0.985012
    13651.877100       0.984161
    13670.540000       0.983291
    13689.253900       0.982402
    13708.019200       0.981495
    13726.836000       0.980570
    13745.704500       0.979627
    13764.624900       0.978667
    13783.597500       0.977690
    13802.622500       0.976697
    13821.700100       0.975688
    13840.830400       0.974663
    13860.013900       0.973623
    13879.250500       0.972568
    13898.540700       0.971499
    13917.884500       0.970416
    13937.282200       0.969319
    13956.734100       0.968209
    13976.240400       0.967087
    13995.801300       0.965952
    14015.417000       0.964805
    14035.087700       0.963647
    14054.813800       0.962478
    14074.595400       0.961298
    14094.432700       0.960108
    14114.326000       0.958908
    14134.275600       0.957699
    14154.281700       0.956481
    14174.344400       0.955254
    14194.464200       0.954019
    14214.641100       0.952777
    14234.875400       0.951527
    14255.167500       0.950270
    14275.517500       0.949007
    14295.925700       0.947738
    14316.392300       0.946463
    14336.917600       0.945184
    14357.501800       0.943899
    14378.145200       0.942610
    14398.848100       0.941317
    14419.610700       0.940020
    14440.433200       0.938721
    14461.316000       0.937418
    14482.259200       0.936113
    14503.263200       0.934807
    14524.328200       0.933499
    14545.454500       0.932189
    14566.642400       0.930879
    14587.892000       0.929569
    14609.203800       0.928259
    14630.577900       0.926949
    14652.014700       0.925640
    14673.514300       0.924333
    14695.077100       0.923026
    14716.703500       0.921722
    14738.393500       0.920421
    14760.147600       0.919122
    14781.966000       0.917826
    14803.849000       0.916534
    14825.796900       0.915245
    14847.809900       0.913961
    14869.888500       0.912681
    14892.032800       0.911407
    14914.243100       0.910137
    14936.519800       0.908873
    14958.863100       0.907615
    14981.273400       0.906364
    15003.750900       0.905119
    15026.296000       0.903880
    15048.909000       0.902650
    15071.590100       0.901426
    15094.339600       0.900211
    15117.158000       0.899004
    15140.045400       0.897805
    15163.002300       0.896615
    15186.028900       0.895434
    15209.125500       0.894262
    15232.292500       0.893100
    15255.530100       0.891948
    15278.838800       0.890807
    15302.218800       0.889675
    15325.670500       0.888554
    15349.194200       0.887444
    15372.790200       0.886346
    15396.458800       0.885259
    15420.200500       0.884183
    15444.015400       0.883119
    15467.904100       0.882067
    15491.866800       0.881028
    15515.903800       0.880001
    15540.015500       0.878987
    15564.202300       0.877985
    15588.464500       0.876997
    15612.802500       0.876022
    15637.216600       0.875060
    15661.707100       0.874112
    15686.274500       0.873177
    15710.919100       0.872256
    15735.641200       0.871349
    15760.441300       0.870457
    15785.319700       0.869578
    15810.276700       0.868714
    15835.312700       0.867864
    15860.428200       0.867029
    15885.623500       0.866208
    15910.899000       0.865402
    15936.255000       0.864611
    15961.691900       0.863834
    15987.210200       0.863072
    16012.810200       0.862325
    16038.492400       0.861594
    16064.257000       0.860877
    16090.104600       0.860175
    16116.035500       0.859488
    16142.050000       0.858815
    16168.148700       0.858158
    16194.332000       0.857516
    16220.600200       0.856889
    16246.953700       0.856276
    16273.393000       0.855679
    16299.918500       0.855096
    16326.530600       0.854527
    16353.229800       0.853974
    16380.016400       0.853434
    16406.890900       0.852910
    16433.853700       0.852399
    16460.905300       0.851903
    16488.046200       0.851421
    16515.276600       0.850952
    16542.597200       0.850498
    16570.008300       0.850057
    16597.510400       0.849629
    16625.103900       0.849215
    16652.789300       0.848814
    16680.567100       0.848425
    16708.437800       0.848050
    16736.401700       0.847686
    16764.459300       0.847335
    16792.611300       0.846996
    16820.857900       0.846669
    16849.199700       0.846353
    16877.637100       0.846048
    16906.170800       0.845755
    16934.801000       0.845471
    16963.528400       0.845199
    16992.353400       0.844936
    17021.276600       0.844683
    17050.298400       0.844439
    17079.419300       0.844204
    17108.639900       0.843978
    17137.960600       0.843760
    17167.382000       0.843550
    17196.904600       0.843348
    17226.528900       0.843153
    17256.255400       0.842964
    17286.084700       0.842782
