   9  ,metop_02_hirs_09.flt
Number of data points:
644
Wavenumber (cm-1)   Filter response
      996.330000       0.000000
      996.430000       0.003613
      996.530000       0.003726
      996.630000       0.003846
      996.730000       0.003974
      996.830000       0.004110
      996.930000       0.004254
      997.030000       0.004407
      997.130000       0.004568
      997.230000       0.004737
      997.330000       0.004912
      997.430000       0.005095
      997.530000       0.005283
      997.630000       0.005476
      997.730000       0.005674
      997.830000       0.005875
      997.930000       0.006077
      998.030000       0.006281
      998.130000       0.006485
      998.230000       0.006687
      998.330000       0.006888
      998.430000       0.007085
      998.530000       0.007279
      998.630000       0.007467
      998.730000       0.007650
      998.830000       0.007826
      998.930000       0.007994
      999.030000       0.008153
      999.130000       0.008304
      999.230000       0.008445
      999.330000       0.008576
      999.430000       0.008696
      999.530000       0.008806
      999.630000       0.008904
      999.730000       0.008990
      999.830000       0.009065
      999.930000       0.009128
     1000.000000       0.009178
     1000.100000       0.009217
     1000.200000       0.009244
     1000.300000       0.009260
     1000.400000       0.009266
     1000.500000       0.009261
     1000.600000       0.009248
     1000.700000       0.009226
     1000.800000       0.009196
     1000.900000       0.009159
     1001.000000       0.009116
     1001.100000       0.009068
     1001.200000       0.009017
     1001.300000       0.008962
     1001.400000       0.008907
     1001.500000       0.008851
     1001.600000       0.008795
     1001.700000       0.008742
     1001.800000       0.008692
     1001.900000       0.008647
     1002.000000       0.008608
     1002.100000       0.008577
     1002.200000       0.008554
     1002.300000       0.008540
     1002.400000       0.008536
     1002.500000       0.008544
     1002.600000       0.008564
     1002.700000       0.008597
     1002.800000       0.008644
     1002.900000       0.008705
     1003.000000       0.008781
     1003.100000       0.008873
     1003.200000       0.008980
     1003.300000       0.009105
     1003.400000       0.009246
     1003.500000       0.009404
     1003.600000       0.009580
     1003.700000       0.009775
     1003.800000       0.009987
     1003.900000       0.010218
     1004.000000       0.010469
     1004.100000       0.010739
     1004.200000       0.011029
     1004.300000       0.011338
     1004.400000       0.011564
     1004.500000       0.011913
     1004.600000       0.012284
     1004.700000       0.012677
     1004.800000       0.013092
     1004.900000       0.013528
     1005.000000       0.013987
     1005.100000       0.014468
     1005.200000       0.014972
     1005.300000       0.015497
     1005.400000       0.016045
     1005.500000       0.016614
     1005.600000       0.017205
     1005.700000       0.017816
     1005.800000       0.018448
     1005.900000       0.019099
     1006.000000       0.019771
     1006.100000       0.020463
     1006.200000       0.021173
     1006.300000       0.021900
     1006.400000       0.022643
     1006.500000       0.023402
     1006.600000       0.024175
     1006.700000       0.024962
     1006.800000       0.025761
     1006.900000       0.026573
     1007.000000       0.027395
     1007.100000       0.028229
     1007.200000       0.029071
     1007.300000       0.029923
     1007.400000       0.030784
     1007.500000       0.031652
     1007.600000       0.032528
     1007.700000       0.033411
     1007.800000       0.034302
     1007.900000       0.035200
     1008.000000       0.036103
     1008.100000       0.037012
     1008.200000       0.037928
     1008.300000       0.038853
     1008.400000       0.039786
     1008.500000       0.040729
     1008.600000       0.041683
     1008.700000       0.042649
     1008.800000       0.043629
     1008.900000       0.044623
     1009.000000       0.045635
     1009.100000       0.046666
     1009.200000       0.047717
     1009.300000       0.048792
     1009.400000       0.049892
     1009.500000       0.051021
     1009.600000       0.052182
     1009.700000       0.053376
     1009.800000       0.054609
     1009.900000       0.055882
     1010.000000       0.057200
     1010.100000       0.058567
     1010.200000       0.059986
     1010.300000       0.061461
     1010.400000       0.062997
     1010.500000       0.064597
     1010.600000       0.066267
     1010.700000       0.068011
     1010.800000       0.069832
     1010.900000       0.071735
     1011.000000       0.073727
     1011.100000       0.075812
     1011.200000       0.077995
     1011.300000       0.080280
     1011.400000       0.082673
     1011.500000       0.085179
     1011.600000       0.087803
     1011.700000       0.090550
     1011.800000       0.093424
     1011.900000       0.096431
     1012.000000       0.099574
     1012.100000       0.102850
     1012.200000       0.106280
     1012.300000       0.109860
     1012.400000       0.113590
     1012.500000       0.117480
     1012.600000       0.121540
     1012.700000       0.125770
     1012.800000       0.130170
     1012.900000       0.134740
     1013.000000       0.139500
     1013.100000       0.144440
     1013.200000       0.149570
     1013.300000       0.154880
     1013.400000       0.160390
     1013.500000       0.166080
     1013.600000       0.171980
     1013.700000       0.178070
     1013.800000       0.184360
     1013.900000       0.190850
     1014.000000       0.197530
     1014.100000       0.204390
     1014.200000       0.211450
     1014.300000       0.218700
     1014.400000       0.226150
     1014.500000       0.233790
     1014.600000       0.241640
     1014.700000       0.249680
     1014.800000       0.257920
     1014.900000       0.266350
     1015.000000       0.274950
     1015.100000       0.283750
     1015.200000       0.292710
     1015.300000       0.301860
     1015.400000       0.311170
     1015.500000       0.320640
     1015.600000       0.330280
     1015.700000       0.340070
     1015.800000       0.350000
     1015.900000       0.360080
     1016.000000       0.370310
     1016.100000       0.380690
     1016.200000       0.391210
     1016.300000       0.401840
     1016.400000       0.412580
     1016.500000       0.423420
     1016.600000       0.434360
     1016.700000       0.445400
     1016.800000       0.456520
     1016.900000       0.467700
     1017.000000       0.478940
     1017.100000       0.490240
     1017.200000       0.501580
     1017.300000       0.512950
     1017.400000       0.524350
     1017.500000       0.535760
     1017.600000       0.547180
     1017.700000       0.558590
     1017.800000       0.570000
     1017.900000       0.581380
     1018.000000       0.592700
     1018.100000       0.603940
     1018.200000       0.615120
     1018.300000       0.626240
     1018.400000       0.637300
     1018.500000       0.648280
     1018.600000       0.659190
     1018.700000       0.670000
     1018.800000       0.680720
     1018.900000       0.691320
     1019.000000       0.701800
     1019.100000       0.712160
     1019.200000       0.722380
     1019.300000       0.732460
     1019.400000       0.742400
     1019.500000       0.752180
     1019.600000       0.761800
     1019.700000       0.771260
     1019.800000       0.780550
     1019.900000       0.789660
     1020.000000       0.798550
     1020.100000       0.807170
     1020.200000       0.815590
     1020.300000       0.823820
     1020.400000       0.831860
     1020.500000       0.839710
     1020.600000       0.847360
     1020.700000       0.854800
     1020.800000       0.862040
     1020.900000       0.869060
     1021.000000       0.875880
     1021.100000       0.882490
     1021.200000       0.888880
     1021.300000       0.895060
     1021.400000       0.901030
     1021.500000       0.906780
     1021.600000       0.912320
     1021.700000       0.917650
     1021.800000       0.922770
     1021.900000       0.927690
     1022.000000       0.932440
     1022.100000       0.937130
     1022.200000       0.941610
     1022.300000       0.945890
     1022.400000       0.949990
     1022.500000       0.953900
     1022.600000       0.957630
     1022.700000       0.961170
     1022.800000       0.964520
     1022.900000       0.967700
     1023.000000       0.970700
     1023.100000       0.973530
     1023.200000       0.976190
     1023.300000       0.978690
     1023.400000       0.981030
     1023.500000       0.983220
     1023.600000       0.985260
     1023.700000       0.987150
     1023.800000       0.988910
     1023.900000       0.990530
     1024.000000       0.991990
     1024.100000       0.993240
     1024.200000       0.994370
     1024.300000       0.995370
     1024.400000       0.996260
     1024.500000       0.997040
     1024.600000       0.997720
     1024.700000       0.998300
     1024.800000       0.998790
     1024.900000       0.999180
     1025.000000       0.999500
     1025.100000       0.999730
     1025.200000       0.999890
     1025.300000       0.999980
     1025.400000       1.000000
     1025.500000       0.999960
     1025.600000       0.999860
     1025.700000       0.999700
     1025.800000       0.999490
     1025.900000       0.999230
     1026.000000       0.998880
     1026.100000       0.998410
     1026.200000       0.997900
     1026.300000       0.997370
     1026.400000       0.996810
     1026.500000       0.996210
     1026.600000       0.995590
     1026.700000       0.994940
     1026.800000       0.994260
     1026.900000       0.993570
     1027.000000       0.992860
     1027.100000       0.992130
     1027.200000       0.991390
     1027.300000       0.990640
     1027.400000       0.989870
     1027.500000       0.989090
     1027.600000       0.988300
     1027.700000       0.987500
     1027.800000       0.986700
     1027.900000       0.985880
     1028.000000       0.985080
     1028.100000       0.984330
     1028.200000       0.983590
     1028.300000       0.982850
     1028.400000       0.982100
     1028.500000       0.981340
     1028.600000       0.980590
     1028.700000       0.979820
     1028.800000       0.979050
     1028.900000       0.978280
     1029.000000       0.977500
     1029.100000       0.976720
     1029.200000       0.975930
     1029.300000       0.975130
     1029.400000       0.974330
     1029.500000       0.973520
     1029.600000       0.972700
     1029.700000       0.971870
     1029.800000       0.971030
     1029.900000       0.970180
     1030.000000       0.969360
     1030.100000       0.968630
     1030.200000       0.967890
     1030.300000       0.967130
     1030.400000       0.966350
     1030.500000       0.965550
     1030.600000       0.964730
     1030.700000       0.963890
     1030.800000       0.963030
     1030.900000       0.962140
     1031.000000       0.961220
     1031.100000       0.960270
     1031.200000       0.959290
     1031.300000       0.958280
     1031.400000       0.957230
     1031.500000       0.956140
     1031.600000       0.955010
     1031.700000       0.953830
     1031.800000       0.952610
     1031.900000       0.951340
     1032.000000       0.949980
     1032.100000       0.948460
     1032.200000       0.946880
     1032.300000       0.945250
     1032.400000       0.943550
     1032.500000       0.941790
     1032.600000       0.939960
     1032.700000       0.938050
     1032.800000       0.936080
     1032.900000       0.934020
     1033.000000       0.931890
     1033.100000       0.929670
     1033.200000       0.927360
     1033.300000       0.924970
     1033.400000       0.922480
     1033.500000       0.919890
     1033.600000       0.917210
     1033.700000       0.914430
     1033.800000       0.911540
     1033.900000       0.908550
     1034.000000       0.905400
     1034.100000       0.901980
     1034.200000       0.898440
     1034.300000       0.894780
     1034.400000       0.891000
     1034.500000       0.887090
     1034.600000       0.883060
     1034.700000       0.878900
     1034.800000       0.874610
     1034.900000       0.870190
     1035.000000       0.865630
     1035.100000       0.860930
     1035.200000       0.856100
     1035.300000       0.851120
     1035.400000       0.846000
     1035.500000       0.840740
     1035.600000       0.835330
     1035.700000       0.829780
     1035.800000       0.824090
     1035.900000       0.818240
     1036.000000       0.812320
     1036.100000       0.806430
     1036.200000       0.800390
     1036.300000       0.794210
     1036.400000       0.787870
     1036.500000       0.781390
     1036.600000       0.774750
     1036.700000       0.767980
     1036.800000       0.761050
     1036.900000       0.753980
     1037.000000       0.746770
     1037.100000       0.739420
     1037.200000       0.731930
     1037.300000       0.724300
     1037.400000       0.716550
     1037.500000       0.708660
     1037.600000       0.700650
     1037.700000       0.692510
     1037.800000       0.684260
     1037.900000       0.675900
     1038.000000       0.667430
     1038.100000       0.658890
     1038.200000       0.650250
     1038.300000       0.641520
     1038.400000       0.632690
     1038.500000       0.623770
     1038.600000       0.614770
     1038.700000       0.605690
     1038.800000       0.596540
     1038.900000       0.587330
     1039.000000       0.578060
     1039.100000       0.568730
     1039.200000       0.559350
     1039.300000       0.549930
     1039.400000       0.540480
     1039.500000       0.531000
     1039.600000       0.521500
     1039.700000       0.511990
     1039.800000       0.502470
     1039.900000       0.492950
     1040.000000       0.483400
     1040.100000       0.473810
     1040.200000       0.464240
     1040.300000       0.454690
     1040.400000       0.445180
     1040.500000       0.435720
     1040.600000       0.426300
     1040.700000       0.416930
     1040.800000       0.407620
     1040.900000       0.398380
     1041.000000       0.389220
     1041.100000       0.380130
     1041.200000       0.371130
     1041.300000       0.362210
     1041.400000       0.353390
     1041.500000       0.344670
     1041.600000       0.336050
     1041.700000       0.327550
     1041.800000       0.319160
     1041.900000       0.310880
     1042.000000       0.302720
     1042.100000       0.294660
     1042.200000       0.286730
     1042.300000       0.278930
     1042.400000       0.271270
     1042.500000       0.263750
     1042.600000       0.256380
     1042.700000       0.249140
     1042.800000       0.242050
     1042.900000       0.235110
     1043.000000       0.228320
     1043.100000       0.221680
     1043.200000       0.215190
     1043.300000       0.208860
     1043.400000       0.202670
     1043.500000       0.196640
     1043.600000       0.190760
     1043.700000       0.185030
     1043.800000       0.179450
     1043.900000       0.174030
     1044.000000       0.168760
     1044.100000       0.163640
     1044.200000       0.158670
     1044.300000       0.153850
     1044.400000       0.149170
     1044.500000       0.144640
     1044.600000       0.140240
     1044.700000       0.135980
     1044.800000       0.131860
     1044.900000       0.127870
     1045.000000       0.124010
     1045.100000       0.120270
     1045.200000       0.116660
     1045.300000       0.113180
     1045.400000       0.109810
     1045.500000       0.106550
     1045.600000       0.103410
     1045.700000       0.100380
     1045.800000       0.097454
     1045.900000       0.094630
     1046.000000       0.091912
     1046.100000       0.089306
     1046.200000       0.086791
     1046.300000       0.084363
     1046.400000       0.082019
     1046.500000       0.079755
     1046.600000       0.077569
     1046.700000       0.075457
     1046.800000       0.073416
     1046.900000       0.071443
     1047.000000       0.069535
     1047.100000       0.067689
     1047.200000       0.065901
     1047.300000       0.064170
     1047.400000       0.062492
     1047.500000       0.060867
     1047.600000       0.059288
     1047.700000       0.057755
     1047.800000       0.056265
     1047.900000       0.054815
     1048.000000       0.053401
     1048.100000       0.052018
     1048.200000       0.050669
     1048.300000       0.049506
     1048.400000       0.048212
     1048.500000       0.046947
     1048.600000       0.045711
     1048.700000       0.044502
     1048.800000       0.043318
     1048.900000       0.042159
     1049.000000       0.041022
     1049.100000       0.039908
     1049.200000       0.038815
     1049.300000       0.037743
     1049.400000       0.036690
     1049.500000       0.035656
     1049.600000       0.034642
     1049.700000       0.033646
     1049.800000       0.032667
     1049.900000       0.031707
     1050.000000       0.030763
     1050.100000       0.029834
     1050.200000       0.028923
     1050.300000       0.028030
     1050.400000       0.027154
     1050.500000       0.026296
     1050.600000       0.025457
     1050.700000       0.024635
     1050.800000       0.023832
     1050.900000       0.023047
     1051.000000       0.022282
     1051.100000       0.021534
     1051.200000       0.020806
     1051.300000       0.020097
     1051.400000       0.019408
     1051.500000       0.018737
     1051.600000       0.018087
     1051.700000       0.017456
     1051.800000       0.016844
     1051.900000       0.016252
     1052.000000       0.015681
     1052.100000       0.015129
     1052.200000       0.014597
     1052.300000       0.014084
     1052.400000       0.013590
     1052.500000       0.013114
     1052.600000       0.012656
     1052.700000       0.012216
     1052.800000       0.011794
     1052.900000       0.011388
     1053.000000       0.011000
     1053.100000       0.010628
     1053.200000       0.010271
     1053.300000       0.009931
     1053.400000       0.009606
     1053.500000       0.009296
     1053.600000       0.009000
     1053.700000       0.008719
     1053.800000       0.008452
     1053.900000       0.008198
     1054.000000       0.007958
     1054.100000       0.007730
     1054.200000       0.007515
     1054.300000       0.007314
     1054.400000       0.007124
     1054.500000       0.006948
     1054.600000       0.006784
     1054.700000       0.006632
     1054.800000       0.006491
     1054.900000       0.006361
     1055.000000       0.006243
     1055.100000       0.006135
     1055.200000       0.006037
     1055.300000       0.005948
     1055.400000       0.005868
     1055.500000       0.005796
     1055.600000       0.005730
     1055.700000       0.005672
     1055.800000       0.005618
     1055.900000       0.005569
     1056.000000       0.005524
     1056.100000       0.005482
     1056.200000       0.005441
     1056.300000       0.005402
     1056.400000       0.005362
     1056.500000       0.005322
     1056.600000       0.005279
     1056.700000       0.005235
     1056.800000       0.005187
     1056.900000       0.005135
     1057.000000       0.005079
     1057.100000       0.005019
     1057.200000       0.004953
     1057.300000       0.004882
     1057.400000       0.004805
     1057.500000       0.004722
     1057.600000       0.004634
     1057.700000       0.004539
     1057.800000       0.004439
     1057.900000       0.004334
     1058.000000       0.004223
     1058.100000       0.004108
     1058.200000       0.003988
     1058.300000       0.003864
     1058.400000       0.003737
