06, goes_14_sounder_06.flt  GOESO_sdr_operational_srf_rev_F
Number of data points:
623
Wavenumber (cm-1)   Filter response
      752.000000       0.000251
      752.100000       0.000515
      752.200000       0.000531
      752.300000       0.001074
      752.400000       0.001105
      752.500000       0.001137
      752.600000       0.001169
      752.700000       0.001201
      752.800000       0.001233
      752.900000       0.001266
      753.000000       0.001299
      753.100000       0.001332
      753.200000       0.001365
      753.300000       0.001397
      753.400000       0.001429
      753.500000       0.001459
      753.600000       0.001488
      753.700000       0.001515
      753.800000       0.001540
      753.900000       0.001563
      754.000000       0.001584
      754.100000       0.001603
      754.200000       0.001620
      754.300000       0.001635
      754.400000       0.001648
      754.500000       0.001659
      754.600000       0.001668
      754.700000       0.001676
      754.800000       0.001683
      754.900000       0.001688
      755.000000       0.001691
      755.100000       0.001693
      755.200000       0.001694
      755.300000       0.001694
      755.400000       0.001693
      755.500000       0.001691
      755.600000       0.001688
      755.700000       0.001683
      755.800000       0.001679
      755.900000       0.001674
      756.000000       0.001668
      756.100000       0.001662
      756.200000       0.001657
      756.300000       0.001651
      756.400000       0.001646
      756.500000       0.001642
      756.600000       0.001638
      756.700000       0.001635
      756.800000       0.001633
      756.900000       0.001633
      757.000000       0.001634
      757.100000       0.001636
      757.200000       0.001641
      757.300000       0.001647
      757.400000       0.001656
      757.500000       0.001667
      757.600000       0.001680
      757.700000       0.001696
      757.800000       0.001715
      757.900000       0.001738
      758.000000       0.001763
      758.100000       0.001792
      758.200000       0.001822
      758.300000       0.001854
      758.400000       0.001887
      758.500000       0.001920
      758.600000       0.001952
      758.700000       0.001982
      758.800000       0.002011
      758.900000       0.002036
      759.000000       0.002058
      759.100000       0.002076
      759.200000       0.002092
      759.300000       0.002106
      759.400000       0.002119
      759.500000       0.002130
      759.600000       0.002141
      759.700000       0.002152
      759.800000       0.002164
      759.900000       0.002176
      760.000000       0.002191
      760.100000       0.002207
      760.200000       0.002226
      760.300000       0.002248
      760.400000       0.002274
      760.500000       0.002302
      760.600000       0.002333
      760.700000       0.002365
      760.800000       0.002398
      760.900000       0.002431
      761.000000       0.002463
      761.100000       0.002494
      761.200000       0.002524
      761.300000       0.002550
      761.400000       0.002574
      761.500000       0.002595
      761.600000       0.002617
      761.700000       0.002643
      761.800000       0.002674
      761.900000       0.002715
      762.000000       0.002766
      762.100000       0.002831
      762.200000       0.002913
      762.300000       0.003012
      762.400000       0.003124
      762.500000       0.003247
      762.600000       0.003377
      762.700000       0.003512
      762.800000       0.003647
      762.900000       0.003781
      763.000000       0.003913
      763.100000       0.004040
      763.200000       0.004159
      763.300000       0.004271
      763.400000       0.004375
      763.500000       0.004471
      763.600000       0.004560
      763.700000       0.004641
      763.800000       0.004715
      763.900000       0.004791
      764.000000       0.004896
      764.100000       0.005065
      764.200000       0.005329
      764.300000       0.005689
      764.400000       0.006096
      764.500000       0.006493
      764.600000       0.006844
      764.700000       0.008085
      764.800000       0.009089
      764.900000       0.010090
      765.000000       0.010993
      765.100000       0.011808
      765.200000       0.012517
      765.300000       0.013117
      765.400000       0.013601
      765.500000       0.013968
      765.600000       0.014222
      765.700000       0.014364
      765.800000       0.014402
      765.900000       0.014345
      766.000000       0.014201
      766.100000       0.013985
      766.200000       0.013708
      766.300000       0.013386
      766.400000       0.013032
      766.500000       0.012662
      766.600000       0.012291
      766.700000       0.011934
      766.800000       0.011606
      766.900000       0.011321
      767.000000       0.011094
      767.100000       0.010938
      767.200000       0.010865
      767.300000       0.010887
      767.400000       0.011016
      767.500000       0.011263
      767.600000       0.011639
      767.700000       0.012152
      767.800000       0.012811
      767.900000       0.013624
      768.000000       0.014597
      768.100000       0.015738
      768.200000       0.017052
      768.300000       0.018542
      768.400000       0.020211
      768.500000       0.022061
      768.600000       0.024096
      768.700000       0.026314
      768.800000       0.028715
      768.900000       0.031298
      769.000000       0.034059
      769.100000       0.037001
      769.200000       0.040118
      769.300000       0.043409
      769.400000       0.046875
      769.500000       0.050507
      769.600000       0.054314
      769.700000       0.058295
      769.800000       0.062446
      769.900000       0.066782
      770.000000       0.071303
      770.100000       0.076019
      770.200000       0.080940
      770.300000       0.086075
      770.400000       0.091443
      770.500000       0.097063
      770.600000       0.102954
      770.700000       0.109132
      770.800000       0.115615
      770.900000       0.122431
      771.000000       0.129610
      771.100000       0.137174
      771.200000       0.145148
      771.300000       0.153564
      771.400000       0.162437
      771.500000       0.171802
      771.600000       0.181692
      771.700000       0.192124
      771.800000       0.203122
      771.900000       0.214714
      772.000000       0.226903
      772.100000       0.239730
      772.200000       0.253200
      772.300000       0.267323
      772.400000       0.282117
      772.500000       0.297566
      772.600000       0.313697
      772.700000       0.330493
      772.800000       0.347924
      772.900000       0.366004
      773.000000       0.384694
      773.100000       0.403966
      773.200000       0.423789
      773.300000       0.444101
      773.400000       0.464867
      773.500000       0.486038
      773.600000       0.507559
      773.700000       0.529325
      773.800000       0.551262
      773.900000       0.573302
      774.000000       0.595371
      774.100000       0.617368
      774.200000       0.639197
      774.300000       0.660779
      774.400000       0.681996
      774.500000       0.702797
      774.600000       0.723078
      774.700000       0.742735
      774.800000       0.761722
      774.900000       0.779950
      775.000000       0.797355
      775.100000       0.813896
      775.200000       0.829507
      775.300000       0.844188
      775.400000       0.857904
      775.500000       0.870639
      775.600000       0.882404
      775.700000       0.893192
      775.800000       0.903030
      775.900000       0.911945
      776.000000       0.919962
      776.100000       0.927114
      776.200000       0.933453
      776.300000       0.939022
      776.400000       0.943881
      776.500000       0.948086
      776.600000       0.951692
      776.700000       0.954744
      776.800000       0.957292
      776.900000       0.959390
      777.000000       0.961083
      777.100000       0.962416
      777.200000       0.963431
      777.300000       0.964165
      777.400000       0.964650
      777.500000       0.964909
      777.600000       0.964966
      777.700000       0.964843
      777.800000       0.964562
      777.900000       0.964143
      778.000000       0.963608
      778.100000       0.962975
      778.200000       0.962264
      778.300000       0.961495
      778.400000       0.960688
      778.500000       0.959862
      778.600000       0.959036
      778.700000       0.958225
      778.800000       0.957446
      778.900000       0.956716
      779.000000       0.956057
      779.100000       0.955489
      779.200000       0.955029
      779.300000       0.954697
      779.400000       0.954510
      779.500000       0.954477
      779.600000       0.954614
      779.700000       0.954924
      779.800000       0.955407
      779.900000       0.956057
      780.000000       0.956868
      780.100000       0.957830
      780.200000       0.958935
      780.300000       0.960173
      780.400000       0.961532
      780.500000       0.963002
      780.600000       0.964560
      780.700000       0.966179
      780.800000       0.967837
      780.900000       0.969513
      781.000000       0.971188
      781.100000       0.972851
      781.200000       0.974491
      781.300000       0.976098
      781.400000       0.977661
      781.500000       0.979163
      781.600000       0.980601
      781.700000       0.981963
      781.800000       0.983249
      781.900000       0.984464
      782.000000       0.985609
      782.100000       0.986691
      782.200000       0.987713
      782.300000       0.988681
      782.400000       0.989604
      782.500000       0.990485
      782.600000       0.991328
      782.700000       0.992132
      782.800000       0.992895
      782.900000       0.993620
      783.000000       0.994309
      783.100000       0.994968
      783.200000       0.995600
      783.300000       0.996206
      783.400000       0.996784
      783.500000       0.997330
      783.600000       0.997840
      783.700000       0.998306
      783.800000       0.998726
      783.900000       0.999091
      784.000000       0.999397
      784.100000       0.999637
      784.200000       0.999815
      784.300000       0.999932
      784.400000       0.999993
      784.500000       1.000000
      784.600000       0.999950
      784.700000       0.999841
      784.800000       0.999670
      784.900000       0.999435
      785.000000       0.999143
      785.100000       0.998803
      785.200000       0.998425
      785.300000       0.998019
      785.400000       0.997589
      785.500000       0.997136
      785.600000       0.996663
      785.700000       0.996171
      785.800000       0.995668
      785.900000       0.995163
      786.000000       0.994662
      786.100000       0.994173
      786.200000       0.993694
      786.300000       0.993224
      786.400000       0.992763
      786.500000       0.992307
      786.600000       0.991855
      786.700000       0.991401
      786.800000       0.990943
      786.900000       0.990475
      787.000000       0.989998
      787.100000       0.989509
      787.200000       0.989004
      787.300000       0.988476
      787.400000       0.987916
      787.500000       0.987314
      787.600000       0.986659
      787.700000       0.985940
      787.800000       0.985147
      787.900000       0.984266
      788.000000       0.983289
      788.100000       0.982207
      788.200000       0.981011
      788.300000       0.979699
      788.400000       0.978268
      788.500000       0.976714
      788.600000       0.975029
      788.700000       0.973206
      788.800000       0.971239
      788.900000       0.969125
      789.000000       0.966857
      789.100000       0.964432
      789.200000       0.961851
      789.300000       0.959116
      789.400000       0.956236
      789.500000       0.953215
      789.600000       0.950064
      789.700000       0.946795
      789.800000       0.943409
      789.900000       0.939916
      790.000000       0.936322
      790.100000       0.932635
      790.200000       0.928865
      790.300000       0.925019
      790.400000       0.921102
      790.500000       0.917121
      790.600000       0.913087
      790.700000       0.909002
      790.800000       0.904869
      790.900000       0.900685
      791.000000       0.896461
      791.100000       0.892201
      791.200000       0.887909
      791.300000       0.883594
      791.400000       0.879249
      791.500000       0.874871
      791.600000       0.870462
      791.700000       0.866016
      791.800000       0.861534
      791.900000       0.857020
      792.000000       0.852469
      792.100000       0.847885
      792.200000       0.843267
      792.300000       0.838615
      792.400000       0.833935
      792.500000       0.829222
      792.600000       0.824489
      792.700000       0.819750
      792.800000       0.815010
      792.900000       0.810286
      793.000000       0.805589
      793.100000       0.800929
      793.200000       0.796323
      793.300000       0.791781
      793.400000       0.787318
      793.500000       0.782951
      793.600000       0.778700
      793.700000       0.774582
      793.800000       0.770608
      793.900000       0.766789
      794.000000       0.763141
      794.100000       0.759676
      794.200000       0.756402
      794.300000       0.753332
      794.400000       0.750468
      794.500000       0.747816
      794.600000       0.745379
      794.700000       0.743158
      794.800000       0.741151
      794.900000       0.739357
      795.000000       0.737774
      795.100000       0.736406
      795.200000       0.735250
      795.300000       0.734307
      795.400000       0.733573
      795.500000       0.733045
      795.600000       0.732720
      795.700000       0.732599
      795.800000       0.732682
      795.900000       0.732975
      796.000000       0.733483
      796.100000       0.734213
      796.200000       0.735175
      796.300000       0.736377
      796.400000       0.737832
      796.500000       0.739554
      796.600000       0.741553
      796.700000       0.743846
      796.800000       0.746448
      796.900000       0.749375
      797.000000       0.752634
      797.100000       0.756239
      797.200000       0.760190
      797.300000       0.764486
      797.400000       0.769134
      797.500000       0.774124
      797.600000       0.779441
      797.700000       0.785074
      797.800000       0.790984
      797.900000       0.797135
      798.000000       0.803476
      798.100000       0.809944
      798.200000       0.816485
      798.300000       0.823014
      798.400000       0.829450
      798.500000       0.835701
      798.600000       0.841661
      798.700000       0.847231
      798.800000       0.852302
      798.900000       0.856752
      799.000000       0.860469
      799.100000       0.863335
      799.200000       0.865234
      799.300000       0.866060
      799.400000       0.865706
      799.500000       0.864074
      799.600000       0.861084
      799.700000       0.856662
      799.800000       0.850749
      799.900000       0.843291
      800.000000       0.834268
      800.100000       0.823662
      800.200000       0.811490
      800.300000       0.797791
      800.400000       0.782589
      800.500000       0.765962
      800.600000       0.748003
      800.700000       0.728770
      800.800000       0.708397
      800.900000       0.686991
      801.000000       0.664687
      801.100000       0.641646
      801.200000       0.617969
      801.300000       0.593834
      801.400000       0.569379
      801.500000       0.544754
      801.600000       0.520118
      801.700000       0.495591
      801.800000       0.471280
      801.900000       0.447331
      802.000000       0.423839
      802.100000       0.400904
      802.200000       0.378624
      802.300000       0.357053
      802.400000       0.336240
      802.500000       0.316229
      802.600000       0.297079
      802.700000       0.278802
      802.800000       0.261397
      802.900000       0.244851
      803.000000       0.229173
      803.100000       0.214340
      803.200000       0.200331
      803.300000       0.187133
      803.400000       0.174691
      803.500000       0.162986
      803.600000       0.151991
      803.700000       0.141652
      803.800000       0.131949
      803.900000       0.122847
      804.000000       0.114312
      804.100000       0.106321
      804.200000       0.098839
      804.300000       0.091837
      804.400000       0.085288
      804.500000       0.079178
      804.600000       0.073485
      804.700000       0.068184
      804.800000       0.063253
      804.900000       0.058677
      805.000000       0.054437
      805.100000       0.050515
      805.200000       0.046896
      805.300000       0.043559
      805.400000       0.040483
      805.500000       0.037657
      805.600000       0.035060
      805.700000       0.032676
      805.800000       0.030489
      805.900000       0.028479
      806.000000       0.026630
      806.100000       0.024928
      806.200000       0.023360
      806.300000       0.021911
      806.400000       0.020567
      806.500000       0.019319
      806.600000       0.018157
      806.700000       0.017072
      806.800000       0.016056
      806.900000       0.015104
      807.000000       0.014210
      807.100000       0.013371
      807.200000       0.012583
      807.300000       0.011842
      807.400000       0.011145
      807.500000       0.010494
      807.600000       0.009885
      807.700000       0.009316
      807.800000       0.008787
      807.900000       0.008297
      808.000000       0.007844
      808.100000       0.007427
      808.200000       0.007046
      808.300000       0.006699
      808.400000       0.006384
      808.500000       0.006102
      808.600000       0.005851
      808.700000       0.005631
      808.800000       0.005442
      808.900000       0.005283
      809.000000       0.005156
      809.100000       0.005054
      809.200000       0.005005
      809.300000       0.004858
      809.400000       0.004497
      809.500000       0.004038
      809.600000       0.003718
      809.700000       0.003552
      809.800000       0.003494
      809.900000       0.003467
      810.000000       0.003396
      810.100000       0.003265
      810.200000       0.003112
      810.300000       0.002960
      810.400000       0.002814
      810.500000       0.002677
      810.600000       0.002551
      810.700000       0.002439
      810.800000       0.002342
      810.900000       0.002263
      811.000000       0.002203
      811.100000       0.002156
      811.200000       0.002117
      811.300000       0.002077
      811.400000       0.002032
      811.500000       0.001975
      811.600000       0.001904
      811.700000       0.001823
      811.800000       0.001738
      811.900000       0.001652
      812.000000       0.001570
      812.100000       0.001495
      812.200000       0.001429
      812.300000       0.001370
      812.400000       0.001317
      812.500000       0.001271
      812.600000       0.001230
      812.700000       0.001194
      812.800000       0.001163
      812.900000       0.001136
      813.000000       0.001113
      813.100000       0.001093
      813.200000       0.001077
      813.300000       0.001063
      813.400000       0.001051
      813.500000       0.001041
      813.600000       0.000524
      813.700000       0.000520
      813.800000       0.000516
      813.900000       0.000000
      814.000000       0.000000
