4,   4, MVIRI VIS channel from srf_MET7_1998033_1998034_1801-Release_S10EE_10.dat
Number of data points:
793
Wavenumber (cm-1)   Filter response
     8442.380800       0.000000
     8449.514200       0.000000
     8456.659600       0.000004
     8463.817200       0.000051
     8470.986900       0.000152
     8478.168700       0.000304
     8485.362700       0.000506
     8492.569000       0.000757
     8499.787500       0.001054
     8507.018300       0.001398
     8514.261400       0.001786
     8521.516800       0.002218
     8528.784600       0.002691
     8536.064900       0.003205
     8543.357500       0.003759
     8550.662700       0.004352
     8557.980300       0.004983
     8565.310500       0.005650
     8572.653200       0.006353
     8580.008600       0.007091
     8587.376600       0.007863
     8594.757200       0.008667
     8602.150500       0.009504
     8609.556600       0.010373
     8616.975400       0.011272
     8624.407100       0.012201
     8631.851500       0.013159
     8639.308900       0.014146
     8646.779100       0.015162
     8654.262200       0.016204
     8661.758300       0.017274
     8669.267400       0.018370
     8676.789600       0.019492
     8684.324800       0.020639
     8691.873100       0.021811
     8699.434500       0.023007
     8707.009100       0.024228
     8714.596900       0.025472
     8722.198000       0.026740
     8729.812300       0.028030
     8737.439900       0.029343
     8745.080900       0.030679
     8752.735200       0.032036
     8760.403000       0.033416
     8768.084200       0.034817
     8775.778900       0.036239
     8783.487000       0.037683
     8791.208800       0.039147
     8798.944100       0.040632
     8806.693100       0.042138
     8814.455700       0.043664
     8822.232000       0.045211
     8830.022100       0.046777
     8837.825900       0.048364
     8845.643500       0.049971
     8853.475000       0.051598
     8861.320300       0.053245
     8869.179600       0.054912
     8877.052800       0.056598
     8884.940000       0.058304
     8892.841300       0.060030
     8900.756600       0.061776
     8908.686000       0.063542
     8916.629500       0.065326
     8924.587200       0.067131
     8932.559200       0.068956
     8940.545400       0.070801
     8948.545900       0.072665
     8956.560700       0.074549
     8964.589900       0.076453
     8972.633500       0.078377
     8980.691500       0.080321
     8988.764000       0.082285
     8996.851100       0.084270
     9004.952700       0.086274
     9013.068900       0.088299
     9021.199800       0.090345
     9029.345400       0.092411
     9037.505600       0.094497
     9045.680700       0.096604
     9053.870500       0.098731
     9062.075200       0.100880
     9070.294800       0.103050
     9078.529300       0.105240
     9086.778700       0.107452
     9095.043200       0.109685
     9103.322700       0.111939
     9111.617300       0.114214
     9119.927000       0.116511
     9128.251900       0.118830
     9136.592100       0.121170
     9144.947400       0.123532
     9153.318100       0.125916
     9161.704100       0.128322
     9170.105500       0.130751
     9178.522300       0.133201
     9186.954500       0.135673
     9195.402300       0.138168
     9203.865600       0.140685
     9212.344500       0.143225
     9220.839100       0.145788
     9229.349300       0.148373
     9237.875300       0.150981
     9246.417000       0.153611
     9254.974500       0.156265
     9263.547900       0.158941
     9272.137200       0.161640
     9280.742500       0.164363
     9289.363700       0.167108
     9298.000900       0.169877
     9306.654300       0.172669
     9315.323700       0.175484
     9324.009300       0.178323
     9332.711200       0.181185
     9341.429200       0.184070
     9350.163600       0.186978
     9358.914400       0.189910
     9367.681500       0.192865
     9376.465100       0.195844
     9385.265100       0.198846
     9394.081700       0.201871
     9402.914900       0.204920
     9411.764700       0.207992
     9420.631200       0.211087
     9429.514400       0.214206
     9438.414300       0.217348
     9447.331100       0.220513
     9456.264800       0.223701
     9465.215300       0.226913
     9474.182900       0.230148
     9483.167400       0.233406
     9492.169000       0.236686
     9501.187600       0.239990
     9510.223500       0.243316
     9519.276500       0.246665
     9528.346800       0.250037
     9537.434400       0.253432
     9546.539400       0.256848
     9555.661700       0.260288
     9564.801500       0.263749
     9573.958800       0.267232
     9583.133700       0.270738
     9592.326100       0.274265
     9601.536200       0.277814
     9610.764100       0.281384
     9620.009600       0.284977
     9629.273000       0.288590
     9638.554200       0.292224
     9647.853400       0.295879
     9657.170400       0.299555
     9666.505600       0.303252
     9675.858700       0.306969
     9685.230000       0.310706
     9694.619500       0.314463
     9704.027200       0.318240
     9713.453100       0.322036
     9722.897400       0.325852
     9732.360100       0.329687
     9741.841200       0.333541
     9751.340800       0.337413
     9760.859000       0.341304
     9770.395700       0.345214
     9779.951100       0.349141
     9789.525200       0.353085
     9799.118100       0.357048
     9808.729800       0.361027
     9818.360300       0.365023
     9828.009800       0.369035
     9837.678300       0.373065
     9847.365800       0.377110
     9857.072400       0.381170
     9866.798200       0.385247
     9876.543200       0.389338
     9886.307500       0.393444
     9896.091000       0.397565
     9905.894000       0.401699
     9915.716400       0.405848
     9925.558300       0.410010
     9935.419800       0.414185
     9945.300800       0.418374
     9955.201600       0.422574
     9965.122100       0.426787
     9975.062300       0.431011
     9985.022500       0.435248
     9995.002500       0.439495
    10005.002500       0.443753
    10015.022500       0.448021
    10025.062700       0.452299
    10035.122900       0.456587
    10045.203400       0.460884
    10055.304200       0.465190
    10065.425300       0.469504
    10075.566800       0.473827
    10085.728700       0.478157
    10095.911200       0.482494
    10106.114200       0.486838
    10116.337900       0.491189
    10126.582300       0.495546
    10136.847400       0.499908
    10147.133400       0.504276
    10157.440300       0.508649
    10167.768200       0.513026
    10178.117000       0.517407
    10188.487000       0.521791
    10198.878100       0.526179
    10209.290500       0.530570
    10219.724100       0.534962
    10230.179000       0.539357
    10240.655400       0.543753
    10251.153300       0.548150
    10261.672700       0.552548
    10272.213700       0.556945
    10282.776300       0.561343
    10293.360800       0.565740
    10303.967000       0.570135
    10314.595200       0.574529
    10325.245200       0.578921
    10335.917300       0.583310
    10346.611500       0.587697
    10357.327800       0.592080
    10368.066400       0.596459
    10378.827200       0.600833
    10389.610400       0.605203
    10400.416000       0.609568
    10411.244100       0.613927
    10422.094800       0.618280
    10432.968200       0.622627
    10443.864200       0.626966
    10454.783100       0.631298
    10465.724800       0.635622
    10476.689400       0.639938
    10487.677000       0.644245
    10498.687700       0.648543
    10509.721500       0.652831
    10520.778500       0.657108
    10531.858900       0.661376
    10542.962600       0.665632
    10554.089700       0.669877
    10565.240400       0.674109
    10576.414600       0.678330
    10587.612500       0.682537
    10598.834100       0.686732
    10610.079600       0.690913
    10621.348900       0.695079
    10632.642200       0.699231
    10643.959600       0.703369
    10655.301000       0.707490
    10666.666700       0.711596
    10678.056600       0.715686
    10689.470900       0.719758
    10700.909600       0.723814
    10712.372800       0.727853
    10723.860600       0.731873
    10735.373100       0.735875
    10746.910300       0.739858
    10758.472300       0.743822
    10770.059200       0.747766
    10781.671200       0.751691
    10793.308100       0.755595
    10804.970300       0.759478
    10816.657700       0.763340
    10828.370300       0.767181
    10840.108400       0.770999
    10851.871900       0.774795
    10863.661100       0.778569
    10875.475800       0.782319
    10887.316300       0.786046
    10899.182600       0.789749
    10911.074700       0.793428
    10922.992900       0.797082
    10934.937100       0.800712
    10946.907500       0.804316
    10958.904100       0.807894
    10970.927000       0.811447
    10982.976400       0.814973
    10995.052200       0.818472
    11007.154700       0.821944
    11019.283700       0.825390
    11031.439600       0.828807
    11043.622300       0.832197
    11055.832000       0.835558
    11068.068600       0.838891
    11080.332400       0.842194
    11092.623400       0.845469
    11104.941700       0.848714
    11117.287400       0.851929
    11129.660500       0.855115
    11142.061300       0.858270
    11154.489700       0.861394
    11166.945800       0.864487
    11179.429800       0.867550
    11191.941800       0.870581
    11204.481800       0.873580
    11217.049900       0.876547
    11229.646300       0.879482
    11242.270900       0.882385
    11254.924000       0.885255
    11267.605600       0.888093
    11280.315800       0.890897
    11293.054800       0.893668
    11305.822500       0.896405
    11318.619100       0.899109
    11331.444800       0.901779
    11344.299500       0.904415
    11357.183400       0.907017
    11370.096600       0.909584
    11383.039300       0.912116
    11396.011400       0.914614
    11409.013100       0.917077
    11422.044500       0.919505
    11435.105800       0.921897
    11448.196900       0.924254
    11461.318100       0.926576
    11474.469300       0.928862
    11487.650800       0.931112
    11500.862600       0.933326
    11514.104800       0.935505
    11527.377500       0.937647
    11540.680900       0.939753
    11554.015000       0.941822
    11567.380000       0.943856
    11580.775900       0.945853
    11594.202900       0.947813
    11607.661100       0.949737
    11621.150500       0.951624
    11634.671300       0.953474
    11648.223600       0.955288
    11661.807600       0.957064
    11675.423200       0.958804
    11689.070700       0.960508
    11702.750100       0.962174
    11716.461600       0.963803
    11730.205300       0.965396
    11743.981200       0.966951
    11757.789500       0.968470
    11771.630400       0.969952
    11785.503800       0.971396
    11799.410000       0.972804
    11813.349100       0.974176
    11827.321100       0.975510
    11841.326200       0.976808
    11855.364600       0.978069
    11869.436200       0.979294
    11883.541300       0.980482
    11897.680000       0.981633
    11911.852300       0.982748
    11926.058400       0.983827
    11940.298500       0.984869
    11954.572600       0.985876
    11968.880900       0.986846
    11983.223500       0.987781
    11997.600500       0.988679
    12012.012000       0.989542
    12026.458200       0.990369
    12040.939200       0.991161
    12055.455100       0.991918
    12070.006000       0.992640
    12084.592100       0.993326
    12099.213600       0.993978
    12113.870400       0.994595
    12128.562800       0.995178
    12143.290800       0.995726
    12158.054700       0.996240
    12172.854500       0.996720
    12187.690400       0.997167
    12202.562500       0.997580
    12217.471000       0.997959
    12232.415900       0.998306
    12247.397400       0.998619
    12262.415700       0.998900
    12277.470800       0.999149
    12292.563000       0.999365
    12307.692300       0.999549
    12322.858900       0.999702
    12338.062900       0.999823
    12353.304500       0.999913
    12368.583800       0.999972
    12383.900900       1.000000
    12399.256000       0.999998
    12414.649300       0.999966
    12430.080800       0.999903
    12445.550700       0.999812
    12461.059200       0.999691
    12476.606400       0.999541
    12492.192400       0.999362
    12507.817400       0.999155
    12523.481500       0.998920
    12539.185000       0.998658
    12554.927800       0.998367
    12570.710200       0.998050
    12586.532400       0.997706
    12602.394500       0.997336
    12618.296500       0.996940
    12634.238800       0.996518
    12650.221400       0.996070
    12666.244500       0.995598
    12682.308200       0.995101
    12698.412700       0.994579
    12714.558200       0.994034
    12730.744700       0.993465
    12746.972600       0.992873
    12763.241900       0.992258
    12779.552700       0.991621
    12795.905300       0.990962
    12812.299800       0.990281
    12828.736400       0.989578
    12845.215200       0.988855
    12861.736300       0.988112
    12878.300100       0.987348
    12894.906500       0.986565
    12911.555800       0.985762
    12928.248200       0.984941
    12944.983800       0.984101
    12961.762800       0.983243
    12978.585300       0.982368
    12995.451600       0.981475
    13012.361700       0.980566
    13029.316000       0.979640
    13046.314400       0.978699
    13063.357300       0.977742
    13080.444700       0.976770
    13097.576900       0.975783
    13114.754100       0.974782
    13131.976400       0.973768
    13149.243900       0.972740
    13166.556900       0.971699
    13183.915600       0.970646
    13201.320100       0.969581
    13218.770700       0.968504
    13236.267400       0.967417
    13253.810500       0.966318
    13271.400100       0.965210
    13289.036500       0.964092
    13306.719900       0.962964
    13324.450400       0.961828
    13342.228200       0.960683
    13360.053400       0.959530
    13377.926400       0.958370
    13395.847300       0.957203
    13413.816200       0.956029
    13431.833400       0.954849
    13449.899100       0.953664
    13468.013500       0.952473
    13486.176700       0.951277
    13504.388900       0.950078
    13522.650400       0.948874
    13540.961400       0.947667
    13559.322000       0.946457
    13577.732500       0.945244
    13596.193100       0.944029
    13614.703900       0.942813
    13633.265200       0.941595
    13651.877100       0.940377
    13670.540000       0.939159
    13689.253900       0.937940
    13708.019200       0.936722
    13726.836000       0.935506
    13745.704500       0.934290
    13764.624900       0.933077
    13783.597500       0.931866
    13802.622500       0.930657
    13821.700100       0.929452
    13840.830400       0.928251
    13860.013900       0.927053
    13879.250500       0.925860
    13898.540700       0.924672
    13917.884500       0.923489
    13937.282200       0.922311
    13956.734100       0.921140
    13976.240400       0.919975
    13995.801300       0.918818
    14015.417000       0.917667
    14035.087700       0.916524
    14054.813800       0.915390
    14074.595400       0.914263
    14094.432700       0.913146
    14114.326000       0.912038
    14134.275600       0.910939
    14154.281700       0.909851
    14174.344400       0.908773
    14194.464200       0.907705
    14214.641100       0.906649
    14234.875400       0.905604
    14255.167500       0.904571
    14275.517500       0.903550
    14295.925700       0.902541
    14316.392300       0.901545
    14336.917600       0.900563
    14357.501800       0.899593
    14378.145200       0.898638
    14398.848100       0.897697
    14419.610700       0.896769
    14440.433200       0.895857
    14461.316000       0.894960
    14482.259200       0.894078
    14503.263200       0.893211
    14524.328200       0.892360
    14545.454500       0.891526
    14566.642400       0.890707
    14587.892000       0.889906
    14609.203800       0.889121
    14630.577900       0.888353
    14652.014700       0.887603
    14673.514300       0.886870
    14695.077100       0.886155
    14716.703500       0.885459
    14738.393500       0.884780
    14760.147600       0.884120
    14781.966000       0.883478
    14803.849000       0.882856
    14825.796900       0.882252
    14847.809900       0.881667
    14869.888500       0.881102
    14892.032800       0.880557
    14914.243100       0.880031
    14936.519800       0.879525
    14958.863100       0.879038
    14981.273400       0.878572
    15003.750900       0.878126
    15026.296000       0.877700
    15048.909000       0.877295
    15071.590100       0.876910
    15094.339600       0.876546
    15117.158000       0.876202
    15140.045400       0.875879
    15163.002300       0.875577
    15186.028900       0.875296
    15209.125500       0.875035
    15232.292500       0.874796
    15255.530100       0.874577
    15278.838800       0.874379
    15302.218800       0.874203
    15325.670500       0.874047
    15349.194200       0.873912
    15372.790200       0.873798
    15396.458800       0.873704
    15420.200500       0.873632
    15444.015400       0.873580
    15467.904100       0.873549
    15491.866800       0.873539
    15515.903800       0.873549
    15540.015500       0.873579
    15564.202300       0.873630
    15588.464500       0.873701
    15612.802500       0.873793
    15637.216600       0.873904
    15661.707100       0.874035
    15686.274500       0.874186
    15710.919100       0.874356
    15735.641200       0.874546
    15760.441300       0.874755
    15785.319700       0.874982
    15810.276700       0.875229
    15835.312700       0.875494
    15860.428200       0.875777
    15885.623500       0.876079
    15910.899000       0.876398
    15936.255000       0.876735
    15961.691900       0.877090
    15987.210200       0.877461
    16012.810200       0.877849
    16038.492400       0.878254
    16064.257000       0.878675
    16090.104600       0.879111
    16116.035500       0.879564
    16142.050000       0.880031
    16168.148700       0.880513
    16194.332000       0.881010
    16220.600200       0.881521
    16246.953700       0.882045
    16273.393000       0.882583
    16299.918500       0.883134
    16326.530600       0.883697
    16353.229800       0.884272
    16380.016400       0.884859
    16406.890900       0.885458
    16433.853700       0.886067
    16460.905300       0.886686
    16488.046200       0.887315
    16515.276600       0.887953
    16542.597200       0.888601
    16570.008300       0.889256
    16597.510400       0.889919
    16625.103900       0.890590
    16652.789300       0.891267
    16680.567100       0.891951
    16708.437800       0.892640
    16736.401700       0.893334
    16764.459300       0.894033
    16792.611300       0.894736
    16820.857900       0.895442
    16849.199700       0.896150
    16877.637100       0.896861
    16906.170800       0.897573
    16934.801000       0.898286
    16963.528400       0.898999
    16992.353400       0.899712
    17021.276600       0.900423
    17050.298400       0.901133
    17079.419300       0.901840
    17108.639900       0.902544
    17137.960600       0.903243
    17167.382000       0.903939
    17196.904600       0.904629
    17226.528900       0.905313
    17256.255400       0.905990
    17286.084700       0.906659
    17316.017300       0.907320
    17346.053800       0.907972
    17376.194600       0.908614
    17406.440400       0.909246
    17436.791600       0.909866
    17467.248900       0.910474
    17497.812800       0.911069
    17528.483800       0.911650
    17559.262500       0.912216
    17590.149500       0.912767
    17621.145400       0.913301
    17652.250700       0.913819
    17683.466000       0.914318
