8,   8, MVIRI VIS channel from srf_MET5_1992078_1992079_1801-Release_S10EL_10.dat
Number of data points:
806
Wavenumber (cm-1)   Filter response
     8350.730700       0.000000
     8357.710000       0.000000
     8364.701000       0.000000
     8371.703600       0.000001
     8378.718100       0.000004
     8385.744200       0.000009
     8392.782200       0.000016
     8399.832000       0.000026
     8406.893700       0.000040
     8413.967200       0.000058
     8421.052600       0.000080
     8428.150000       0.000107
     8435.259400       0.000140
     8442.380800       0.000179
     8449.514200       0.000223
     8456.659600       0.000275
     8463.817200       0.000333
     8470.986900       0.000399
     8478.168700       0.000473
     8485.362700       0.000555
     8492.569000       0.000645
     8499.787500       0.000744
     8507.018300       0.000851
     8514.261400       0.000969
     8521.516800       0.001096
     8528.784600       0.001233
     8536.064900       0.001380
     8543.357500       0.001537
     8550.662700       0.001705
     8557.980300       0.001885
     8565.310500       0.002075
     8572.653200       0.002277
     8580.008600       0.002491
     8587.376600       0.002716
     8594.757200       0.002953
     8602.150500       0.003203
     8609.556600       0.003466
     8616.975400       0.003741
     8624.407100       0.004028
     8631.851500       0.004329
     8639.308900       0.004644
     8646.779100       0.004971
     8654.262200       0.005312
     8661.758300       0.005667
     8669.267400       0.006036
     8676.789600       0.006419
     8684.324800       0.006816
     8691.873100       0.007228
     8699.434500       0.007654
     8707.009100       0.008095
     8714.596900       0.008550
     8722.198000       0.009020
     8729.812300       0.009506
     8737.439900       0.010007
     8745.080900       0.010523
     8752.735200       0.011054
     8760.403000       0.011601
     8768.084200       0.012164
     8775.778900       0.012743
     8783.487000       0.013338
     8791.208800       0.013948
     8798.944100       0.014575
     8806.693100       0.015218
     8814.455700       0.015878
     8822.232000       0.016554
     8830.022100       0.017247
     8837.825900       0.017957
     8845.643500       0.018683
     8853.475000       0.019427
     8861.320300       0.020187
     8869.179600       0.020965
     8877.052800       0.021760
     8884.940000       0.022573
     8892.841300       0.023403
     8900.756600       0.024251
     8908.686000       0.025117
     8916.629500       0.026000
     8924.587200       0.026901
     8932.559200       0.027821
     8940.545400       0.028758
     8948.545900       0.029714
     8956.560700       0.030688
     8964.589900       0.031681
     8972.633500       0.032692
     8980.691500       0.033723
     8988.764000       0.034771
     8996.851100       0.035839
     9004.952700       0.036926
     9013.068900       0.038031
     9021.199800       0.039156
     9029.345400       0.040301
     9037.505600       0.041464
     9045.680700       0.042647
     9053.870500       0.043850
     9062.075200       0.045073
     9070.294800       0.046315
     9078.529300       0.047577
     9086.778700       0.048859
     9095.043200       0.050161
     9103.322700       0.051484
     9111.617300       0.052826
     9119.927000       0.054190
     9128.251900       0.055573
     9136.592100       0.056977
     9144.947400       0.058402
     9153.318100       0.059847
     9161.704100       0.061314
     9170.105500       0.062801
     9178.522300       0.064309
     9186.954500       0.065839
     9195.402300       0.067390
     9203.865600       0.068961
     9212.344500       0.070555
     9220.839100       0.072169
     9229.349300       0.073806
     9237.875300       0.075464
     9246.417000       0.077143
     9254.974500       0.078845
     9263.547900       0.080568
     9272.137200       0.082313
     9280.742500       0.084081
     9289.363700       0.085870
     9298.000900       0.087682
     9306.654300       0.089516
     9315.323700       0.091372
     9324.009300       0.093251
     9332.711200       0.095152
     9341.429200       0.097075
     9350.163600       0.099021
     9358.914400       0.100990
     9367.681500       0.102982
     9376.465100       0.104996
     9385.265100       0.107033
     9394.081700       0.109093
     9402.914900       0.111176
     9411.764700       0.113282
     9420.631200       0.115411
     9429.514400       0.117563
     9438.414300       0.119738
     9447.331100       0.121936
     9456.264800       0.124158
     9465.215300       0.126403
     9474.182900       0.128671
     9483.167400       0.130962
     9492.169000       0.133276
     9501.187600       0.135614
     9510.223500       0.137976
     9519.276500       0.140360
     9528.346800       0.142768
     9537.434400       0.145200
     9546.539400       0.147654
     9555.661700       0.150133
     9564.801500       0.152634
     9573.958800       0.155159
     9583.133700       0.157708
     9592.326100       0.160280
     9601.536200       0.162875
     9610.764100       0.165494
     9620.009600       0.168136
     9629.273000       0.170802
     9638.554200       0.173490
     9647.853400       0.176202
     9657.170400       0.178938
     9666.505600       0.181696
     9675.858700       0.184478
     9685.230000       0.187283
     9694.619500       0.190111
     9704.027200       0.192962
     9713.453100       0.195837
     9722.897400       0.198734
     9732.360100       0.201654
     9741.841200       0.204597
     9751.340800       0.207562
     9760.859000       0.210551
     9770.395700       0.213562
     9779.951100       0.216596
     9789.525200       0.219652
     9799.118100       0.222730
     9808.729800       0.225831
     9818.360300       0.228954
     9828.009800       0.232099
     9837.678300       0.235266
     9847.365800       0.238455
     9857.072400       0.241666
     9866.798200       0.244899
     9876.543200       0.248152
     9886.307500       0.251428
     9896.091000       0.254725
     9905.894000       0.258042
     9915.716400       0.261381
     9925.558300       0.264741
     9935.419800       0.268122
     9945.300800       0.271523
     9955.201600       0.274944
     9965.122100       0.278386
     9975.062300       0.281848
     9985.022500       0.285330
     9995.002500       0.288832
    10005.002500       0.292354
    10015.022500       0.295895
    10025.062700       0.299455
    10035.122900       0.303034
    10045.203400       0.306632
    10055.304200       0.310249
    10065.425300       0.313885
    10075.566800       0.317538
    10085.728700       0.321210
    10095.911200       0.324900
    10106.114200       0.328607
    10116.337900       0.332332
    10126.582300       0.336074
    10136.847400       0.339833
    10147.133400       0.343609
    10157.440300       0.347401
    10167.768200       0.351210
    10178.117000       0.355035
    10188.487000       0.358875
    10198.878100       0.362732
    10209.290500       0.366603
    10219.724100       0.370489
    10230.179000       0.374391
    10240.655400       0.378307
    10251.153300       0.382237
    10261.672700       0.386181
    10272.213700       0.390139
    10282.776300       0.394110
    10293.360800       0.398095
    10303.967000       0.402092
    10314.595200       0.406102
    10325.245200       0.410124
    10335.917300       0.414158
    10346.611500       0.418204
    10357.327800       0.422261
    10368.066400       0.426330
    10378.827200       0.430409
    10389.610400       0.434499
    10400.416000       0.438598
    10411.244100       0.442708
    10422.094800       0.446827
    10432.968200       0.450955
    10443.864200       0.455092
    10454.783100       0.459237
    10465.724800       0.463391
    10476.689400       0.467553
    10487.677000       0.471722
    10498.687700       0.475898
    10509.721500       0.480081
    10520.778500       0.484270
    10531.858900       0.488466
    10542.962600       0.492668
    10554.089700       0.496874
    10565.240400       0.501086
    10576.414600       0.505302
    10587.612500       0.509523
    10598.834100       0.513748
    10610.079600       0.517976
    10621.348900       0.522208
    10632.642200       0.526442
    10643.959600       0.530679
    10655.301000       0.534918
    10666.666700       0.539159
    10678.056600       0.543401
    10689.470900       0.547644
    10700.909600       0.551888
    10712.372800       0.556132
    10723.860600       0.560375
    10735.373100       0.564618
    10746.910300       0.568861
    10758.472300       0.573101
    10770.059200       0.577340
    10781.671200       0.581577
    10793.308100       0.585812
    10804.970300       0.590044
    10816.657700       0.594272
    10828.370300       0.598496
    10840.108400       0.602717
    10851.871900       0.606933
    10863.661100       0.611144
    10875.475800       0.615350
    10887.316300       0.619550
    10899.182600       0.623744
    10911.074700       0.627932
    10922.992900       0.632113
    10934.937100       0.636287
    10946.907500       0.640453
    10958.904100       0.644611
    10970.927000       0.648760
    10982.976400       0.652901
    10995.052200       0.657032
    11007.154700       0.661154
    11019.283700       0.665266
    11031.439600       0.669367
    11043.622300       0.673458
    11055.832000       0.677537
    11068.068600       0.681604
    11080.332400       0.685660
    11092.623400       0.689704
    11104.941700       0.693734
    11117.287400       0.697751
    11129.660500       0.701755
    11142.061300       0.705745
    11154.489700       0.709721
    11166.945800       0.713681
    11179.429800       0.717627
    11191.941800       0.721557
    11204.481800       0.725472
    11217.049900       0.729370
    11229.646300       0.733251
    11242.270900       0.737116
    11254.924000       0.740963
    11267.605600       0.744793
    11280.315800       0.748604
    11293.054800       0.752397
    11305.822500       0.756171
    11318.619100       0.759926
    11331.444800       0.763661
    11344.299500       0.767376
    11357.183400       0.771072
    11370.096600       0.774746
    11383.039300       0.778400
    11396.011400       0.782032
    11409.013100       0.785643
    11422.044500       0.789231
    11435.105800       0.792798
    11448.196900       0.796341
    11461.318100       0.799862
    11474.469300       0.803359
    11487.650800       0.806833
    11500.862600       0.810283
    11514.104800       0.813709
    11527.377500       0.817109
    11540.680900       0.820485
    11554.015000       0.823836
    11567.380000       0.827161
    11580.775900       0.830461
    11594.202900       0.833734
    11607.661100       0.836981
    11621.150500       0.840201
    11634.671300       0.843395
    11648.223600       0.846561
    11661.807600       0.849699
    11675.423200       0.852810
    11689.070700       0.855892
    11702.750100       0.858947
    11716.461600       0.861972
    11730.205300       0.864969
    11743.981200       0.867937
    11757.789500       0.870875
    11771.630400       0.873784
    11785.503800       0.876663
    11799.410000       0.879512
    11813.349100       0.882331
    11827.321100       0.885119
    11841.326200       0.887876
    11855.364600       0.890603
    11869.436200       0.893299
    11883.541300       0.895963
    11897.680000       0.898595
    11911.852300       0.901196
    11926.058400       0.903765
    11940.298500       0.906302
    11954.572600       0.908806
    11968.880900       0.911279
    11983.223500       0.913718
    11997.600500       0.916125
    12012.012000       0.918499
    12026.458200       0.920840
    12040.939200       0.923147
    12055.455100       0.925422
    12070.006000       0.927663
    12084.592100       0.929870
    12099.213600       0.932043
    12113.870400       0.934183
    12128.562800       0.936289
    12143.290800       0.938361
    12158.054700       0.940398
    12172.854500       0.942401
    12187.690400       0.944370
    12202.562500       0.946305
    12217.471000       0.948205
    12232.415900       0.950070
    12247.397400       0.951901
    12262.415700       0.953698
    12277.470800       0.955459
    12292.563000       0.957186
    12307.692300       0.958878
    12322.858900       0.960535
    12338.062900       0.962157
    12353.304500       0.963745
    12368.583800       0.965297
    12383.900900       0.966815
    12399.256000       0.968297
    12414.649300       0.969745
    12430.080800       0.971158
    12445.550700       0.972536
    12461.059200       0.973879
    12476.606400       0.975187
    12492.192400       0.976461
    12507.817400       0.977699
    12523.481500       0.978903
    12539.185000       0.980072
    12554.927800       0.981207
    12570.710200       0.982307
    12586.532400       0.983373
    12602.394500       0.984404
    12618.296500       0.985401
    12634.238800       0.986363
    12650.221400       0.987292
    12666.244500       0.988186
    12682.308200       0.989047
    12698.412700       0.989874
    12714.558200       0.990667
    12730.744700       0.991426
    12746.972600       0.992152
    12763.241900       0.992845
    12779.552700       0.993504
    12795.905300       0.994131
    12812.299800       0.994724
    12828.736400       0.995285
    12845.215200       0.995813
    12861.736300       0.996309
    12878.300100       0.996773
    12894.906500       0.997205
    12911.555800       0.997605
    12928.248200       0.997973
    12944.983800       0.998309
    12961.762800       0.998615
    12978.585300       0.998889
    12995.451600       0.999133
    13012.361700       0.999346
    13029.316000       0.999529
    13046.314400       0.999681
    13063.357300       0.999804
    13080.444700       0.999897
    13097.576900       0.999960
    13114.754100       0.999995
    13131.976400       1.000000
    13149.243900       0.999977
    13166.556900       0.999925
    13183.915600       0.999845
    13201.320100       0.999738
    13218.770700       0.999603
    13236.267400       0.999440
    13253.810500       0.999251
    13271.400100       0.999035
    13289.036500       0.998792
    13306.719900       0.998524
    13324.450400       0.998229
    13342.228200       0.997909
    13360.053400       0.997564
    13377.926400       0.997195
    13395.847300       0.996800
    13413.816200       0.996382
    13431.833400       0.995939
    13449.899100       0.995473
    13468.013500       0.994984
    13486.176700       0.994473
    13504.388900       0.993938
    13522.650400       0.993382
    13540.961400       0.992804
    13559.322000       0.992204
    13577.732500       0.991583
    13596.193100       0.990942
    13614.703900       0.990280
    13633.265200       0.989598
    13651.877100       0.988897
    13670.540000       0.988177
    13689.253900       0.987438
    13708.019200       0.986680
    13726.836000       0.985904
    13745.704500       0.985111
    13764.624900       0.984300
    13783.597500       0.983473
    13802.622500       0.982629
    13821.700100       0.981769
    13840.830400       0.980893
    13860.013900       0.980002
    13879.250500       0.979096
    13898.540700       0.978176
    13917.884500       0.977241
    13937.282200       0.976293
    13956.734100       0.975332
    13976.240400       0.974357
    13995.801300       0.973371
    14015.417000       0.972372
    14035.087700       0.971362
    14054.813800       0.970340
    14074.595400       0.969308
    14094.432700       0.968265
    14114.326000       0.967213
    14134.275600       0.966151
    14154.281700       0.965080
    14174.344400       0.964000
    14194.464200       0.962912
    14214.641100       0.961816
    14234.875400       0.960712
    14255.167500       0.959602
    14275.517500       0.958485
    14295.925700       0.957362
    14316.392300       0.956233
    14336.917600       0.955099
    14357.501800       0.953959
    14378.145200       0.952816
    14398.848100       0.951668
    14419.610700       0.950517
    14440.433200       0.949362
    14461.316000       0.948204
    14482.259200       0.947044
    14503.263200       0.945882
    14524.328200       0.944718
    14545.454500       0.943553
    14566.642400       0.942388
    14587.892000       0.941221
    14609.203800       0.940055
    14630.577900       0.938889
    14652.014700       0.937724
    14673.514300       0.936560
    14695.077100       0.935397
    14716.703500       0.934237
    14738.393500       0.933078
    14760.147600       0.931923
    14781.966000       0.930770
    14803.849000       0.929621
    14825.796900       0.928476
    14847.809900       0.927335
    14869.888500       0.926198
    14892.032800       0.925066
    14914.243100       0.923940
    14936.519800       0.922819
    14958.863100       0.921704
    14981.273400       0.920595
    15003.750900       0.919493
    15026.296000       0.918397
    15048.909000       0.917309
    15071.590100       0.916229
    15094.339600       0.915157
    15117.158000       0.914092
    15140.045400       0.913037
    15163.002300       0.911990
    15186.028900       0.910952
    15209.125500       0.909924
    15232.292500       0.908905
    15255.530100       0.907896
    15278.838800       0.906898
    15302.218800       0.905910
    15325.670500       0.904933
    15349.194200       0.903967
    15372.790200       0.903013
    15396.458800       0.902070
    15420.200500       0.901139
    15444.015400       0.900219
    15467.904100       0.899313
    15491.866800       0.898418
    15515.903800       0.897536
    15540.015500       0.896667
    15564.202300       0.895812
    15588.464500       0.894969
    15612.802500       0.894140
    15637.216600       0.893325
    15661.707100       0.892523
    15686.274500       0.891735
    15710.919100       0.890962
    15735.641200       0.890203
    15760.441300       0.889458
    15785.319700       0.888727
    15810.276700       0.888012
    15835.312700       0.887311
    15860.428200       0.886625
    15885.623500       0.885953
    15910.899000       0.885297
    15936.255000       0.884656
    15961.691900       0.884031
    15987.210200       0.883420
    16012.810200       0.882825
    16038.492400       0.882245
    16064.257000       0.881680
    16090.104600       0.881131
    16116.035500       0.880597
    16142.050000       0.880079
    16168.148700       0.879576
    16194.332000       0.879089
    16220.600200       0.878617
    16246.953700       0.878160
    16273.393000       0.877718
    16299.918500       0.877292
    16326.530600       0.876881
    16353.229800       0.876485
    16380.016400       0.876104
    16406.890900       0.875738
    16433.853700       0.875387
    16460.905300       0.875051
    16488.046200       0.874729
    16515.276600       0.874422
    16542.597200       0.874129
    16570.008300       0.873850
    16597.510400       0.873585
    16625.103900       0.873334
    16652.789300       0.873097
    16680.567100       0.872873
    16708.437800       0.872662
    16736.401700       0.872465
    16764.459300       0.872280
    16792.611300       0.872108
    16820.857900       0.871948
    16849.199700       0.871800
    16877.637100       0.871664
    16906.170800       0.871539
    16934.801000       0.871426
    16963.528400       0.871323
    16992.353400       0.871231
    17021.276600       0.871150
    17050.298400       0.871078
    17079.419300       0.871016
    17108.639900       0.870963
    17137.960600       0.870919
    17167.382000       0.870883
    17196.904600       0.870856
    17226.528900       0.870836
    17256.255400       0.870823
    17286.084700       0.870818
