8,   8, MVIRI VIS channel from srf_MET4_1990168_1990169_1801-Release_S10EL_10.dat
Number of data points:
752
Wavenumber (cm-1)   Filter response
     8745.080900       0.000000
     8752.735200       0.000000
     8760.403000       0.000001
     8768.084200       0.000058
     8775.778900       0.000197
     8783.487000       0.000416
     8791.208800       0.000711
     8798.944100       0.001081
     8806.693100       0.001524
     8814.455700       0.002037
     8822.232000       0.002619
     8830.022100       0.003266
     8837.825900       0.003978
     8845.643500       0.004752
     8853.475000       0.005587
     8861.320300       0.006480
     8869.179600       0.007430
     8877.052800       0.008435
     8884.940000       0.009493
     8892.841300       0.010604
     8900.756600       0.011764
     8908.686000       0.012974
     8916.629500       0.014231
     8924.587200       0.015534
     8932.559200       0.016881
     8940.545400       0.018272
     8948.545900       0.019705
     8956.560700       0.021178
     8964.589900       0.022692
     8972.633500       0.024244
     8980.691500       0.025833
     8988.764000       0.027459
     8996.851100       0.029120
     9004.952700       0.030815
     9013.068900       0.032544
     9021.199800       0.034306
     9029.345400       0.036099
     9037.505600       0.037923
     9045.680700       0.039777
     9053.870500       0.041660
     9062.075200       0.043572
     9070.294800       0.045512
     9078.529300       0.047479
     9086.778700       0.049472
     9095.043200       0.051492
     9103.322700       0.053536
     9111.617300       0.055605
     9119.927000       0.057699
     9128.251900       0.059816
     9136.592100       0.061956
     9144.947400       0.064119
     9153.318100       0.066305
     9161.704100       0.068512
     9170.105500       0.070740
     9178.522300       0.072990
     9186.954500       0.075260
     9195.402300       0.077551
     9203.865600       0.079862
     9212.344500       0.082193
     9220.839100       0.084543
     9229.349300       0.086912
     9237.875300       0.089301
     9246.417000       0.091707
     9254.974500       0.094133
     9263.547900       0.096577
     9272.137200       0.099039
     9280.742500       0.101519
     9289.363700       0.104016
     9298.000900       0.106532
     9306.654300       0.109065
     9315.323700       0.111615
     9324.009300       0.114182
     9332.711200       0.116767
     9341.429200       0.119368
     9350.163600       0.121987
     9358.914400       0.124622
     9367.681500       0.127275
     9376.465100       0.129944
     9385.265100       0.132629
     9394.081700       0.135332
     9402.914900       0.138051
     9411.764700       0.140786
     9420.631200       0.143539
     9429.514400       0.146307
     9438.414300       0.149093
     9447.331100       0.151894
     9456.264800       0.154713
     9465.215300       0.157547
     9474.182900       0.160399
     9483.167400       0.163266
     9492.169000       0.166151
     9501.187600       0.169052
     9510.223500       0.171969
     9519.276500       0.174903
     9528.346800       0.177854
     9537.434400       0.180821
     9546.539400       0.183805
     9555.661700       0.186806
     9564.801500       0.189823
     9573.958800       0.192857
     9583.133700       0.195908
     9592.326100       0.198975
     9601.536200       0.202059
     9610.764100       0.205160
     9620.009600       0.208278
     9629.273000       0.211413
     9638.554200       0.214565
     9647.853400       0.217734
     9657.170400       0.220919
     9666.505600       0.224122
     9675.858700       0.227341
     9685.230000       0.230577
     9694.619500       0.233831
     9704.027200       0.237101
     9713.453100       0.240389
     9722.897400       0.243693
     9732.360100       0.247014
     9741.841200       0.250353
     9751.340800       0.253708
     9760.859000       0.257081
     9770.395700       0.260470
     9779.951100       0.263876
     9789.525200       0.267300
     9799.118100       0.270740
     9808.729800       0.274197
     9818.360300       0.277671
     9828.009800       0.281162
     9837.678300       0.284669
     9847.365800       0.288194
     9857.072400       0.291734
     9866.798200       0.295292
     9876.543200       0.298866
     9886.307500       0.302457
     9896.091000       0.306064
     9905.894000       0.309687
     9915.716400       0.313327
     9925.558300       0.316982
     9935.419800       0.320654
     9945.300800       0.324342
     9955.201600       0.328046
     9965.122100       0.331766
     9975.062300       0.335501
     9985.022500       0.339252
     9995.002500       0.343018
    10005.002500       0.346800
    10015.022500       0.350597
    10025.062700       0.354409
    10035.122900       0.358235
    10045.203400       0.362077
    10055.304200       0.365933
    10065.425300       0.369804
    10075.566800       0.373689
    10085.728700       0.377587
    10095.911200       0.381501
    10106.114200       0.385427
    10116.337900       0.389367
    10126.582300       0.393321
    10136.847400       0.397288
    10147.133400       0.401268
    10157.440300       0.405260
    10167.768200       0.409265
    10178.117000       0.413282
    10188.487000       0.417312
    10198.878100       0.421353
    10209.290500       0.425406
    10219.724100       0.429471
    10230.179000       0.433546
    10240.655400       0.437633
    10251.153300       0.441730
    10261.672700       0.445837
    10272.213700       0.449955
    10282.776300       0.454082
    10293.360800       0.458219
    10303.967000       0.462365
    10314.595200       0.466520
    10325.245200       0.470684
    10335.917300       0.474857
    10346.611500       0.479037
    10357.327800       0.483225
    10368.066400       0.487421
    10378.827200       0.491624
    10389.610400       0.495834
    10400.416000       0.500050
    10411.244100       0.504272
    10422.094800       0.508501
    10432.968200       0.512734
    10443.864200       0.516974
    10454.783100       0.521217
    10465.724800       0.525466
    10476.689400       0.529718
    10487.677000       0.533975
    10498.687700       0.538234
    10509.721500       0.542497
    10520.778500       0.546763
    10531.858900       0.551031
    10542.962600       0.555301
    10554.089700       0.559572
    10565.240400       0.563845
    10576.414600       0.568118
    10587.612500       0.572392
    10598.834100       0.576666
    10610.079600       0.580940
    10621.348900       0.585213
    10632.642200       0.589484
    10643.959600       0.593755
    10655.301000       0.598023
    10666.666700       0.602289
    10678.056600       0.606552
    10689.470900       0.610812
    10700.909600       0.615069
    10712.372800       0.619322
    10723.860600       0.623570
    10735.373100       0.627813
    10746.910300       0.632052
    10758.472300       0.636285
    10770.059200       0.640511
    10781.671200       0.644731
    10793.308100       0.648944
    10804.970300       0.653151
    10816.657700       0.657349
    10828.370300       0.661539
    10840.108400       0.665720
    10851.871900       0.669893
    10863.661100       0.674056
    10875.475800       0.678209
    10887.316300       0.682352
    10899.182600       0.686484
    10911.074700       0.690606
    10922.992900       0.694715
    10934.937100       0.698813
    10946.907500       0.702898
    10958.904100       0.706970
    10970.927000       0.711029
    10982.976400       0.715074
    10995.052200       0.719105
    11007.154700       0.723122
    11019.283700       0.727124
    11031.439600       0.731110
    11043.622300       0.735080
    11055.832000       0.739034
    11068.068600       0.742972
    11080.332400       0.746892
    11092.623400       0.750795
    11104.941700       0.754680
    11117.287400       0.758547
    11129.660500       0.762395
    11142.061300       0.766223
    11154.489700       0.770033
    11166.945800       0.773822
    11179.429800       0.777590
    11191.941800       0.781338
    11204.481800       0.785065
    11217.049900       0.788770
    11229.646300       0.792454
    11242.270900       0.796114
    11254.924000       0.799753
    11267.605600       0.803367
    11280.315800       0.806959
    11293.054800       0.810526
    11305.822500       0.814069
    11318.619100       0.817588
    11331.444800       0.821081
    11344.299500       0.824549
    11357.183400       0.827991
    11370.096600       0.831407
    11383.039300       0.834797
    11396.011400       0.838159
    11409.013100       0.841494
    11422.044500       0.844802
    11435.105800       0.848082
    11448.196900       0.851334
    11461.318100       0.854556
    11474.469300       0.857750
    11487.650800       0.860915
    11500.862600       0.864050
    11514.104800       0.867155
    11527.377500       0.870230
    11540.680900       0.873275
    11554.015000       0.876288
    11567.380000       0.879271
    11580.775900       0.882222
    11594.202900       0.885141
    11607.661100       0.888028
    11621.150500       0.890883
    11634.671300       0.893705
    11648.223600       0.896494
    11661.807600       0.899250
    11675.423200       0.901973
    11689.070700       0.904662
    11702.750100       0.907317
    11716.461600       0.909938
    11730.205300       0.912524
    11743.981200       0.915076
    11757.789500       0.917593
    11771.630400       0.920075
    11785.503800       0.922521
    11799.410000       0.924932
    11813.349100       0.927307
    11827.321100       0.929646
    11841.326200       0.931949
    11855.364600       0.934215
    11869.436200       0.936445
    11883.541300       0.938639
    11897.680000       0.940795
    11911.852300       0.942914
    11926.058400       0.944996
    11940.298500       0.947040
    11954.572600       0.949047
    11968.880900       0.951017
    11983.223500       0.952948
    11997.600500       0.954841
    12012.012000       0.956697
    12026.458200       0.958514
    12040.939200       0.960292
    12055.455100       0.962032
    12070.006000       0.963734
    12084.592100       0.965397
    12099.213600       0.967021
    12113.870400       0.968606
    12128.562800       0.970153
    12143.290800       0.971660
    12158.054700       0.973129
    12172.854500       0.974558
    12187.690400       0.975948
    12202.562500       0.977299
    12217.471000       0.978610
    12232.415900       0.979883
    12247.397400       0.981116
    12262.415700       0.982309
    12277.470800       0.983464
    12292.563000       0.984579
    12307.692300       0.985655
    12322.858900       0.986691
    12338.062900       0.987688
    12353.304500       0.988646
    12368.583800       0.989564
    12383.900900       0.990443
    12399.256000       0.991283
    12414.649300       0.992084
    12430.080800       0.992845
    12445.550700       0.993568
    12461.059200       0.994252
    12476.606400       0.994896
    12492.192400       0.995502
    12507.817400       0.996069
    12523.481500       0.996597
    12539.185000       0.997087
    12554.927800       0.997539
    12570.710200       0.997952
    12586.532400       0.998326
    12602.394500       0.998663
    12618.296500       0.998962
    12634.238800       0.999222
    12650.221400       0.999445
    12666.244500       0.999631
    12682.308200       0.999779
    12698.412700       0.999890
    12714.558200       0.999963
    12730.744700       1.000000
    12746.972600       1.000000
    12763.241900       0.999963
    12779.552700       0.999891
    12795.905300       0.999781
    12812.299800       0.999636
    12828.736400       0.999456
    12845.215200       0.999239
    12861.736300       0.998987
    12878.300100       0.998701
    12894.906500       0.998379
    12911.555800       0.998022
    12928.248200       0.997632
    12944.983800       0.997207
    12961.762800       0.996748
    12978.585300       0.996255
    12995.451600       0.995730
    13012.361700       0.995171
    13029.316000       0.994579
    13046.314400       0.993954
    13063.357300       0.993298
    13080.444700       0.992609
    13097.576900       0.991889
    13114.754100       0.991137
    13131.976400       0.990354
    13149.243900       0.989541
    13166.556900       0.988697
    13183.915600       0.987823
    13201.320100       0.986919
    13218.770700       0.985985
    13236.267400       0.985022
    13253.810500       0.984031
    13271.400100       0.983011
    13289.036500       0.981963
    13306.719900       0.980887
    13324.450400       0.979784
    13342.228200       0.978653
    13360.053400       0.977496
    13377.926400       0.976313
    13395.847300       0.975103
    13413.816200       0.973868
    13431.833400       0.972608
    13449.899100       0.971323
    13468.013500       0.970014
    13486.176700       0.968680
    13504.388900       0.967323
    13522.650400       0.965942
    13540.961400       0.964539
    13559.322000       0.963113
    13577.732500       0.961665
    13596.193100       0.960195
    13614.703900       0.958704
    13633.265200       0.957192
    13651.877100       0.955660
    13670.540000       0.954108
    13689.253900       0.952536
    13708.019200       0.950945
    13726.836000       0.949335
    13745.704500       0.947707
    13764.624900       0.946061
    13783.597500       0.944398
    13802.622500       0.942717
    13821.700100       0.941020
    13840.830400       0.939307
    13860.013900       0.937578
    13879.250500       0.935834
    13898.540700       0.934075
    13917.884500       0.932301
    13937.282200       0.930514
    13956.734100       0.928713
    13976.240400       0.926899
    13995.801300       0.925073
    14015.417000       0.923234
    14035.087700       0.921383
    14054.813800       0.919522
    14074.595400       0.917649
    14094.432700       0.915767
    14114.326000       0.913874
    14134.275600       0.911972
    14154.281700       0.910060
    14174.344400       0.908141
    14194.464200       0.906213
    14214.641100       0.904277
    14234.875400       0.902335
    14255.167500       0.900385
    14275.517500       0.898429
    14295.925700       0.896468
    14316.392300       0.894501
    14336.917600       0.892529
    14357.501800       0.890552
    14378.145200       0.888572
    14398.848100       0.886588
    14419.610700       0.884600
    14440.433200       0.882610
    14461.316000       0.880618
    14482.259200       0.878623
    14503.263200       0.876628
    14524.328200       0.874631
    14545.454500       0.872634
    14566.642400       0.870636
    14587.892000       0.868639
    14609.203800       0.866643
    14630.577900       0.864648
    14652.014700       0.862654
    14673.514300       0.860662
    14695.077100       0.858673
    14716.703500       0.856687
    14738.393500       0.854704
    14760.147600       0.852724
    14781.966000       0.850749
    14803.849000       0.848778
    14825.796900       0.846811
    14847.809900       0.844850
    14869.888500       0.842895
    14892.032800       0.840946
    14914.243100       0.839003
    14936.519800       0.837067
    14958.863100       0.835138
    14981.273400       0.833216
    15003.750900       0.831302
    15026.296000       0.829397
    15048.909000       0.827500
    15071.590100       0.825613
    15094.339600       0.823734
    15117.158000       0.821865
    15140.045400       0.820006
    15163.002300       0.818158
    15186.028900       0.816320
    15209.125500       0.814493
    15232.292500       0.812678
    15255.530100       0.810874
    15278.838800       0.809082
    15302.218800       0.807302
    15325.670500       0.805534
    15349.194200       0.803780
    15372.790200       0.802038
    15396.458800       0.800310
    15420.200500       0.798596
    15444.015400       0.796895
    15467.904100       0.795209
    15491.866800       0.793537
    15515.903800       0.791880
    15540.015500       0.790238
    15564.202300       0.788610
    15588.464500       0.786999
    15612.802500       0.785402
    15637.216600       0.783822
    15661.707100       0.782258
    15686.274500       0.780709
    15710.919100       0.779178
    15735.641200       0.777663
    15760.441300       0.776164
    15785.319700       0.774683
    15810.276700       0.773218
    15835.312700       0.771771
    15860.428200       0.770342
    15885.623500       0.768930
    15910.899000       0.767535
    15936.255000       0.766159
    15961.691900       0.764800
    15987.210200       0.763459
    16012.810200       0.762137
    16038.492400       0.760833
    16064.257000       0.759547
    16090.104600       0.758279
    16116.035500       0.757030
    16142.050000       0.755800
    16168.148700       0.754588
    16194.332000       0.753394
    16220.600200       0.752220
    16246.953700       0.751064
    16273.393000       0.749926
    16299.918500       0.748808
    16326.530600       0.747708
    16353.229800       0.746627
    16380.016400       0.745564
    16406.890900       0.744520
    16433.853700       0.743495
    16460.905300       0.742488
    16488.046200       0.741500
    16515.276600       0.740530
    16542.597200       0.739579
    16570.008300       0.738646
    16597.510400       0.737731
    16625.103900       0.736834
    16652.789300       0.735955
    16680.567100       0.735094
    16708.437800       0.734251
    16736.401700       0.733425
    16764.459300       0.732617
    16792.611300       0.731826
    16820.857900       0.731052
    16849.199700       0.730296
    16877.637100       0.729556
    16906.170800       0.728832
    16934.801000       0.728125
    16963.528400       0.727434
    16992.353400       0.726759
    17021.276600       0.726100
    17050.298400       0.725456
    17079.419300       0.724827
    17108.639900       0.724214
    17137.960600       0.723614
    17167.382000       0.723030
    17196.904600       0.722459
    17226.528900       0.721902
    17256.255400       0.721359
    17286.084700       0.720829
    17316.017300       0.720312
    17346.053800       0.719807
    17376.194600       0.719314
    17406.440400       0.718833
    17436.791600       0.718364
    17467.248900       0.717906
    17497.812800       0.717458
    17528.483800       0.717021
    17559.262500       0.716593
    17590.149500       0.716175
    17621.145400       0.715766
    17652.250700       0.715365
    17683.466000       0.714973
    17714.791900       0.714588
    17746.228900       0.714211
    17777.777800       0.713841
    17809.439000       0.713476
    17841.213200       0.713118
    17873.101000       0.712765
    17905.103000       0.712417
    17937.219700       0.712073
    17969.451900       0.711733
    18001.800200       0.711396
    18034.265100       0.711062
    18066.847300       0.710730
    18099.547500       0.710400
    18132.366300       0.710071
    18165.304300       0.709742
    18198.362100       0.709413
    18231.540600       0.709084
    18264.840200       0.708754
    18298.261700       0.708421
    18331.805700       0.708086
    18365.472900       0.707749
    18399.264000       0.707407
    18433.179700       0.707061
    18467.220700       0.706711
    18501.387600       0.706354
    18535.681200       0.705992
    18570.102100       0.705622
    18604.651200       0.705246
    18639.329000       0.704860
    18674.136300       0.704467
    18709.073900       0.704063
    18744.142500       0.703649
    18779.342700       0.703225
    18814.675400       0.702788
    18850.141400       0.702340
    18885.741300       0.701878
    18921.475900       0.701403
    18957.346000       0.700913
    18993.352300       0.700408
    19029.495700       0.699888
    19065.776900       0.699350
