71,   71, MVIRI VIS channel from srf_MET7_2006168_2006169_1801-Release_S10EE_10.dat
Number of data points:
793
Wavenumber (cm-1)   Filter response
     8442.380800       0.000000
     8449.514200       0.000000
     8456.659600       0.000004
     8463.817200       0.000055
     8470.986900       0.000163
     8478.168700       0.000326
     8485.362700       0.000543
     8492.569000       0.000812
     8499.787500       0.001132
     8507.018300       0.001500
     8514.261400       0.001917
     8521.516800       0.002380
     8528.784600       0.002887
     8536.064900       0.003439
     8543.357500       0.004033
     8550.662700       0.004668
     8557.980300       0.005344
     8565.310500       0.006058
     8572.653200       0.006811
     8580.008600       0.007601
     8587.376600       0.008427
     8594.757200       0.009289
     8602.150500       0.010185
     8609.556600       0.011114
     8616.975400       0.012075
     8624.407100       0.013069
     8631.851500       0.014094
     8639.308900       0.015149
     8646.779100       0.016235
     8654.262200       0.017349
     8661.758300       0.018492
     8669.267400       0.019662
     8676.789600       0.020860
     8684.324800       0.022085
     8691.873100       0.023336
     8699.434500       0.024613
     8707.009100       0.025915
     8714.596900       0.027242
     8722.198000       0.028594
     8729.812300       0.029971
     8737.439900       0.031371
     8745.080900       0.032794
     8752.735200       0.034241
     8760.403000       0.035710
     8768.084200       0.037202
     8775.778900       0.038717
     8783.487000       0.040254
     8791.208800       0.041812
     8798.944100       0.043393
     8806.693100       0.044995
     8814.455700       0.046618
     8822.232000       0.048263
     8830.022100       0.049928
     8837.825900       0.051615
     8845.643500       0.053323
     8853.475000       0.055051
     8861.320300       0.056801
     8869.179600       0.058570
     8877.052800       0.060361
     8884.940000       0.062172
     8892.841300       0.064004
     8900.756600       0.065856
     8908.686000       0.067728
     8916.629500       0.069621
     8924.587200       0.071535
     8932.559200       0.073469
     8940.545400       0.075424
     8948.545900       0.077399
     8956.560700       0.079394
     8964.589900       0.081411
     8972.633500       0.083447
     8980.691500       0.085505
     8988.764000       0.087584
     8996.851100       0.089683
     9004.952700       0.091803
     9013.068900       0.093944
     9021.199800       0.096107
     9029.345400       0.098290
     9037.505600       0.100495
     9045.680700       0.102721
     9053.870500       0.104968
     9062.075200       0.107236
     9070.294800       0.109527
     9078.529300       0.111838
     9086.778700       0.114172
     9095.043200       0.116527
     9103.322700       0.118904
     9111.617300       0.121304
     9119.927000       0.123725
     9128.251900       0.126169
     9136.592100       0.128634
     9144.947400       0.131122
     9153.318100       0.133633
     9161.704100       0.136166
     9170.105500       0.138722
     9178.522300       0.141300
     9186.954500       0.143901
     9195.402300       0.146525
     9203.865600       0.149172
     9212.344500       0.151842
     9220.839100       0.154535
     9229.349300       0.157251
     9237.875300       0.159991
     9246.417000       0.162753
     9254.974500       0.165539
     9263.547900       0.168349
     9272.137200       0.171182
     9280.742500       0.174038
     9289.363700       0.176917
     9298.000900       0.179821
     9306.654300       0.182748
     9315.323700       0.185698
     9324.009300       0.188672
     9332.711200       0.191670
     9341.429200       0.194691
     9350.163600       0.197737
     9358.914400       0.200805
     9367.681500       0.203898
     9376.465100       0.207014
     9385.265100       0.210153
     9394.081700       0.213317
     9402.914900       0.216504
     9411.764700       0.219714
     9420.631200       0.222948
     9429.514400       0.226206
     9438.414300       0.229487
     9447.331100       0.232791
     9456.264800       0.236119
     9465.215300       0.239470
     9474.182900       0.242844
     9483.167400       0.246241
     9492.169000       0.249661
     9501.187600       0.253104
     9510.223500       0.256570
     9519.276500       0.260059
     9528.346800       0.263570
     9537.434400       0.267104
     9546.539400       0.270660
     9555.661700       0.274239
     9564.801500       0.277839
     9573.958800       0.281462
     9583.133700       0.285106
     9592.326100       0.288772
     9601.536200       0.292460
     9610.764100       0.296168
     9620.009600       0.299898
     9629.273000       0.303649
     9638.554200       0.307421
     9647.853400       0.311213
     9657.170400       0.315026
     9666.505600       0.318859
     9675.858700       0.322712
     9685.230000       0.326584
     9694.619500       0.330476
     9704.027200       0.334387
     9713.453100       0.338318
     9722.897400       0.342268
     9732.360100       0.346235
     9741.841200       0.350222
     9751.340800       0.354225
     9760.859000       0.358248
     9770.395700       0.362287
     9779.951100       0.366344
     9789.525200       0.370418
     9799.118100       0.374508
     9808.729800       0.378615
     9818.360300       0.382738
     9828.009800       0.386876
     9837.678300       0.391030
     9847.365800       0.395199
     9857.072400       0.399383
     9866.798200       0.403581
     9876.543200       0.407793
     9886.307500       0.412020
     9896.091000       0.416260
     9905.894000       0.420512
     9915.716400       0.424778
     9925.558300       0.429056
     9935.419800       0.433346
     9945.300800       0.437648
     9955.201600       0.441960
     9965.122100       0.446285
     9975.062300       0.450619
     9985.022500       0.454963
     9995.002500       0.459318
    10005.002500       0.463682
    10015.022500       0.468054
    10025.062700       0.472435
    10035.122900       0.476825
    10045.203400       0.481222
    10055.304200       0.485627
    10065.425300       0.490038
    10075.566800       0.494456
    10085.728700       0.498880
    10095.911200       0.503310
    10106.114200       0.507745
    10116.337900       0.512185
    10126.582300       0.516629
    10136.847400       0.521077
    10147.133400       0.525529
    10157.440300       0.529984
    10167.768200       0.534441
    10178.117000       0.538901
    10188.487000       0.543362
    10198.878100       0.547825
    10209.290500       0.552289
    10219.724100       0.556752
    10230.179000       0.561216
    10240.655400       0.565680
    10251.153300       0.570142
    10261.672700       0.574602
    10272.213700       0.579061
    10282.776300       0.583518
    10293.360800       0.587972
    10303.967000       0.592422
    10314.595200       0.596868
    10325.245200       0.601311
    10335.917300       0.605749
    10346.611500       0.610181
    10357.327800       0.614608
    10368.066400       0.619028
    10378.827200       0.623443
    10389.610400       0.627850
    10400.416000       0.632249
    10411.244100       0.636641
    10422.094800       0.641024
    10432.968200       0.645398
    10443.864200       0.649763
    10454.783100       0.654118
    10465.724800       0.658463
    10476.689400       0.662797
    10487.677000       0.667119
    10498.687700       0.671430
    10509.721500       0.675729
    10520.778500       0.680015
    10531.858900       0.684288
    10542.962600       0.688547
    10554.089700       0.692793
    10565.240400       0.697023
    10576.414600       0.701239
    10587.612500       0.705440
    10598.834100       0.709625
    10610.079600       0.713793
    10621.348900       0.717945
    10632.642200       0.722079
    10643.959600       0.726196
    10655.301000       0.730295
    10666.666700       0.734375
    10678.056600       0.738436
    10689.470900       0.742478
    10700.909600       0.746500
    10712.372800       0.750502
    10723.860600       0.754484
    10735.373100       0.758444
    10746.910300       0.762382
    10758.472300       0.766299
    10770.059200       0.770194
    10781.671200       0.774065
    10793.308100       0.777914
    10804.970300       0.781739
    10816.657700       0.785540
    10828.370300       0.789317
    10840.108400       0.793069
    10851.871900       0.796796
    10863.661100       0.800497
    10875.475800       0.804173
    10887.316300       0.807822
    10899.182600       0.811445
    10911.074700       0.815041
    10922.992900       0.818609
    10934.937100       0.822150
    10946.907500       0.825662
    10958.904100       0.829147
    10970.927000       0.832602
    10982.976400       0.836029
    10995.052200       0.839426
    11007.154700       0.842793
    11019.283700       0.846130
    11031.439600       0.849437
    11043.622300       0.852713
    11055.832000       0.855959
    11068.068600       0.859172
    11080.332400       0.862355
    11092.623400       0.865505
    11104.941700       0.868624
    11117.287400       0.871709
    11129.660500       0.874762
    11142.061300       0.877783
    11154.489700       0.880769
    11166.945800       0.883723
    11179.429800       0.886642
    11191.941800       0.889528
    11204.481800       0.892379
    11217.049900       0.895195
    11229.646300       0.897977
    11242.270900       0.900724
    11254.924000       0.903436
    11267.605600       0.906113
    11280.315800       0.908753
    11293.054800       0.911359
    11305.822500       0.913928
    11318.619100       0.916461
    11331.444800       0.918957
    11344.299500       0.921417
    11357.183400       0.923841
    11370.096600       0.926227
    11383.039300       0.928577
    11396.011400       0.930889
    11409.013100       0.933164
    11422.044500       0.935402
    11435.105800       0.937602
    11448.196900       0.939764
    11461.318100       0.941889
    11474.469300       0.943975
    11487.650800       0.946024
    11500.862600       0.948035
    11514.104800       0.950007
    11527.377500       0.951941
    11540.680900       0.953837
    11554.015000       0.955694
    11567.380000       0.957513
    11580.775900       0.959293
    11594.202900       0.961035
    11607.661100       0.962738
    11621.150500       0.964402
    11634.671300       0.966028
    11648.223600       0.967615
    11661.807600       0.969163
    11675.423200       0.970673
    11689.070700       0.972143
    11702.750100       0.973575
    11716.461600       0.974969
    11730.205300       0.976323
    11743.981200       0.977639
    11757.789500       0.978916
    11771.630400       0.980155
    11785.503800       0.981355
    11799.410000       0.982516
    11813.349100       0.983639
    11827.321100       0.984724
    11841.326200       0.985770
    11855.364600       0.986778
    11869.436200       0.987748
    11883.541300       0.988680
    11897.680000       0.989574
    11911.852300       0.990430
    11926.058400       0.991248
    11940.298500       0.992028
    11954.572600       0.992771
    11968.880900       0.993477
    11983.223500       0.994145
    11997.600500       0.994777
    12012.012000       0.995371
    12026.458200       0.995929
    12040.939200       0.996449
    12055.455100       0.996934
    12070.006000       0.997382
    12084.592100       0.997794
    12099.213600       0.998170
    12113.870400       0.998510
    12128.562800       0.998815
    12143.290800       0.999085
    12158.054700       0.999319
    12172.854500       0.999518
    12187.690400       0.999683
    12202.562500       0.999813
    12217.471000       0.999910
    12232.415900       0.999972
    12247.397400       1.000000
    12262.415700       0.999995
    12277.470800       0.999957
    12292.563000       0.999885
    12307.692300       0.999781
    12322.858900       0.999645
    12338.062900       0.999476
    12353.304500       0.999276
    12368.583800       0.999044
    12383.900900       0.998780
    12399.256000       0.998486
    12414.649300       0.998161
    12430.080800       0.997806
    12445.550700       0.997421
    12461.059200       0.997005
    12476.606400       0.996561
    12492.192400       0.996087
    12507.817400       0.995585
    12523.481500       0.995054
    12539.185000       0.994495
    12554.927800       0.993909
    12570.710200       0.993295
    12586.532400       0.992654
    12602.394500       0.991986
    12618.296500       0.991292
    12634.238800       0.990573
    12650.221400       0.989827
    12666.244500       0.989057
    12682.308200       0.988261
    12698.412700       0.987441
    12714.558200       0.986597
    12730.744700       0.985730
    12746.972600       0.984839
    12763.241900       0.983925
    12779.552700       0.982989
    12795.905300       0.982031
    12812.299800       0.981051
    12828.736400       0.980050
    12845.215200       0.979028
    12861.736300       0.977985
    12878.300100       0.976923
    12894.906500       0.975841
    12911.555800       0.974740
    12928.248200       0.973620
    12944.983800       0.972482
    12961.762800       0.971325
    12978.585300       0.970152
    12995.451600       0.968961
    13012.361700       0.967754
    13029.316000       0.966530
    13046.314400       0.965291
    13063.357300       0.964037
    13080.444700       0.962768
    13097.576900       0.961484
    13114.754100       0.960186
    13131.976400       0.958875
    13149.243900       0.957551
    13166.556900       0.956214
    13183.915600       0.954865
    13201.320100       0.953504
    13218.770700       0.952132
    13236.267400       0.950749
    13253.810500       0.949356
    13271.400100       0.947953
    13289.036500       0.946540
    13306.719900       0.945119
    13324.450400       0.943689
    13342.228200       0.942250
    13360.053400       0.940804
    13377.926400       0.939351
    13395.847300       0.937891
    13413.816200       0.936425
    13431.833400       0.934953
    13449.899100       0.933476
    13468.013500       0.931993
    13486.176700       0.930506
    13504.388900       0.929015
    13522.650400       0.927520
    13540.961400       0.926023
    13559.322000       0.924522
    13577.732500       0.923019
    13596.193100       0.921515
    13614.703900       0.920009
    13633.265200       0.918502
    13651.877100       0.916994
    13670.540000       0.915486
    13689.253900       0.913979
    13708.019200       0.912473
    13726.836000       0.910967
    13745.704500       0.909463
    13764.624900       0.907962
    13783.597500       0.906462
    13802.622500       0.904966
    13821.700100       0.903473
    13840.830400       0.901983
    13860.013900       0.900498
    13879.250500       0.899017
    13898.540700       0.897541
    13917.884500       0.896071
    13937.282200       0.894606
    13956.734100       0.893147
    13976.240400       0.891695
    13995.801300       0.890249
    14015.417000       0.888811
    14035.087700       0.887381
    14054.813800       0.885958
    14074.595400       0.884544
    14094.432700       0.883138
    14114.326000       0.881742
    14134.275600       0.880355
    14154.281700       0.878978
    14174.344400       0.877611
    14194.464200       0.876254
    14214.641100       0.874908
    14234.875400       0.873574
    14255.167500       0.872250
    14275.517500       0.870939
    14295.925700       0.869640
    14316.392300       0.868353
    14336.917600       0.867079
    14357.501800       0.865817
    14378.145200       0.864570
    14398.848100       0.863335
    14419.610700       0.862115
    14440.433200       0.860909
    14461.316000       0.859717
    14482.259200       0.858540
    14503.263200       0.857377
    14524.328200       0.856230
    14545.454500       0.855099
    14566.642400       0.853983
    14587.892000       0.852882
    14609.203800       0.851798
    14630.577900       0.850731
    14652.014700       0.849680
    14673.514300       0.848645
    14695.077100       0.847628
    14716.703500       0.846627
    14738.393500       0.845644
    14760.147600       0.844679
    14781.966000       0.843731
    14803.849000       0.842801
    14825.796900       0.841889
    14847.809900       0.840995
    14869.888500       0.840119
    14892.032800       0.839262
    14914.243100       0.838423
    14936.519800       0.837603
    14958.863100       0.836801
    14981.273400       0.836018
    15003.750900       0.835254
    15026.296000       0.834509
    15048.909000       0.833783
    15071.590100       0.833077
    15094.339600       0.832389
    15117.158000       0.831721
    15140.045400       0.831072
    15163.002300       0.830442
    15186.028900       0.829831
    15209.125500       0.829240
    15232.292500       0.828668
    15255.530100       0.828116
    15278.838800       0.827583
    15302.218800       0.827069
    15325.670500       0.826574
    15349.194200       0.826098
    15372.790200       0.825642
    15396.458800       0.825205
    15420.200500       0.824787
    15444.015400       0.824388
    15467.904100       0.824007
    15491.866800       0.823646
    15515.903800       0.823303
    15540.015500       0.822979
    15564.202300       0.822673
    15588.464500       0.822385
    15612.802500       0.822116
    15637.216600       0.821865
    15661.707100       0.821631
    15686.274500       0.821416
    15710.919100       0.821218
    15735.641200       0.821037
    15760.441300       0.820873
    15785.319700       0.820726
    15810.276700       0.820596
    15835.312700       0.820483
    15860.428200       0.820386
    15885.623500       0.820304
    15910.899000       0.820239
    15936.255000       0.820189
    15961.691900       0.820154
    15987.210200       0.820135
    16012.810200       0.820130
    16038.492400       0.820139
    16064.257000       0.820162
    16090.104600       0.820199
    16116.035500       0.820250
    16142.050000       0.820313
    16168.148700       0.820389
    16194.332000       0.820478
    16220.600200       0.820579
    16246.953700       0.820691
    16273.393000       0.820814
    16299.918500       0.820949
    16326.530600       0.821093
    16353.229800       0.821248
    16380.016400       0.821412
    16406.890900       0.821586
    16433.853700       0.821768
    16460.905300       0.821959
    16488.046200       0.822157
    16515.276600       0.822363
    16542.597200       0.822576
    16570.008300       0.822795
    16597.510400       0.823020
    16625.103900       0.823250
    16652.789300       0.823486
    16680.567100       0.823725
    16708.437800       0.823969
    16736.401700       0.824216
    16764.459300       0.824465
    16792.611300       0.824717
    16820.857900       0.824971
    16849.199700       0.825226
    16877.637100       0.825481
    16906.170800       0.825736
    16934.801000       0.825990
    16963.528400       0.826244
    16992.353400       0.826495
    17021.276600       0.826744
    17050.298400       0.826990
    17079.419300       0.827232
    17108.639900       0.827470
    17137.960600       0.827703
    17167.382000       0.827930
    17196.904600       0.828151
    17226.528900       0.828365
    17256.255400       0.828571
    17286.084700       0.828769
    17316.017300       0.828958
    17346.053800       0.829138
    17376.194600       0.829307
    17406.440400       0.829465
    17436.791600       0.829611
    17467.248900       0.829744
    17497.812800       0.829865
    17528.483800       0.829971
    17559.262500       0.830063
    17590.149500       0.830140
    17621.145400       0.830200
    17652.250700       0.830244
    17683.466000       0.830270
