67,   67, MVIRI VIS channel from srf_MET7_2005348_2005349_1801-Release_S10EE_10.dat
Number of data points:
793
Wavenumber (cm-1)   Filter response
     8442.380800       0.000000
     8449.514200       0.000000
     8456.659600       0.000004
     8463.817200       0.000055
     8470.986900       0.000163
     8478.168700       0.000326
     8485.362700       0.000542
     8492.569000       0.000810
     8499.787500       0.001129
     8507.018300       0.001496
     8514.261400       0.001911
     8521.516800       0.002373
     8528.784600       0.002879
     8536.064900       0.003429
     8543.357500       0.004021
     8550.662700       0.004655
     8557.980300       0.005329
     8565.310500       0.006042
     8572.653200       0.006792
     8580.008600       0.007580
     8587.376600       0.008404
     8594.757200       0.009263
     8602.150500       0.010157
     8609.556600       0.011083
     8616.975400       0.012042
     8624.407100       0.013033
     8631.851500       0.014056
     8639.308900       0.015108
     8646.779100       0.016191
     8654.262200       0.017302
     8661.758300       0.018441
     8669.267400       0.019609
     8676.789600       0.020804
     8684.324800       0.022025
     8691.873100       0.023273
     8699.434500       0.024547
     8707.009100       0.025846
     8714.596900       0.027170
     8722.198000       0.028518
     8729.812300       0.029891
     8737.439900       0.031287
     8745.080900       0.032707
     8752.735200       0.034150
     8760.403000       0.035616
     8768.084200       0.037104
     8775.778900       0.038615
     8783.487000       0.040148
     8791.208800       0.041703
     8798.944100       0.043279
     8806.693100       0.044877
     8814.455700       0.046497
     8822.232000       0.048137
     8830.022100       0.049799
     8837.825900       0.051482
     8845.643500       0.053185
     8853.475000       0.054910
     8861.320300       0.056655
     8869.179600       0.058420
     8877.052800       0.060207
     8884.940000       0.062013
     8892.841300       0.063840
     8900.756600       0.065688
     8908.686000       0.067557
     8916.629500       0.069445
     8924.587200       0.071354
     8932.559200       0.073284
     8940.545400       0.075234
     8948.545900       0.077205
     8956.560700       0.079196
     8964.589900       0.081208
     8972.633500       0.083240
     8980.691500       0.085293
     8988.764000       0.087367
     8996.851100       0.089461
     9004.952700       0.091577
     9013.068900       0.093713
     9021.199800       0.095871
     9029.345400       0.098049
     9037.505600       0.100249
     9045.680700       0.102470
     9053.870500       0.104712
     9062.075200       0.106976
     9070.294800       0.109262
     9078.529300       0.111568
     9086.778700       0.113897
     9095.043200       0.116247
     9103.322700       0.118620
     9111.617300       0.121014
     9119.927000       0.123430
     9128.251900       0.125869
     9136.592100       0.128329
     9144.947400       0.130812
     9153.318100       0.133318
     9161.704100       0.135845
     9170.105500       0.138396
     9178.522300       0.140969
     9186.954500       0.143565
     9195.402300       0.146184
     9203.865600       0.148826
     9212.344500       0.151490
     9220.839100       0.154178
     9229.349300       0.156889
     9237.875300       0.159623
     9246.417000       0.162380
     9254.974500       0.165161
     9263.547900       0.167965
     9272.137200       0.170792
     9280.742500       0.173643
     9289.363700       0.176517
     9298.000900       0.179415
     9306.654300       0.182337
     9315.323700       0.185282
     9324.009300       0.188250
     9332.711200       0.191243
     9341.429200       0.194259
     9350.163600       0.197298
     9358.914400       0.200361
     9367.681500       0.203448
     9376.465100       0.206559
     9385.265100       0.209693
     9394.081700       0.212851
     9402.914900       0.216032
     9411.764700       0.219237
     9420.631200       0.222466
     9429.514400       0.225717
     9438.414300       0.228993
     9447.331100       0.232291
     9456.264800       0.235614
     9465.215300       0.238959
     9474.182900       0.242327
     9483.167400       0.245719
     9492.169000       0.249133
     9501.187600       0.252571
     9510.223500       0.256032
     9519.276500       0.259515
     9528.346800       0.263020
     9537.434400       0.266549
     9546.539400       0.270099
     9555.661700       0.273672
     9564.801500       0.277267
     9573.958800       0.280884
     9583.133700       0.284523
     9592.326100       0.288183
     9601.536200       0.291865
     9610.764100       0.295568
     9620.009600       0.299293
     9629.273000       0.303038
     9638.554200       0.306804
     9647.853400       0.310591
     9657.170400       0.314398
     9666.505600       0.318226
     9675.858700       0.322074
     9685.230000       0.325941
     9694.619500       0.329828
     9704.027200       0.333733
     9713.453100       0.337659
     9722.897400       0.341603
     9732.360100       0.345565
     9741.841200       0.349546
     9751.340800       0.353545
     9760.859000       0.357562
     9770.395700       0.361597
     9779.951100       0.365648
     9789.525200       0.369717
     9799.118100       0.373802
     9808.729800       0.377904
     9818.360300       0.382021
     9828.009800       0.386155
     9837.678300       0.390304
     9847.365800       0.394468
     9857.072400       0.398647
     9866.798200       0.402841
     9876.543200       0.407048
     9886.307500       0.411270
     9896.091000       0.415505
     9905.894000       0.419753
     9915.716400       0.424014
     9925.558300       0.428287
     9935.419800       0.432573
     9945.300800       0.436871
     9955.201600       0.441179
     9965.122100       0.445499
     9975.062300       0.449828
     9985.022500       0.454169
     9995.002500       0.458519
    10005.002500       0.462879
    10015.022500       0.467248
    10025.062700       0.471625
    10035.122900       0.476010
    10045.203400       0.480404
    10055.304200       0.484805
    10065.425300       0.489212
    10075.566800       0.493627
    10085.728700       0.498047
    10095.911200       0.502474
    10106.114200       0.506905
    10116.337900       0.511342
    10126.582300       0.515782
    10136.847400       0.520227
    10147.133400       0.524676
    10157.440300       0.529128
    10167.768200       0.533582
    10178.117000       0.538039
    10188.487000       0.542497
    10198.878100       0.546957
    10209.290500       0.551418
    10219.724100       0.555879
    10230.179000       0.560340
    10240.655400       0.564801
    10251.153300       0.569261
    10261.672700       0.573719
    10272.213700       0.578176
    10282.776300       0.582630
    10293.360800       0.587082
    10303.967000       0.591530
    10314.595200       0.595975
    10325.245200       0.600416
    10335.917300       0.604852
    10346.611500       0.609283
    10357.327800       0.613708
    10368.066400       0.618127
    10378.827200       0.622540
    10389.610400       0.626946
    10400.416000       0.631344
    10411.244100       0.635735
    10422.094800       0.640117
    10432.968200       0.644490
    10443.864200       0.648855
    10454.783100       0.653209
    10465.724800       0.657553
    10476.689400       0.661886
    10487.677000       0.666209
    10498.687700       0.670520
    10509.721500       0.674818
    10520.778500       0.679104
    10531.858900       0.683377
    10542.962600       0.687637
    10554.089700       0.691882
    10565.240400       0.696113
    10576.414600       0.700330
    10587.612500       0.704531
    10598.834100       0.708716
    10610.079600       0.712886
    10621.348900       0.717038
    10632.642200       0.721174
    10643.959600       0.725292
    10655.301000       0.729392
    10666.666700       0.733473
    10678.056600       0.737536
    10689.470900       0.741579
    10700.909600       0.745603
    10712.372800       0.749607
    10723.860600       0.753590
    10735.373100       0.757552
    10746.910300       0.761493
    10758.472300       0.765412
    10770.059200       0.769309
    10781.671200       0.773183
    10793.308100       0.777034
    10804.970300       0.780862
    10816.657700       0.784666
    10828.370300       0.788446
    10840.108400       0.792201
    10851.871900       0.795931
    10863.661100       0.799635
    10875.475800       0.803314
    10887.316300       0.806967
    10899.182600       0.810593
    10911.074700       0.814193
    10922.992900       0.817765
    10934.937100       0.821310
    10946.907500       0.824826
    10958.904100       0.828315
    10970.927000       0.831775
    10982.976400       0.835205
    10995.052200       0.838607
    11007.154700       0.841979
    11019.283700       0.845321
    11031.439600       0.848633
    11043.622300       0.851914
    11055.832000       0.855164
    11068.068600       0.858383
    11080.332400       0.861571
    11092.623400       0.864726
    11104.941700       0.867850
    11117.287400       0.870941
    11129.660500       0.874000
    11142.061300       0.877026
    11154.489700       0.880019
    11166.945800       0.882978
    11179.429800       0.885903
    11191.941800       0.888795
    11204.481800       0.891653
    11217.049900       0.894476
    11229.646300       0.897264
    11242.270900       0.900018
    11254.924000       0.902736
    11267.605600       0.905420
    11280.315800       0.908067
    11293.054800       0.910679
    11305.822500       0.913255
    11318.619100       0.915796
    11331.444800       0.918300
    11344.299500       0.920767
    11357.183400       0.923198
    11370.096600       0.925592
    11383.039300       0.927949
    11396.011400       0.930269
    11409.013100       0.932552
    11422.044500       0.934798
    11435.105800       0.937006
    11448.196900       0.939177
    11461.318100       0.941309
    11474.469300       0.943404
    11487.650800       0.945461
    11500.862600       0.947480
    11514.104800       0.949461
    11527.377500       0.951404
    11540.680900       0.953309
    11554.015000       0.955175
    11567.380000       0.957003
    11580.775900       0.958792
    11594.202900       0.960543
    11607.661100       0.962255
    11621.150500       0.963928
    11634.671300       0.965563
    11648.223600       0.967160
    11661.807600       0.968717
    11675.423200       0.970236
    11689.070700       0.971717
    11702.750100       0.973158
    11716.461600       0.974561
    11730.205300       0.975926
    11743.981200       0.977252
    11757.789500       0.978539
    11771.630400       0.979787
    11785.503800       0.980997
    11799.410000       0.982169
    11813.349100       0.983302
    11827.321100       0.984397
    11841.326200       0.985454
    11855.364600       0.986472
    11869.436200       0.987453
    11883.541300       0.988395
    11897.680000       0.989299
    11911.852300       0.990166
    11926.058400       0.990995
    11940.298500       0.991786
    11954.572600       0.992540
    11968.880900       0.993256
    11983.223500       0.993936
    11997.600500       0.994578
    12012.012000       0.995183
    12026.458200       0.995752
    12040.939200       0.996284
    12055.455100       0.996779
    12070.006000       0.997239
    12084.592100       0.997662
    12099.213600       0.998049
    12113.870400       0.998401
    12128.562800       0.998717
    12143.290800       0.998998
    12158.054700       0.999243
    12172.854500       0.999454
    12187.690400       0.999630
    12202.562500       0.999772
    12217.471000       0.999880
    12232.415900       0.999954
    12247.397400       0.999994
    12262.415700       1.000000
    12277.470800       0.999973
    12292.563000       0.999914
    12307.692300       0.999821
    12322.858900       0.999697
    12338.062900       0.999540
    12353.304500       0.999351
    12368.583800       0.999131
    12383.900900       0.998879
    12399.256000       0.998597
    12414.649300       0.998284
    12430.080800       0.997940
    12445.550700       0.997567
    12461.059200       0.997164
    12476.606400       0.996731
    12492.192400       0.996269
    12507.817400       0.995779
    12523.481500       0.995260
    12539.185000       0.994713
    12554.927800       0.994139
    12570.710200       0.993537
    12586.532400       0.992908
    12602.394500       0.992252
    12618.296500       0.991570
    12634.238800       0.990862
    12650.221400       0.990129
    12666.244500       0.989370
    12682.308200       0.988587
    12698.412700       0.987779
    12714.558200       0.986947
    12730.744700       0.986091
    12746.972600       0.985212
    12763.241900       0.984311
    12779.552700       0.983387
    12795.905300       0.982440
    12812.299800       0.981472
    12828.736400       0.980483
    12845.215200       0.979473
    12861.736300       0.978443
    12878.300100       0.977392
    12894.906500       0.976322
    12911.555800       0.975233
    12928.248200       0.974125
    12944.983800       0.972998
    12961.762800       0.971854
    12978.585300       0.970692
    12995.451600       0.969514
    13012.361700       0.968318
    13029.316000       0.967107
    13046.314400       0.965879
    13063.357300       0.964637
    13080.444700       0.963379
    13097.576900       0.962107
    13114.754100       0.960822
    13131.976400       0.959522
    13149.243900       0.958210
    13166.556900       0.956885
    13183.915600       0.955547
    13201.320100       0.954198
    13218.770700       0.952838
    13236.267400       0.951467
    13253.810500       0.950085
    13271.400100       0.948694
    13289.036500       0.947293
    13306.719900       0.945883
    13324.450400       0.944464
    13342.228200       0.943038
    13360.053400       0.941603
    13377.926400       0.940162
    13395.847300       0.938714
    13413.816200       0.937259
    13431.833400       0.935798
    13449.899100       0.934332
    13468.013500       0.932861
    13486.176700       0.931386
    13504.388900       0.929906
    13522.650400       0.928423
    13540.961400       0.926937
    13559.322000       0.925448
    13577.732500       0.923956
    13596.193100       0.922463
    13614.703900       0.920968
    13633.265200       0.919473
    13651.877100       0.917977
    13670.540000       0.916480
    13689.253900       0.914984
    13708.019200       0.913489
    13726.836000       0.911995
    13745.704500       0.910503
    13764.624900       0.909012
    13783.597500       0.907524
    13802.622500       0.906039
    13821.700100       0.904557
    13840.830400       0.903079
    13860.013900       0.901605
    13879.250500       0.900135
    13898.540700       0.898671
    13917.884500       0.897211
    13937.282200       0.895758
    13956.734100       0.894310
    13976.240400       0.892869
    13995.801300       0.891435
    14015.417000       0.890008
    14035.087700       0.888589
    14054.813800       0.887177
    14074.595400       0.885774
    14094.432700       0.884380
    14114.326000       0.882995
    14134.275600       0.881619
    14154.281700       0.880253
    14174.344400       0.878897
    14194.464200       0.877552
    14214.641100       0.876217
    14234.875400       0.874894
    14255.167500       0.873582
    14275.517500       0.872282
    14295.925700       0.870994
    14316.392300       0.869718
    14336.917600       0.868455
    14357.501800       0.867205
    14378.145200       0.865969
    14398.848100       0.864746
    14419.610700       0.863537
    14440.433200       0.862342
    14461.316000       0.861162
    14482.259200       0.859996
    14503.263200       0.858845
    14524.328200       0.857709
    14545.454500       0.856589
    14566.642400       0.855485
    14587.892000       0.854396
    14609.203800       0.853324
    14630.577900       0.852268
    14652.014700       0.851228
    14673.514300       0.850205
    14695.077100       0.849200
    14716.703500       0.848211
    14738.393500       0.847240
    14760.147600       0.846286
    14781.966000       0.845350
    14803.849000       0.844432
    14825.796900       0.843531
    14847.809900       0.842649
    14869.888500       0.841786
    14892.032800       0.840940
    14914.243100       0.840113
    14936.519800       0.839305
    14958.863100       0.838516
    14981.273400       0.837745
    15003.750900       0.836993
    15026.296000       0.836261
    15048.909000       0.835547
    15071.590100       0.834853
    15094.339600       0.834178
    15117.158000       0.833522
    15140.045400       0.832885
    15163.002300       0.832268
    15186.028900       0.831670
    15209.125500       0.831091
    15232.292500       0.830532
    15255.530100       0.829993
    15278.838800       0.829472
    15302.218800       0.828971
    15325.670500       0.828489
    15349.194200       0.828027
    15372.790200       0.827584
    15396.458800       0.827160
    15420.200500       0.826755
    15444.015400       0.826369
    15467.904100       0.826002
    15491.866800       0.825654
    15515.903800       0.825325
    15540.015500       0.825014
    15564.202300       0.824722
    15588.464500       0.824448
    15612.802500       0.824192
    15637.216600       0.823955
    15661.707100       0.823735
    15686.274500       0.823534
    15710.919100       0.823350
    15735.641200       0.823183
    15760.441300       0.823034
    15785.319700       0.822901
    15810.276700       0.822785
    15835.312700       0.822686
    15860.428200       0.822604
    15885.623500       0.822537
    15910.899000       0.822486
    15936.255000       0.822451
    15961.691900       0.822431
    15987.210200       0.822426
    16012.810200       0.822436
    16038.492400       0.822460
    16064.257000       0.822499
    16090.104600       0.822551
    16116.035500       0.822617
    16142.050000       0.822695
    16168.148700       0.822787
    16194.332000       0.822891
    16220.600200       0.823007
    16246.953700       0.823135
    16273.393000       0.823274
    16299.918500       0.823424
    16326.530600       0.823585
    16353.229800       0.823756
    16380.016400       0.823936
    16406.890900       0.824126
    16433.853700       0.824324
    16460.905300       0.824531
    16488.046200       0.824746
    16515.276600       0.824968
    16542.597200       0.825197
    16570.008300       0.825432
    16597.510400       0.825674
    16625.103900       0.825921
    16652.789300       0.826173
    16680.567100       0.826429
    16708.437800       0.826690
    16736.401700       0.826953
    16764.459300       0.827220
    16792.611300       0.827489
    16820.857900       0.827759
    16849.199700       0.828031
    16877.637100       0.828303
    16906.170800       0.828576
    16934.801000       0.828848
    16963.528400       0.829118
    16992.353400       0.829387
    17021.276600       0.829653
    17050.298400       0.829916
    17079.419300       0.830176
    17108.639900       0.830431
    17137.960600       0.830682
    17167.382000       0.830926
    17196.904600       0.831165
    17226.528900       0.831396
    17256.255400       0.831620
    17286.084700       0.831836
    17316.017300       0.832042
    17346.053800       0.832239
    17376.194600       0.832426
    17406.440400       0.832601
    17436.791600       0.832765
    17467.248900       0.832917
    17497.812800       0.833055
    17528.483800       0.833179
    17559.262500       0.833288
    17590.149500       0.833382
    17621.145400       0.833460
    17652.250700       0.833521
    17683.466000       0.833565
