78,   78, MVIRI VIS channel from srf_MET7_2007123_2007124_1801-Release_S10EE_10.dat
Number of data points:
793
Wavenumber (cm-1)   Filter response
     8442.380800       0.000000
     8449.514200       0.000000
     8456.659600       0.000004
     8463.817200       0.000055
     8470.986900       0.000164
     8478.168700       0.000328
     8485.362700       0.000546
     8492.569000       0.000816
     8499.787500       0.001137
     8507.018300       0.001507
     8514.261400       0.001926
     8521.516800       0.002390
     8528.784600       0.002900
     8536.064900       0.003454
     8543.357500       0.004051
     8550.662700       0.004689
     8557.980300       0.005368
     8565.310500       0.006086
     8572.653200       0.006842
     8580.008600       0.007635
     8587.376600       0.008465
     8594.757200       0.009330
     8602.150500       0.010230
     8609.556600       0.011163
     8616.975400       0.012129
     8624.407100       0.013127
     8631.851500       0.014157
     8639.308900       0.015217
     8646.779100       0.016306
     8654.262200       0.017425
     8661.758300       0.018573
     8669.267400       0.019748
     8676.789600       0.020951
     8684.324800       0.022181
     8691.873100       0.023438
     8699.434500       0.024720
     8707.009100       0.026028
     8714.596900       0.027361
     8722.198000       0.028718
     8729.812300       0.030100
     8737.439900       0.031506
     8745.080900       0.032935
     8752.735200       0.034387
     8760.403000       0.035863
     8768.084200       0.037361
     8775.778900       0.038882
     8783.487000       0.040425
     8791.208800       0.041990
     8798.944100       0.043577
     8806.693100       0.045185
     8814.455700       0.046815
     8822.232000       0.048466
     8830.022100       0.050138
     8837.825900       0.051832
     8845.643500       0.053546
     8853.475000       0.055281
     8861.320300       0.057037
     8869.179600       0.058814
     8877.052800       0.060611
     8884.940000       0.062429
     8892.841300       0.064268
     8900.756600       0.066127
     8908.686000       0.068007
     8916.629500       0.069907
     8924.587200       0.071828
     8932.559200       0.073769
     8940.545400       0.075731
     8948.545900       0.077713
     8956.560700       0.079716
     8964.589900       0.081740
     8972.633500       0.083784
     8980.691500       0.085850
     8988.764000       0.087936
     8996.851100       0.090042
     9004.952700       0.092171
     9013.068900       0.094319
     9021.199800       0.096489
     9029.345400       0.098681
     9037.505600       0.100893
     9045.680700       0.103126
     9053.870500       0.105381
     9062.075200       0.107658
     9070.294800       0.109956
     9078.529300       0.112276
     9086.778700       0.114618
     9095.043200       0.116981
     9103.322700       0.119366
     9111.617300       0.121774
     9119.927000       0.124203
     9128.251900       0.126655
     9136.592100       0.129129
     9144.947400       0.131625
     9153.318100       0.134144
     9161.704100       0.136685
     9170.105500       0.139250
     9178.522300       0.141837
     9186.954500       0.144446
     9195.402300       0.147079
     9203.865600       0.149734
     9212.344500       0.152413
     9220.839100       0.155114
     9229.349300       0.157839
     9237.875300       0.160587
     9246.417000       0.163358
     9254.974500       0.166153
     9263.547900       0.168971
     9272.137200       0.171812
     9280.742500       0.174677
     9289.363700       0.177566
     9298.000900       0.180478
     9306.654300       0.183414
     9315.323700       0.186373
     9324.009300       0.189356
     9332.711200       0.192363
     9341.429200       0.195393
     9350.163600       0.198447
     9358.914400       0.201524
     9367.681500       0.204626
     9376.465100       0.207751
     9385.265100       0.210899
     9394.081700       0.214072
     9402.914900       0.217268
     9411.764700       0.220487
     9420.631200       0.223730
     9429.514400       0.226997
     9438.414300       0.230287
     9447.331100       0.233600
     9456.264800       0.236937
     9465.215300       0.240297
     9474.182900       0.243680
     9483.167400       0.247086
     9492.169000       0.250515
     9501.187600       0.253968
     9510.223500       0.257443
     9519.276500       0.260940
     9528.346800       0.264461
     9537.434400       0.268004
     9546.539400       0.271569
     9555.661700       0.275156
     9564.801500       0.278766
     9573.958800       0.282397
     9583.133700       0.286051
     9592.326100       0.289725
     9601.536200       0.293422
     9610.764100       0.297139
     9620.009600       0.300878
     9629.273000       0.304638
     9638.554200       0.308419
     9647.853400       0.312220
     9657.170400       0.316041
     9666.505600       0.319883
     9675.858700       0.323745
     9685.230000       0.327626
     9694.619500       0.331527
     9704.027200       0.335446
     9713.453100       0.339386
     9722.897400       0.343344
     9732.360100       0.347320
     9741.841200       0.351314
     9751.340800       0.355327
     9760.859000       0.359357
     9770.395700       0.363405
     9779.951100       0.367470
     9789.525200       0.371552
     9799.118100       0.375651
     9808.729800       0.379765
     9818.360300       0.383896
     9828.009800       0.388043
     9837.678300       0.392205
     9847.365800       0.396382
     9857.072400       0.400573
     9866.798200       0.404779
     9876.543200       0.408999
     9886.307500       0.413233
     9896.091000       0.417481
     9905.894000       0.421741
     9915.716400       0.426014
     9925.558300       0.430299
     9935.419800       0.434596
     9945.300800       0.438905
     9955.201600       0.443225
     9965.122100       0.447556
     9975.062300       0.451897
     9985.022500       0.456248
     9995.002500       0.460610
    10005.002500       0.464980
    10015.022500       0.469359
    10025.062700       0.473747
    10035.122900       0.478142
    10045.203400       0.482546
    10055.304200       0.486956
    10065.425300       0.491374
    10075.566800       0.495798
    10085.728700       0.500228
    10095.911200       0.504663
    10106.114200       0.509104
    10116.337900       0.513549
    10126.582300       0.517999
    10136.847400       0.522452
    10147.133400       0.526909
    10157.440300       0.531369
    10167.768200       0.535831
    10178.117000       0.540295
    10188.487000       0.544761
    10198.878100       0.549228
    10209.290500       0.553696
    10219.724100       0.558164
    10230.179000       0.562632
    10240.655400       0.567099
    10251.153300       0.571565
    10261.672700       0.576030
    10272.213700       0.580492
    10282.776300       0.584952
    10293.360800       0.589409
    10303.967000       0.593863
    10314.595200       0.598312
    10325.245200       0.602757
    10335.917300       0.607198
    10346.611500       0.611633
    10357.327800       0.616062
    10368.066400       0.620485
    10378.827200       0.624901
    10389.610400       0.629310
    10400.416000       0.633712
    10411.244100       0.638105
    10422.094800       0.642489
    10432.968200       0.646865
    10443.864200       0.651231
    10454.783100       0.655587
    10465.724800       0.659932
    10476.689400       0.664267
    10487.677000       0.668590
    10498.687700       0.672901
    10509.721500       0.677200
    10520.778500       0.681486
    10531.858900       0.685759
    10542.962600       0.690018
    10554.089700       0.694263
    10565.240400       0.698493
    10576.414600       0.702708
    10587.612500       0.706907
    10598.834100       0.711091
    10610.079600       0.715258
    10621.348900       0.719408
    10632.642200       0.723541
    10643.959600       0.727656
    10655.301000       0.731752
    10666.666700       0.735830
    10678.056600       0.739889
    10689.470900       0.743928
    10700.909600       0.747948
    10712.372800       0.751947
    10723.860600       0.755925
    10735.373100       0.759882
    10746.910300       0.763817
    10758.472300       0.767730
    10770.059200       0.771621
    10781.671200       0.775488
    10793.308100       0.779332
    10804.970300       0.783153
    10816.657700       0.786950
    10828.370300       0.790722
    10840.108400       0.794469
    10851.871900       0.798190
    10863.661100       0.801887
    10875.475800       0.805557
    10887.316300       0.809200
    10899.182600       0.812817
    10911.074700       0.816407
    10922.992900       0.819969
    10934.937100       0.823504
    10946.907500       0.827010
    10958.904100       0.830487
    10970.927000       0.833936
    10982.976400       0.837355
    10995.052200       0.840745
    11007.154700       0.844105
    11019.283700       0.847434
    11031.439600       0.850734
    11043.622300       0.854002
    11055.832000       0.857239
    11068.068600       0.860444
    11080.332400       0.863618
    11092.623400       0.866760
    11104.941700       0.869869
    11117.287400       0.872946
    11129.660500       0.875990
    11142.061300       0.879000
    11154.489700       0.881978
    11166.945800       0.884921
    11179.429800       0.887831
    11191.941800       0.890706
    11204.481800       0.893547
    11217.049900       0.896353
    11229.646300       0.899125
    11242.270900       0.901861
    11254.924000       0.904562
    11267.605600       0.907227
    11280.315800       0.909857
    11293.054800       0.912450
    11305.822500       0.915008
    11318.619100       0.917529
    11331.444800       0.920014
    11344.299500       0.922462
    11357.183400       0.924873
    11370.096600       0.927247
    11383.039300       0.929584
    11396.011400       0.931884
    11409.013100       0.934146
    11422.044500       0.936371
    11435.105800       0.938558
    11448.196900       0.940707
    11461.318100       0.942818
    11474.469300       0.944891
    11487.650800       0.946926
    11500.862600       0.948923
    11514.104800       0.950881
    11527.377500       0.952801
    11540.680900       0.954683
    11554.015000       0.956526
    11567.380000       0.958330
    11580.775900       0.960096
    11594.202900       0.961823
    11607.661100       0.963511
    11621.150500       0.965160
    11634.671300       0.966771
    11648.223600       0.968343
    11661.807600       0.969875
    11675.423200       0.971369
    11689.070700       0.972825
    11702.750100       0.974241
    11716.461600       0.975618
    11730.205300       0.976957
    11743.981200       0.978257
    11757.789500       0.979518
    11771.630400       0.980740
    11785.503800       0.981924
    11799.410000       0.983069
    11813.349100       0.984175
    11827.321100       0.985243
    11841.326200       0.986272
    11855.364600       0.987264
    11869.436200       0.988216
    11883.541300       0.989131
    11897.680000       0.990008
    11911.852300       0.990847
    11926.058400       0.991647
    11940.298500       0.992411
    11954.572600       0.993136
    11968.880900       0.993824
    11983.223500       0.994475
    11997.600500       0.995088
    12012.012000       0.995665
    12026.458200       0.996205
    12040.939200       0.996707
    12055.455100       0.997174
    12070.006000       0.997604
    12084.592100       0.997998
    12099.213600       0.998355
    12113.870400       0.998678
    12128.562800       0.998964
    12143.290800       0.999215
    12158.054700       0.999431
    12172.854500       0.999612
    12187.690400       0.999758
    12202.562500       0.999870
    12217.471000       0.999947
    12232.415900       0.999990
    12247.397400       1.000000
    12262.415700       0.999976
    12277.470800       0.999919
    12292.563000       0.999829
    12307.692300       0.999706
    12322.858900       0.999550
    12338.062900       0.999363
    12353.304500       0.999143
    12368.583800       0.998892
    12383.900900       0.998610
    12399.256000       0.998296
    12414.649300       0.997952
    12430.080800       0.997578
    12445.550700       0.997173
    12461.059200       0.996739
    12476.606400       0.996275
    12492.192400       0.995782
    12507.817400       0.995261
    12523.481500       0.994710
    12539.185000       0.994132
    12554.927800       0.993526
    12570.710200       0.992893
    12586.532400       0.992233
    12602.394500       0.991546
    12618.296500       0.990833
    12634.238800       0.990093
    12650.221400       0.989328
    12666.244500       0.988538
    12682.308200       0.987724
    12698.412700       0.986884
    12714.558200       0.986021
    12730.744700       0.985134
    12746.972600       0.984224
    12763.241900       0.983291
    12779.552700       0.982335
    12795.905300       0.981358
    12812.299800       0.980359
    12828.736400       0.979338
    12845.215200       0.978297
    12861.736300       0.977235
    12878.300100       0.976153
    12894.906500       0.975052
    12911.555800       0.973931
    12928.248200       0.972792
    12944.983800       0.971635
    12961.762800       0.970459
    12978.585300       0.969266
    12995.451600       0.968057
    13012.361700       0.966830
    13029.316000       0.965587
    13046.314400       0.964329
    13063.357300       0.963056
    13080.444700       0.961767
    13097.576900       0.960464
    13114.754100       0.959148
    13131.976400       0.957817
    13149.243900       0.956474
    13166.556900       0.955118
    13183.915600       0.953750
    13201.320100       0.952371
    13218.770700       0.950980
    13236.267400       0.949578
    13253.810500       0.948166
    13271.400100       0.946744
    13289.036500       0.945312
    13306.719900       0.943872
    13324.450400       0.942423
    13342.228200       0.940966
    13360.053400       0.939501
    13377.926400       0.938030
    13395.847300       0.936551
    13413.816200       0.935066
    13431.833400       0.933575
    13449.899100       0.932079
    13468.013500       0.930578
    13486.176700       0.929073
    13504.388900       0.927563
    13522.650400       0.926050
    13540.961400       0.924534
    13559.322000       0.923015
    13577.732500       0.921494
    13596.193100       0.919971
    13614.703900       0.918446
    13633.265200       0.916921
    13651.877100       0.915395
    13670.540000       0.913869
    13689.253900       0.912343
    13708.019200       0.910819
    13726.836000       0.909295
    13745.704500       0.907773
    13764.624900       0.906253
    13783.597500       0.904735
    13802.622500       0.903221
    13821.700100       0.901710
    13840.830400       0.900202
    13860.013900       0.898698
    13879.250500       0.897200
    13898.540700       0.895705
    13917.884500       0.894217
    13937.282200       0.892734
    13956.734100       0.891257
    13976.240400       0.889786
    13995.801300       0.888323
    14015.417000       0.886867
    14035.087700       0.885418
    14054.813800       0.883977
    14074.595400       0.882545
    14094.432700       0.881121
    14114.326000       0.879707
    14134.275600       0.878302
    14154.281700       0.876906
    14174.344400       0.875521
    14194.464200       0.874147
    14214.641100       0.872783
    14234.875400       0.871430
    14255.167500       0.870089
    14275.517500       0.868759
    14295.925700       0.867441
    14316.392300       0.866136
    14336.917600       0.864844
    14357.501800       0.863565
    14378.145200       0.862298
    14398.848100       0.861046
    14419.610700       0.859807
    14440.433200       0.858582
    14461.316000       0.857372
    14482.259200       0.856177
    14503.263200       0.854996
    14524.328200       0.853830
    14545.454500       0.852680
    14566.642400       0.851546
    14587.892000       0.850427
    14609.203800       0.849324
    14630.577900       0.848238
    14652.014700       0.847168
    14673.514300       0.846115
    14695.077100       0.845079
    14716.703500       0.844060
    14738.393500       0.843058
    14760.147600       0.842073
    14781.966000       0.841106
    14803.849000       0.840157
    14825.796900       0.839226
    14847.809900       0.838313
    14869.888500       0.837418
    14892.032800       0.836541
    14914.243100       0.835683
    14936.519800       0.834843
    14958.863100       0.834022
    14981.273400       0.833220
    15003.750900       0.832436
    15026.296000       0.831671
    15048.909000       0.830926
    15071.590100       0.830199
    15094.339600       0.829491
    15117.158000       0.828803
    15140.045400       0.828134
    15163.002300       0.827484
    15186.028900       0.826853
    15209.125500       0.826241
    15232.292500       0.825649
    15255.530100       0.825076
    15278.838800       0.824522
    15302.218800       0.823987
    15325.670500       0.823471
    15349.194200       0.822975
    15372.790200       0.822498
    15396.458800       0.822039
    15420.200500       0.821600
    15444.015400       0.821179
    15467.904100       0.820777
    15491.866800       0.820394
    15515.903800       0.820030
    15540.015500       0.819684
    15564.202300       0.819356
    15588.464500       0.819047
    15612.802500       0.818755
    15637.216600       0.818482
    15661.707100       0.818226
    15686.274500       0.817988
    15710.919100       0.817767
    15735.641200       0.817563
    15760.441300       0.817377
    15785.319700       0.817207
    15810.276700       0.817054
    15835.312700       0.816917
    15860.428200       0.816797
    15885.623500       0.816692
    15910.899000       0.816603
    15936.255000       0.816530
    15961.691900       0.816471
    15987.210200       0.816427
    16012.810200       0.816398
    16038.492400       0.816383
    16064.257000       0.816382
    16090.104600       0.816395
    16116.035500       0.816421
    16142.050000       0.816460
    16168.148700       0.816511
    16194.332000       0.816575
    16220.600200       0.816651
    16246.953700       0.816738
    16273.393000       0.816836
    16299.918500       0.816945
    16326.530600       0.817064
    16353.229800       0.817193
    16380.016400       0.817332
    16406.890900       0.817480
    16433.853700       0.817636
    16460.905300       0.817801
    16488.046200       0.817973
    16515.276600       0.818152
    16542.597200       0.818339
    16570.008300       0.818531
    16597.510400       0.818730
    16625.103900       0.818934
    16652.789300       0.819142
    16680.567100       0.819355
    16708.437800       0.819572
    16736.401700       0.819791
    16764.459300       0.820014
    16792.611300       0.820239
    16820.857900       0.820465
    16849.199700       0.820692
    16877.637100       0.820920
    16906.170800       0.821147
    16934.801000       0.821374
    16963.528400       0.821600
    16992.353400       0.821824
    17021.276600       0.822045
    17050.298400       0.822263
    17079.419300       0.822477
    17108.639900       0.822687
    17137.960600       0.822892
    17167.382000       0.823091
    17196.904600       0.823283
    17226.528900       0.823469
    17256.255400       0.823647
    17286.084700       0.823817
    17316.017300       0.823978
    17346.053800       0.824129
    17376.194600       0.824270
    17406.440400       0.824399
    17436.791600       0.824517
    17467.248900       0.824623
    17497.812800       0.824715
    17528.483800       0.824793
    17559.262500       0.824857
    17590.149500       0.824905
    17621.145400       0.824937
    17652.250700       0.824953
    17683.466000       0.824950
