110,   110, MVIRI VIS channel from srf_MET5_2004348_2004349_1801-Release_S10EL_10.dat
Number of data points:
806
Wavenumber (cm-1)   Filter response
     8350.730700       0.000000
     8357.710000       0.000000
     8364.701000       0.000000
     8371.703600       0.000002
     8378.718100       0.000004
     8385.744200       0.000009
     8392.782200       0.000017
     8399.832000       0.000028
     8406.893700       0.000042
     8413.967200       0.000062
     8421.052600       0.000085
     8428.150000       0.000114
     8435.259400       0.000149
     8442.380800       0.000191
     8449.514200       0.000238
     8456.659600       0.000293
     8463.817200       0.000355
     8470.986900       0.000426
     8478.168700       0.000504
     8485.362700       0.000591
     8492.569000       0.000687
     8499.787500       0.000793
     8507.018300       0.000907
     8514.261400       0.001032
     8521.516800       0.001168
     8528.784600       0.001313
     8536.064900       0.001470
     8543.357500       0.001637
     8550.662700       0.001817
     8557.980300       0.002007
     8565.310500       0.002210
     8572.653200       0.002425
     8580.008600       0.002652
     8587.376600       0.002891
     8594.757200       0.003144
     8602.150500       0.003410
     8609.556600       0.003688
     8616.975400       0.003981
     8624.407100       0.004287
     8631.851500       0.004606
     8639.308900       0.004940
     8646.779100       0.005288
     8654.262200       0.005650
     8661.758300       0.006027
     8669.267400       0.006419
     8676.789600       0.006825
     8684.324800       0.007247
     8691.873100       0.007683
     8699.434500       0.008135
     8707.009100       0.008603
     8714.596900       0.009086
     8722.198000       0.009585
     8729.812300       0.010100
     8737.439900       0.010630
     8745.080900       0.011178
     8752.735200       0.011741
     8760.403000       0.012321
     8768.084200       0.012917
     8775.778900       0.013530
     8783.487000       0.014160
     8791.208800       0.014807
     8798.944100       0.015470
     8806.693100       0.016151
     8814.455700       0.016849
     8822.232000       0.017565
     8830.022100       0.018298
     8837.825900       0.019049
     8845.643500       0.019818
     8853.475000       0.020604
     8861.320300       0.021409
     8869.179600       0.022231
     8877.052800       0.023072
     8884.940000       0.023930
     8892.841300       0.024808
     8900.756600       0.025703
     8908.686000       0.026618
     8916.629500       0.027551
     8924.587200       0.028503
     8932.559200       0.029473
     8940.545400       0.030463
     8948.545900       0.031472
     8956.560700       0.032501
     8964.589900       0.033548
     8972.633500       0.034615
     8980.691500       0.035701
     8988.764000       0.036808
     8996.851100       0.037934
     9004.952700       0.039079
     9013.068900       0.040245
     9021.199800       0.041430
     9029.345400       0.042636
     9037.505600       0.043862
     9045.680700       0.045109
     9053.870500       0.046375
     9062.075200       0.047662
     9070.294800       0.048970
     9078.529300       0.050299
     9086.778700       0.051648
     9095.043200       0.053019
     9103.322700       0.054410
     9111.617300       0.055822
     9119.927000       0.057256
     9128.251900       0.058711
     9136.592100       0.060187
     9144.947400       0.061685
     9153.318100       0.063204
     9161.704100       0.064745
     9170.105500       0.066307
     9178.522300       0.067892
     9186.954500       0.069498
     9195.402300       0.071126
     9203.865600       0.072776
     9212.344500       0.074449
     9220.839100       0.076144
     9229.349300       0.077860
     9237.875300       0.079600
     9246.417000       0.081362
     9254.974500       0.083146
     9263.547900       0.084953
     9272.137200       0.086782
     9280.742500       0.088635
     9289.363700       0.090510
     9298.000900       0.092408
     9306.654300       0.094329
     9315.323700       0.096273
     9324.009300       0.098241
     9332.711200       0.100231
     9341.429200       0.102244
     9350.163600       0.104281
     9358.914400       0.106341
     9367.681500       0.108425
     9376.465100       0.110532
     9385.265100       0.112662
     9394.081700       0.114816
     9402.914900       0.116993
     9411.764700       0.119194
     9420.631200       0.121419
     9429.514400       0.123667
     9438.414300       0.125939
     9447.331100       0.128235
     9456.264800       0.130555
     9465.215300       0.132898
     9474.182900       0.135265
     9483.167400       0.137656
     9492.169000       0.140071
     9501.187600       0.142509
     9510.223500       0.144972
     9519.276500       0.147458
     9528.346800       0.149969
     9537.434400       0.152503
     9546.539400       0.155061
     9555.661700       0.157643
     9564.801500       0.160249
     9573.958800       0.162878
     9583.133700       0.165532
     9592.326100       0.168209
     9601.536200       0.170911
     9610.764100       0.173635
     9620.009600       0.176384
     9629.273000       0.179157
     9638.554200       0.181953
     9647.853400       0.184773
     9657.170400       0.187616
     9666.505600       0.190483
     9675.858700       0.193374
     9685.230000       0.196287
     9694.619500       0.199225
     9704.027200       0.202185
     9713.453100       0.205169
     9722.897400       0.208176
     9732.360100       0.211206
     9741.841200       0.214260
     9751.340800       0.217336
     9760.859000       0.220435
     9770.395700       0.223557
     9779.951100       0.226701
     9789.525200       0.229869
     9799.118100       0.233059
     9808.729800       0.236270
     9818.360300       0.239505
     9828.009800       0.242761
     9837.678300       0.246040
     9847.365800       0.249340
     9857.072400       0.252662
     9866.798200       0.256006
     9876.543200       0.259371
     9886.307500       0.262758
     9896.091000       0.266166
     9905.894000       0.269595
     9915.716400       0.273045
     9925.558300       0.276516
     9935.419800       0.280008
     9945.300800       0.283520
     9955.201600       0.287051
     9965.122100       0.290604
     9975.062300       0.294176
     9985.022500       0.297768
     9995.002500       0.301379
    10005.002500       0.305010
    10015.022500       0.308660
    10025.062700       0.312329
    10035.122900       0.316016
    10045.203400       0.319723
    10055.304200       0.323447
    10065.425300       0.327190
    10075.566800       0.330950
    10085.728700       0.334729
    10095.911200       0.338525
    10106.114200       0.342337
    10116.337900       0.346167
    10126.582300       0.350014
    10136.847400       0.353877
    10147.133400       0.357756
    10157.440300       0.361651
    10167.768200       0.365562
    10178.117000       0.369489
    10188.487000       0.373430
    10198.878100       0.377387
    10209.290500       0.381358
    10219.724100       0.385344
    10230.179000       0.389343
    10240.655400       0.393357
    10251.153300       0.397384
    10261.672700       0.401424
    10272.213700       0.405477
    10282.776300       0.409542
    10293.360800       0.413620
    10303.967000       0.417710
    10314.595200       0.421812
    10325.245200       0.425925
    10335.917300       0.430049
    10346.611500       0.434184
    10357.327800       0.438329
    10368.066400       0.442485
    10378.827200       0.446650
    10389.610400       0.450825
    10400.416000       0.455008
    10411.244100       0.459201
    10422.094800       0.463401
    10432.968200       0.467610
    10443.864200       0.471827
    10454.783100       0.476051
    10465.724800       0.480282
    10476.689400       0.484519
    10487.677000       0.488763
    10498.687700       0.493013
    10509.721500       0.497268
    10520.778500       0.501529
    10531.858900       0.505794
    10542.962600       0.510064
    10554.089700       0.514338
    10565.240400       0.518616
    10576.414600       0.522896
    10587.612500       0.527180
    10598.834100       0.531467
    10610.079600       0.535755
    10621.348900       0.540046
    10632.642200       0.544337
    10643.959600       0.548630
    10655.301000       0.552923
    10666.666700       0.557217
    10678.056600       0.561510
    10689.470900       0.565803
    10700.909600       0.570095
    10712.372800       0.574385
    10723.860600       0.578674
    10735.373100       0.582961
    10746.910300       0.587245
    10758.472300       0.591525
    10770.059200       0.595803
    10781.671200       0.600077
    10793.308100       0.604346
    10804.970300       0.608611
    10816.657700       0.612871
    10828.370300       0.617126
    10840.108400       0.621374
    10851.871900       0.625617
    10863.661100       0.629853
    10875.475800       0.634081
    10887.316300       0.638302
    10899.182600       0.642516
    10911.074700       0.646721
    10922.992900       0.650917
    10934.937100       0.655104
    10946.907500       0.659282
    10958.904100       0.663450
    10970.927000       0.667607
    10982.976400       0.671754
    10995.052200       0.675890
    11007.154700       0.680014
    11019.283700       0.684125
    11031.439600       0.688225
    11043.622300       0.692312
    11055.832000       0.696386
    11068.068600       0.700446
    11080.332400       0.704492
    11092.623400       0.708524
    11104.941700       0.712541
    11117.287400       0.716543
    11129.660500       0.720529
    11142.061300       0.724499
    11154.489700       0.728453
    11166.945800       0.732390
    11179.429800       0.736310
    11191.941800       0.740213
    11204.481800       0.744097
    11217.049900       0.747963
    11229.646300       0.751811
    11242.270900       0.755639
    11254.924000       0.759449
    11267.605600       0.763238
    11280.315800       0.767007
    11293.054800       0.770755
    11305.822500       0.774483
    11318.619100       0.778190
    11331.444800       0.781874
    11344.299500       0.785537
    11357.183400       0.789177
    11370.096600       0.792795
    11383.039300       0.796390
    11396.011400       0.799961
    11409.013100       0.803508
    11422.044500       0.807032
    11435.105800       0.810531
    11448.196900       0.814005
    11461.318100       0.817454
    11474.469300       0.820878
    11487.650800       0.824276
    11500.862600       0.827648
    11514.104800       0.830993
    11527.377500       0.834312
    11540.680900       0.837604
    11554.015000       0.840869
    11567.380000       0.844106
    11580.775900       0.847315
    11594.202900       0.850496
    11607.661100       0.853649
    11621.150500       0.856773
    11634.671300       0.859867
    11648.223600       0.862933
    11661.807600       0.865969
    11675.423200       0.868975
    11689.070700       0.871951
    11702.750100       0.874897
    11716.461600       0.877812
    11730.205300       0.880696
    11743.981200       0.883550
    11757.789500       0.886371
    11771.630400       0.889162
    11785.503800       0.891920
    11799.410000       0.894647
    11813.349100       0.897342
    11827.321100       0.900004
    11841.326200       0.902633
    11855.364600       0.905229
    11869.436200       0.907793
    11883.541300       0.910323
    11897.680000       0.912820
    11911.852300       0.915284
    11926.058400       0.917713
    11940.298500       0.920109
    11954.572600       0.922471
    11968.880900       0.924798
    11983.223500       0.927091
    11997.600500       0.929350
    12012.012000       0.931574
    12026.458200       0.933763
    12040.939200       0.935917
    12055.455100       0.938036
    12070.006000       0.940120
    12084.592100       0.942169
    12099.213600       0.944182
    12113.870400       0.946160
    12128.562800       0.948102
    12143.290800       0.950009
    12158.054700       0.951880
    12172.854500       0.953715
    12187.690400       0.955514
    12202.562500       0.957277
    12217.471000       0.959004
    12232.415900       0.960696
    12247.397400       0.962351
    12262.415700       0.963969
    12277.470800       0.965552
    12292.563000       0.967099
    12307.692300       0.968609
    12322.858900       0.970083
    12338.062900       0.971521
    12353.304500       0.972922
    12368.583800       0.974288
    12383.900900       0.975617
    12399.256000       0.976910
    12414.649300       0.978166
    12430.080800       0.979387
    12445.550700       0.980571
    12461.059200       0.981720
    12476.606400       0.982832
    12492.192400       0.983908
    12507.817400       0.984949
    12523.481500       0.985953
    12539.185000       0.986922
    12554.927800       0.987855
    12570.710200       0.988752
    12586.532400       0.989614
    12602.394500       0.990441
    12618.296500       0.991232
    12634.238800       0.991988
    12650.221400       0.992708
    12666.244500       0.993394
    12682.308200       0.994045
    12698.412700       0.994661
    12714.558200       0.995243
    12730.744700       0.995790
    12746.972600       0.996303
    12763.241900       0.996782
    12779.552700       0.997226
    12795.905300       0.997637
    12812.299800       0.998014
    12828.736400       0.998358
    12845.215200       0.998669
    12861.736300       0.998946
    12878.300100       0.999191
    12894.906500       0.999403
    12911.555800       0.999582
    12928.248200       0.999729
    12944.983800       0.999845
    12961.762800       0.999928
    12978.585300       0.999980
    12995.451600       1.000000
    13012.361700       0.999989
    13029.316000       0.999948
    13046.314400       0.999875
    13063.357300       0.999773
    13080.444700       0.999640
    13097.576900       0.999478
    13114.754100       0.999285
    13131.976400       0.999064
    13149.243900       0.998814
    13166.556900       0.998535
    13183.915600       0.998227
    13201.320100       0.997891
    13218.770700       0.997528
    13236.267400       0.997137
    13253.810500       0.996718
    13271.400100       0.996273
    13289.036500       0.995801
    13306.719900       0.995303
    13324.450400       0.994779
    13342.228200       0.994229
    13360.053400       0.993654
    13377.926400       0.993054
    13395.847300       0.992429
    13413.816200       0.991780
    13431.833400       0.991107
    13449.899100       0.990411
    13468.013500       0.989691
    13486.176700       0.988949
    13504.388900       0.988184
    13522.650400       0.987396
    13540.961400       0.986588
    13559.322000       0.985757
    13577.732500       0.984906
    13596.193100       0.984034
    13614.703900       0.983142
    13633.265200       0.982229
    13651.877100       0.981298
    13670.540000       0.980347
    13689.253900       0.979377
    13708.019200       0.978390
    13726.836000       0.977384
    13745.704500       0.976361
    13764.624900       0.975320
    13783.597500       0.974263
    13802.622500       0.973190
    13821.700100       0.972100
    13840.830400       0.970995
    13860.013900       0.969875
    13879.250500       0.968741
    13898.540700       0.967592
    13917.884500       0.966429
    13937.282200       0.965253
    13956.734100       0.964063
    13976.240400       0.962861
    13995.801300       0.961647
    14015.417000       0.960421
    14035.087700       0.959184
    14054.813800       0.957935
    14074.595400       0.956677
    14094.432700       0.955408
    14114.326000       0.954129
    14134.275600       0.952841
    14154.281700       0.951544
    14174.344400       0.950239
    14194.464200       0.948926
    14214.641100       0.947605
    14234.875400       0.946277
    14255.167500       0.944943
    14275.517500       0.943602
    14295.925700       0.942255
    14316.392300       0.940902
    14336.917600       0.939545
    14357.501800       0.938182
    14378.145200       0.936816
    14398.848100       0.935446
    14419.610700       0.934072
    14440.433200       0.932695
    14461.316000       0.931316
    14482.259200       0.929934
    14503.263200       0.928550
    14524.328200       0.927165
    14545.454500       0.925779
    14566.642400       0.924393
    14587.892000       0.923006
    14609.203800       0.921619
    14630.577900       0.920233
    14652.014700       0.918848
    14673.514300       0.917464
    14695.077100       0.916082
    14716.703500       0.914702
    14738.393500       0.913325
    14760.147600       0.911950
    14781.966000       0.910578
    14803.849000       0.909210
    14825.796900       0.907846
    14847.809900       0.906486
    14869.888500       0.905131
    14892.032800       0.903780
    14914.243100       0.902435
    14936.519800       0.901096
    14958.863100       0.899762
    14981.273400       0.898435
    15003.750900       0.897115
    15026.296000       0.895801
    15048.909000       0.894495
    15071.590100       0.893196
    15094.339600       0.891905
    15117.158000       0.890622
    15140.045400       0.889348
    15163.002300       0.888083
    15186.028900       0.886826
    15209.125500       0.885579
    15232.292500       0.884342
    15255.530100       0.883114
    15278.838800       0.881897
    15302.218800       0.880690
    15325.670500       0.879493
    15349.194200       0.878308
    15372.790200       0.877133
    15396.458800       0.875970
    15420.200500       0.874819
    15444.015400       0.873679
    15467.904100       0.872551
    15491.866800       0.871436
    15515.903800       0.870332
    15540.015500       0.869242
    15564.202300       0.868164
    15588.464500       0.867099
    15612.802500       0.866047
    15637.216600       0.865008
    15661.707100       0.863983
    15686.274500       0.862972
    15710.919100       0.861974
    15735.641200       0.860990
    15760.441300       0.860019
    15785.319700       0.859063
    15810.276700       0.858121
    15835.312700       0.857193
    15860.428200       0.856280
    15885.623500       0.855381
    15910.899000       0.854496
    15936.255000       0.853626
    15961.691900       0.852771
    15987.210200       0.851930
    16012.810200       0.851104
    16038.492400       0.850293
    16064.257000       0.849496
    16090.104600       0.848714
    16116.035500       0.847947
    16142.050000       0.847195
    16168.148700       0.846457
    16194.332000       0.845734
    16220.600200       0.845026
    16246.953700       0.844332
    16273.393000       0.843653
    16299.918500       0.842988
    16326.530600       0.842338
    16353.229800       0.841702
    16380.016400       0.841080
    16406.890900       0.840473
    16433.853700       0.839879
    16460.905300       0.839300
    16488.046200       0.838734
    16515.276600       0.838182
    16542.597200       0.837643
    16570.008300       0.837118
    16597.510400       0.836605
    16625.103900       0.836106
    16652.789300       0.835620
    16680.567100       0.835146
    16708.437800       0.834684
    16736.401700       0.834235
    16764.459300       0.833798
    16792.611300       0.833372
    16820.857900       0.832958
    16849.199700       0.832555
    16877.637100       0.832162
    16906.170800       0.831781
    16934.801000       0.831410
    16963.528400       0.831049
    16992.353400       0.830697
    17021.276600       0.830355
    17050.298400       0.830022
    17079.419300       0.829698
    17108.639900       0.829382
    17137.960600       0.829074
    17167.382000       0.828774
    17196.904600       0.828481
    17226.528900       0.828195
    17256.255400       0.827916
    17286.084700       0.827642
