9, GOES 6.95um ABI FM4 SRF CWG processed March 10, 2016
Number of data points:
2105
Wavenumber (cm-1)   Filter response
     1342.600000       0.001010
     1342.700000       0.001070
     1342.800000       0.001189
     1342.900000       0.001249
     1343.000000       0.001290
     1343.100000       0.001323
     1343.200000       0.001354
     1343.300000       0.001387
     1343.400000       0.001420
     1343.500000       0.001454
     1343.600000       0.001487
     1343.700000       0.001517
     1343.800000       0.001537
     1343.900000       0.001551
     1344.000000       0.001557
     1344.100000       0.001559
     1344.200000       0.001559
     1344.300000       0.001558
     1344.400000       0.001556
     1344.500000       0.001553
     1344.600000       0.001550
     1344.700000       0.001546
     1344.800000       0.001540
     1344.900000       0.001539
     1345.000000       0.001537
     1345.100000       0.001537
     1345.200000       0.001540
     1345.300000       0.001563
     1345.400000       0.001592
     1345.500000       0.001626
     1345.600000       0.001663
     1345.700000       0.001701
     1345.800000       0.001739
     1345.900000       0.001778
     1346.000000       0.001816
     1346.100000       0.001852
     1346.200000       0.001887
     1346.300000       0.001919
     1346.400000       0.001948
     1346.500000       0.001972
     1346.600000       0.001989
     1346.700000       0.001989
     1346.800000       0.001987
     1346.900000       0.001973
     1347.000000       0.001953
     1347.100000       0.001933
     1347.200000       0.001914
     1347.300000       0.001895
     1347.400000       0.001879
     1347.500000       0.001864
     1347.600000       0.001853
     1347.700000       0.001843
     1347.800000       0.001836
     1347.900000       0.001832
     1348.000000       0.001833
     1348.100000       0.001837
     1348.200000       0.001851
     1348.300000       0.001870
     1348.400000       0.001894
     1348.500000       0.001916
     1348.600000       0.001938
     1348.700000       0.001955
     1348.800000       0.001970
     1348.900000       0.001981
     1349.000000       0.001989
     1349.100000       0.001994
     1349.200000       0.001996
     1349.300000       0.001998
     1349.400000       0.001998
     1349.500000       0.001999
     1349.600000       0.001999
     1349.700000       0.002001
     1349.800000       0.002006
     1349.900000       0.002012
     1350.000000       0.002021
     1350.100000       0.002031
     1350.200000       0.002045
     1350.300000       0.002059
     1350.400000       0.002076
     1350.500000       0.002093
     1350.600000       0.002112
     1350.700000       0.002130
     1350.800000       0.002147
     1350.900000       0.002164
     1351.000000       0.002179
     1351.100000       0.002192
     1351.200000       0.002204
     1351.300000       0.002214
     1351.400000       0.002223
     1351.500000       0.002231
     1351.600000       0.002238
     1351.700000       0.002246
     1351.800000       0.002255
     1351.900000       0.002266
     1352.000000       0.002278
     1352.100000       0.002292
     1352.200000       0.002309
     1352.300000       0.002329
     1352.400000       0.002351
     1352.500000       0.002375
     1352.600000       0.002401
     1352.700000       0.002428
     1352.800000       0.002456
     1352.900000       0.002483
     1353.000000       0.002509
     1353.100000       0.002534
     1353.200000       0.002555
     1353.300000       0.002575
     1353.400000       0.002590
     1353.500000       0.002602
     1353.600000       0.002611
     1353.700000       0.002616
     1353.800000       0.002620
     1353.900000       0.002625
     1354.000000       0.002633
     1354.100000       0.002647
     1354.200000       0.002664
     1354.300000       0.002684
     1354.400000       0.002706
     1354.500000       0.002730
     1354.600000       0.002756
     1354.700000       0.002784
     1354.800000       0.002815
     1354.900000       0.002848
     1355.000000       0.002882
     1355.100000       0.002918
     1355.200000       0.002954
     1355.300000       0.002991
     1355.400000       0.003023
     1355.500000       0.003046
     1355.600000       0.003063
     1355.700000       0.003076
     1355.800000       0.003087
     1355.900000       0.003098
     1356.000000       0.003107
     1356.100000       0.003116
     1356.200000       0.003126
     1356.300000       0.003137
     1356.400000       0.003149
     1356.500000       0.003163
     1356.600000       0.003179
     1356.700000       0.003198
     1356.800000       0.003219
     1356.900000       0.003241
     1357.000000       0.003265
     1357.100000       0.003289
     1357.200000       0.003314
     1357.300000       0.003337
     1357.400000       0.003358
     1357.500000       0.003375
     1357.600000       0.003390
     1357.700000       0.003400
     1357.800000       0.003404
     1357.900000       0.003404
     1358.000000       0.003402
     1358.100000       0.003391
     1358.200000       0.003380
     1358.300000       0.003367
     1358.400000       0.003359
     1358.500000       0.003353
     1358.600000       0.003354
     1358.700000       0.003358
     1358.800000       0.003366
     1358.900000       0.003378
     1359.000000       0.003394
     1359.100000       0.003415
     1359.200000       0.003442
     1359.300000       0.003474
     1359.400000       0.003510
     1359.500000       0.003549
     1359.600000       0.003591
     1359.700000       0.003635
     1359.800000       0.003677
     1359.900000       0.003712
     1360.000000       0.003740
     1360.100000       0.003763
     1360.200000       0.003782
     1360.300000       0.003797
     1360.400000       0.003807
     1360.500000       0.003813
     1360.600000       0.003814
     1360.700000       0.003814
     1360.800000       0.003813
     1360.900000       0.003810
     1361.000000       0.003808
     1361.100000       0.003807
     1361.200000       0.003809
     1361.300000       0.003815
     1361.400000       0.003830
     1361.500000       0.003851
     1361.600000       0.003877
     1361.700000       0.003907
     1361.800000       0.003939
     1361.900000       0.003971
     1362.000000       0.004004
     1362.100000       0.004036
     1362.200000       0.004067
     1362.300000       0.004096
     1362.400000       0.004123
     1362.500000       0.004145
     1362.600000       0.004165
     1362.700000       0.004182
     1362.800000       0.004197
     1362.900000       0.004210
     1363.000000       0.004223
     1363.100000       0.004236
     1363.200000       0.004251
     1363.300000       0.004268
     1363.400000       0.004287
     1363.500000       0.004310
     1363.600000       0.004340
     1363.700000       0.004368
     1363.800000       0.004404
     1363.900000       0.004443
     1364.000000       0.004485
     1364.100000       0.004529
     1364.200000       0.004575
     1364.300000       0.004620
     1364.400000       0.004675
     1364.500000       0.004725
     1364.600000       0.004774
     1364.700000       0.004819
     1364.800000       0.004859
     1364.900000       0.004892
     1365.000000       0.004920
     1365.100000       0.004941
     1365.200000       0.004958
     1365.300000       0.004972
     1365.400000       0.004984
     1365.500000       0.004994
     1365.600000       0.005007
     1365.700000       0.005022
     1365.800000       0.005042
     1365.900000       0.005068
     1366.000000       0.005099
     1366.100000       0.005136
     1366.200000       0.005179
     1366.300000       0.005228
     1366.400000       0.005284
     1366.500000       0.005346
     1366.600000       0.005411
     1366.700000       0.005478
     1366.800000       0.005547
     1366.900000       0.005616
     1367.000000       0.005684
     1367.100000       0.005751
     1367.200000       0.005818
     1367.300000       0.005889
     1367.400000       0.005965
     1367.500000       0.006043
     1367.600000       0.006123
     1367.700000       0.006202
     1367.800000       0.006280
     1367.900000       0.006358
     1368.000000       0.006435
     1368.100000       0.006515
     1368.200000       0.006596
     1368.300000       0.006679
     1368.400000       0.006765
     1368.500000       0.006855
     1368.600000       0.006941
     1368.700000       0.007024
     1368.800000       0.007097
     1368.900000       0.007161
     1369.000000       0.007219
     1369.100000       0.007272
     1369.200000       0.007327
     1369.300000       0.007382
     1369.400000       0.007439
     1369.500000       0.007498
     1369.600000       0.007559
     1369.700000       0.007621
     1369.800000       0.007684
     1369.900000       0.007749
     1370.000000       0.007814
     1370.100000       0.007879
     1370.200000       0.007945
     1370.300000       0.008010
     1370.400000       0.008075
     1370.500000       0.008140
     1370.600000       0.008205
     1370.700000       0.008270
     1370.800000       0.008335
     1370.900000       0.008400
     1371.000000       0.008467
     1371.100000       0.008535
     1371.200000       0.008606
     1371.300000       0.008678
     1371.400000       0.008753
     1371.500000       0.008831
     1371.600000       0.008911
     1371.700000       0.008994
     1371.800000       0.009080
     1371.900000       0.009168
     1372.000000       0.009259
     1372.100000       0.009350
     1372.200000       0.009443
     1372.300000       0.009536
     1372.400000       0.009628
     1372.500000       0.009721
     1372.600000       0.009811
     1372.700000       0.009901
     1372.800000       0.009990
     1372.900000       0.010077
     1373.000000       0.010164
     1373.100000       0.010251
     1373.200000       0.010337
     1373.300000       0.010423
     1373.400000       0.010510
     1373.500000       0.010599
     1373.600000       0.010690
     1373.700000       0.010783
     1373.800000       0.010880
     1373.900000       0.010981
     1374.000000       0.011085
     1374.100000       0.011192
     1374.200000       0.011303
     1374.300000       0.011417
     1374.400000       0.011533
     1374.500000       0.011653
     1374.600000       0.011774
     1374.700000       0.011897
     1374.800000       0.012020
     1374.900000       0.012144
     1375.000000       0.012269
     1375.100000       0.012393
     1375.200000       0.012518
     1375.300000       0.012641
     1375.400000       0.012765
     1375.500000       0.012889
     1375.600000       0.013014
     1375.700000       0.013139
     1375.800000       0.013266
     1375.900000       0.013395
     1376.000000       0.013526
     1376.100000       0.013661
     1376.200000       0.013800
     1376.300000       0.013942
     1376.400000       0.014089
     1376.500000       0.014239
     1376.600000       0.014394
     1376.700000       0.014552
     1376.800000       0.014715
     1376.900000       0.014880
     1377.000000       0.015049
     1377.100000       0.015219
     1377.200000       0.015391
     1377.300000       0.015565
     1377.400000       0.015740
     1377.500000       0.015915
     1377.600000       0.016091
     1377.700000       0.016266
     1377.800000       0.016442
     1377.900000       0.016618
     1378.000000       0.016794
     1378.100000       0.016972
     1378.200000       0.017150
     1378.300000       0.017329
     1378.400000       0.017511
     1378.500000       0.017695
     1378.600000       0.017883
     1378.700000       0.018075
     1378.800000       0.018270
     1378.900000       0.018469
     1379.000000       0.018674
     1379.100000       0.018883
     1379.200000       0.019094
     1379.300000       0.019307
     1379.400000       0.019524
     1379.500000       0.019743
     1379.600000       0.019965
     1379.700000       0.020190
     1379.800000       0.020417
     1379.900000       0.020646
     1380.000000       0.020879
     1380.100000       0.021114
     1380.200000       0.021353
     1380.300000       0.021593
     1380.400000       0.021837
     1380.500000       0.022084
     1380.600000       0.022335
     1380.700000       0.022590
     1380.800000       0.022849
     1380.900000       0.023115
     1381.000000       0.023386
     1381.100000       0.023663
     1381.200000       0.023948
     1381.300000       0.024242
     1381.400000       0.024541
     1381.500000       0.024848
     1381.600000       0.025161
     1381.700000       0.025482
     1381.800000       0.025811
     1381.900000       0.026148
     1382.000000       0.026491
     1382.100000       0.026842
     1382.200000       0.027199
     1382.300000       0.027563
     1382.400000       0.027933
     1382.500000       0.028309
     1382.600000       0.028692
     1382.700000       0.029082
     1382.800000       0.029479
     1382.900000       0.029882
     1383.000000       0.030292
     1383.100000       0.030709
     1383.200000       0.031138
     1383.300000       0.031575
     1383.400000       0.032021
     1383.500000       0.032473
     1383.600000       0.032936
     1383.700000       0.033408
     1383.800000       0.033887
     1383.900000       0.034373
     1384.000000       0.034868
     1384.100000       0.035370
     1384.200000       0.035880
     1384.300000       0.036397
     1384.400000       0.036923
     1384.500000       0.037457
     1384.600000       0.038000
     1384.700000       0.038549
     1384.800000       0.039104
     1384.900000       0.039670
     1385.000000       0.040247
     1385.100000       0.040838
     1385.200000       0.041442
     1385.300000       0.042066
     1385.400000       0.042707
     1385.500000       0.043359
     1385.600000       0.044023
     1385.700000       0.044701
     1385.800000       0.045391
     1385.900000       0.046098
     1386.000000       0.046820
     1386.100000       0.047559
     1386.200000       0.048314
     1386.300000       0.049084
     1386.400000       0.049868
     1386.500000       0.050667
     1386.600000       0.051483
     1386.700000       0.052322
     1386.800000       0.053178
     1386.900000       0.054051
     1387.000000       0.054938
     1387.100000       0.055838
     1387.200000       0.056757
     1387.300000       0.057697
     1387.400000       0.058647
     1387.500000       0.059610
     1387.600000       0.060602
     1387.700000       0.061622
     1387.800000       0.062671
     1387.900000       0.063742
     1388.000000       0.064839
     1388.100000       0.065958
     1388.200000       0.067102
     1388.300000       0.068268
     1388.400000       0.069460
     1388.500000       0.070677
     1388.600000       0.071920
     1388.700000       0.073189
     1388.800000       0.074486
     1388.900000       0.075809
     1389.000000       0.077157
     1389.100000       0.078531
     1389.200000       0.079932
     1389.300000       0.081357
     1389.400000       0.082806
     1389.500000       0.084278
     1389.600000       0.085770
     1389.700000       0.087290
     1389.800000       0.088840
     1389.900000       0.090416
     1390.000000       0.092024
     1390.100000       0.093664
     1390.200000       0.095334
     1390.300000       0.097033
     1390.400000       0.098763
     1390.500000       0.100534
     1390.600000       0.102337
     1390.700000       0.104180
     1390.800000       0.106063
     1390.900000       0.107983
     1391.000000       0.109939
     1391.100000       0.111924
     1391.200000       0.113941
     1391.300000       0.115995
     1391.400000       0.118084
     1391.500000       0.120209
     1391.600000       0.122369
     1391.700000       0.124564
     1391.800000       0.126796
     1391.900000       0.129067
     1392.000000       0.131379
     1392.100000       0.133740
     1392.200000       0.136147
     1392.300000       0.138596
     1392.400000       0.141097
     1392.500000       0.143662
     1392.600000       0.146270
     1392.700000       0.148936
     1392.800000       0.151668
     1392.900000       0.154473
     1393.000000       0.157325
     1393.100000       0.160226
     1393.200000       0.163174
     1393.300000       0.166171
     1393.400000       0.169225
     1393.500000       0.172337
     1393.600000       0.175501
     1393.700000       0.178719
     1393.800000       0.181985
     1393.900000       0.185299
     1394.000000       0.188658
     1394.100000       0.192062
     1394.200000       0.195513
     1394.300000       0.199002
     1394.400000       0.202548
     1394.500000       0.206135
     1394.600000       0.209775
     1394.700000       0.213462
     1394.800000       0.217199
     1394.900000       0.220995
     1395.000000       0.224874
     1395.100000       0.228806
     1395.200000       0.232798
     1395.300000       0.236847
     1395.400000       0.240953
     1395.500000       0.245116
     1395.600000       0.249339
     1395.700000       0.253618
     1395.800000       0.257955
     1395.900000       0.262351
     1396.000000       0.266809
     1396.100000       0.271318
     1396.200000       0.275884
     1396.300000       0.280509
     1396.400000       0.285191
     1396.500000       0.289919
     1396.600000       0.294702
     1396.700000       0.299535
     1396.800000       0.304414
     1396.900000       0.309350
     1397.000000       0.314341
     1397.100000       0.319375
     1397.200000       0.324461
     1397.300000       0.329596
     1397.400000       0.334774
     1397.500000       0.340003
     1397.600000       0.345279
     1397.700000       0.350596
     1397.800000       0.355952
     1397.900000       0.361330
     1398.000000       0.366736
     1398.100000       0.372182
     1398.200000       0.377665
     1398.300000       0.383189
     1398.400000       0.388747
     1398.500000       0.394349
     1398.600000       0.399991
     1398.700000       0.405687
     1398.800000       0.411422
     1398.900000       0.417188
     1399.000000       0.422989
     1399.100000       0.428838
     1399.200000       0.434725
     1399.300000       0.440648
     1399.400000       0.446603
     1399.500000       0.452555
     1399.600000       0.458549
     1399.700000       0.464621
     1399.800000       0.470720
     1399.900000       0.476833
     1400.000000       0.482962
     1400.100000       0.489109
     1400.200000       0.495275
     1400.300000       0.501460
     1400.400000       0.507656
     1400.500000       0.513861
     1400.600000       0.520068
     1400.700000       0.526274
     1400.800000       0.532483
     1400.900000       0.538696
     1401.000000       0.544908
     1401.100000       0.551119
     1401.200000       0.557328
     1401.300000       0.563537
     1401.400000       0.569748
     1401.500000       0.575961
     1401.600000       0.582188
     1401.700000       0.588425
     1401.800000       0.594634
     1401.900000       0.600816
     1402.000000       0.606995
     1402.100000       0.613167
     1402.200000       0.619328
     1402.300000       0.625476
     1402.400000       0.631606
     1402.500000       0.637715
     1402.600000       0.643797
     1402.700000       0.649849
     1402.800000       0.655859
     1402.900000       0.661829
     1403.000000       0.667756
     1403.100000       0.673645
     1403.200000       0.679485
     1403.300000       0.685287
     1403.400000       0.691037
     1403.500000       0.696739
     1403.600000       0.702398
     1403.700000       0.708009
     1403.800000       0.713562
     1403.900000       0.719067
     1404.000000       0.724513
     1404.100000       0.729925
     1404.200000       0.735297
     1404.300000       0.740627
     1404.400000       0.745910
     1404.500000       0.751141
     1404.600000       0.756316
