11,   channel TIR4 SRF from LSTM_ISRF_all_bands.xlsx
Number of data points:
2298
Wavenumber (cm-1)   Filter response
      872.752662       0.000174
      872.790748       0.000175
      872.828838       0.000177
      872.866931       0.000179
      872.905028       0.000181
      872.943128       0.000183
      872.981231       0.000184
      873.019337       0.000186
      873.057447       0.000188
      873.095560       0.000190
      873.133677       0.000192
      873.171797       0.000194
      873.209920       0.000196
      873.248046       0.000198
      873.286176       0.000200
      873.324309       0.000202
      873.362445       0.000204
      873.400585       0.000206
      873.438728       0.000208
      873.476875       0.000210
      873.515024       0.000212
      873.553178       0.000214
      873.591334       0.000216
      873.629494       0.000219
      873.667657       0.000221
      873.705823       0.000223
      873.743993       0.000225
      873.782166       0.000228
      873.820343       0.000230
      873.858522       0.000232
      873.896705       0.000235
      873.934892       0.000237
      873.973082       0.000239
      874.011275       0.000242
      874.049471       0.000244
      874.087671       0.000247
      874.125874       0.000249
      874.164081       0.000252
      874.202290       0.000255
      874.240504       0.000257
      874.278720       0.000260
      874.316940       0.000262
      874.355163       0.000265
      874.393390       0.000268
      874.431619       0.000271
      874.469853       0.000273
      874.508089       0.000276
      874.546329       0.000279
      874.584572       0.000282
      874.622819       0.000285
      874.661069       0.000288
      874.699322       0.000291
      874.737579       0.000294
      874.775839       0.000297
      874.814102       0.000300
      874.852369       0.000303
      874.890639       0.000306
      874.928912       0.000309
      874.967189       0.000312
      875.005469       0.000316
      875.043752       0.000319
      875.082039       0.000322
      875.120329       0.000326
      875.158623       0.000329
      875.196919       0.000332
      875.235219       0.000336
      875.273523       0.000339
      875.311830       0.000343
      875.350140       0.000346
      875.388454       0.000350
      875.426771       0.000354
      875.465091       0.000357
      875.503414       0.000361
      875.541741       0.000365
      875.580072       0.000369
      875.618405       0.000373
      875.656743       0.000377
      875.695083       0.000380
      875.733427       0.000384
      875.771774       0.000389
      875.810124       0.000393
      875.848478       0.000397
      875.886835       0.000401
      875.925196       0.000405
      875.963560       0.000409
      876.001927       0.000414
      876.040298       0.000418
      876.078672       0.000422
      876.117049       0.000427
      876.155430       0.000431
      876.193814       0.000436
      876.232202       0.000441
      876.270592       0.000445
      876.308987       0.000450
      876.347384       0.000455
      876.385785       0.000460
      876.424189       0.000465
      876.462597       0.000470
      876.501008       0.000475
      876.539422       0.000480
      876.577840       0.000485
      876.616261       0.000490
      876.654686       0.000496
      876.693114       0.000501
      876.731545       0.000507
      876.769979       0.000512
      876.808417       0.000518
      876.846859       0.000523
      876.885303       0.000529
      876.923751       0.000535
      876.962203       0.000540
      877.000658       0.000546
      877.039116       0.000552
      877.077578       0.000558
      877.116042       0.000564
      877.154511       0.000570
      877.192982       0.000577
      877.231458       0.000583
      877.269936       0.000589
      877.308418       0.000596
      877.346903       0.000602
      877.385392       0.000609
      877.423883       0.000615
      877.462379       0.000622
      877.500878       0.000629
      877.539380       0.000636
      877.577885       0.000643
      877.616394       0.000650
      877.654906       0.000657
      877.693422       0.000664
      877.731941       0.000671
      877.770463       0.000678
      877.808989       0.000686
      877.847518       0.000693
      877.886050       0.000701
      877.924586       0.000709
      877.963126       0.000716
      878.001668       0.000724
      878.040214       0.000732
      878.078764       0.000740
      878.117316       0.000748
      878.155873       0.000757
      878.194432       0.000765
      878.232995       0.000773
      878.271562       0.000782
      878.310131       0.000790
      878.348704       0.000799
      878.387281       0.000808
      878.425861       0.000817
      878.464444       0.000826
      878.503031       0.000835
      878.541621       0.000844
      878.580214       0.000853
      878.618811       0.000863
      878.657411       0.000872
      878.696015       0.000882
      878.734622       0.000892
      878.773233       0.000902
      878.811846       0.000912
      878.850464       0.000922
      878.889084       0.000932
      878.927708       0.000942
      878.966336       0.000953
      879.004966       0.000963
      879.043601       0.000974
      879.082238       0.000985
      879.120879       0.000995
      879.159523       0.001006
      879.198171       0.001018
      879.236822       0.001029
      879.275477       0.001040
      879.314135       0.001052
      879.352796       0.001063
      879.391461       0.001075
      879.430129       0.001087
      879.468801       0.001099
      879.507476       0.001111
      879.546154       0.001124
      879.584836       0.001136
      879.623521       0.001149
      879.662210       0.001162
      879.700902       0.001175
      879.739597       0.001188
      879.778296       0.001201
      879.816998       0.001214
      879.855704       0.001228
      879.894413       0.001241
      879.933125       0.001255
      879.971841       0.001269
      880.010560       0.001283
      880.049283       0.001298
      880.088009       0.001312
      880.126738       0.001327
      880.165471       0.001342
      880.204207       0.001356
      880.242947       0.001372
      880.281690       0.001387
      880.320437       0.001402
      880.359187       0.001418
      880.397940       0.001434
      880.436697       0.001450
      880.475457       0.001466
      880.514220       0.001482
      880.552987       0.001499
      880.591758       0.001515
      880.630531       0.001532
      880.669309       0.001549
      880.708089       0.001566
      880.746873       0.001583
      880.785661       0.001600
      880.824452       0.001618
      880.863246       0.001635
      880.902044       0.001653
      880.940845       0.001672
      880.979649       0.001690
      881.018457       0.001708
      881.057269       0.001727
      881.096084       0.001746
      881.134902       0.001765
      881.173723       0.001785
      881.212548       0.001804
      881.251377       0.001824
      881.290209       0.001844
      881.329044       0.001864
      881.367883       0.001885
      881.406725       0.001906
      881.445571       0.001926
      881.484420       0.001948
      881.523272       0.001969
      881.562128       0.001991
      881.600987       0.002012
      881.639850       0.002035
      881.678716       0.002057
      881.717586       0.002080
      881.756459       0.002102
      881.795335       0.002126
      881.834215       0.002149
      881.873098       0.002172
      881.911985       0.002196
      881.950875       0.002220
      881.989769       0.002245
      882.028666       0.002270
      882.067566       0.002294
      882.106470       0.002320
      882.145378       0.002345
      882.184288       0.002371
      882.223202       0.002397
      882.262120       0.002423
      882.301041       0.002450
      882.339966       0.002477
      882.378893       0.002504
      882.417825       0.002532
      882.456760       0.002559
      882.495698       0.002587
      882.534639       0.002616
      882.573585       0.002645
      882.612533       0.002674
      882.651485       0.002703
      882.690440       0.002733
      882.729399       0.002763
      882.768362       0.002793
      882.807327       0.002824
      882.846296       0.002855
      882.885269       0.002886
      882.924245       0.002918
      882.963225       0.002950
      883.002208       0.002982
      883.041194       0.003015
      883.080184       0.003048
      883.119177       0.003081
      883.158174       0.003115
      883.197174       0.003149
      883.236177       0.003184
      883.275184       0.003219
      883.314195       0.003254
      883.353209       0.003290
      883.392226       0.003326
      883.431247       0.003362
      883.470271       0.003399
      883.509299       0.003436
      883.548330       0.003474
      883.587365       0.003512
      883.626403       0.003550
      883.665444       0.003589
      883.704489       0.003628
      883.743538       0.003668
      883.782589       0.003708
      883.821645       0.003749
      883.860704       0.003790
      883.899766       0.003832
      883.938831       0.003873
      883.977901       0.003916
      884.016973       0.003959
      884.056049       0.004002
      884.095129       0.004045
      884.134212       0.004089
      884.173298       0.004133
      884.212388       0.004178
      884.251481       0.004223
      884.290578       0.004269
      884.329678       0.004314
      884.368782       0.004361
      884.407889       0.004408
      884.447000       0.004456
      884.486114       0.004504
      884.525231       0.004552
      884.564352       0.004601
      884.603476       0.004651
      884.642604       0.004701
      884.681736       0.004752
      884.720871       0.004803
      884.760009       0.004854
      884.799151       0.004907
      884.838296       0.004960
      884.877444       0.005013
      884.916597       0.005067
      884.955752       0.005121
      884.994911       0.005176
      885.034074       0.005232
      885.073240       0.005288
      885.112409       0.005345
      885.151582       0.005403
      885.190759       0.005460
      885.229938       0.005519
      885.269122       0.005578
      885.308309       0.005638
      885.347499       0.005699
      885.386693       0.005760
      885.425890       0.005822
      885.465091       0.005884
      885.504295       0.005947
      885.543502       0.006011
      885.582713       0.006075
      885.621928       0.006141
      885.661146       0.006206
      885.700368       0.006273
      885.739593       0.006340
      885.778821       0.006408
      885.818053       0.006477
      885.857288       0.006546
      885.896527       0.006616
      885.935770       0.006687
      885.975016       0.006758
      886.014265       0.006831
      886.053518       0.006904
      886.092774       0.006978
      886.132034       0.007052
      886.171297       0.007128
      886.210564       0.007204
      886.249834       0.007281
      886.289108       0.007359
      886.328385       0.007437
      886.367665       0.007517
      886.406949       0.007597
      886.446237       0.007678
      886.485528       0.007760
      886.524823       0.007843
      886.564121       0.007927
      886.603422       0.008011
      886.642727       0.008097
      886.682036       0.008183
      886.721348       0.008270
      886.760663       0.008358
      886.799982       0.008448
      886.839305       0.008537
      886.878631       0.008629
      886.917960       0.008720
      886.957293       0.008813
      886.996629       0.008907
      887.035969       0.009002
      887.075313       0.009098
      887.114660       0.009195
      887.154010       0.009292
      887.193364       0.009392
      887.232721       0.009491
      887.272082       0.009593
      887.311446       0.009694
      887.350814       0.009798
      887.390185       0.009902
      887.429560       0.010007
      887.468939       0.010113
      887.508320       0.010221
      887.547706       0.010330
      887.587094       0.010440
      887.626487       0.010550
      887.665883       0.010663
      887.705282       0.010776
      887.744685       0.010891
      887.784091       0.011006
      887.823501       0.011124
      887.862914       0.011241
      887.902331       0.011361
      887.941751       0.011481
      887.981175       0.011604
      888.020602       0.011727
      888.060033       0.011852
      888.099467       0.011977
      888.138905       0.012105
      888.178346       0.012233
      888.217791       0.012363
      888.257239       0.012494
      888.296691       0.012627
      888.336146       0.012761
      888.375605       0.012897
      888.415068       0.013033
      888.454533       0.013172
      888.494003       0.013311
      888.533475       0.013453
      888.572952       0.013596
      888.612432       0.013741
      888.651915       0.013886
      888.691402       0.014034
      888.730892       0.014182
      888.770386       0.014334
      888.809884       0.014485
      888.849384       0.014640
      888.888889       0.014795
      888.928397       0.014952
      888.967908       0.015111
      889.007423       0.015272
      889.046942       0.015433
      889.086464       0.015598
      889.125989       0.015763
      889.165518       0.015931
      889.205051       0.016100
      889.244587       0.016272
      889.284126       0.016444
      889.323669       0.016620
      889.363216       0.016796
      889.402766       0.016975
      889.442320       0.017155
      889.481877       0.017338
      889.521437       0.017522
      889.561002       0.017709
      889.600569       0.017897
      889.640141       0.018088
      889.679715       0.018280
      889.719294       0.018475
      889.758875       0.018671
      889.798461       0.018871
      889.838049       0.019071
      889.877642       0.019275
      889.917238       0.019480
      889.956837       0.019689
      889.996440       0.019898
      890.036046       0.020111
      890.075656       0.020325
      890.115270       0.020543
      890.154887       0.020761
      890.194507       0.020984
      890.234132       0.021207
      890.273759       0.021435
      890.313390       0.021663
      890.353025       0.021895
      890.392663       0.022128
      890.432305       0.022366
      890.471950       0.022605
      890.511599       0.022848
      890.551251       0.023091
      890.590907       0.023340
      890.630566       0.023589
      890.670229       0.023843
      890.709896       0.024097
      890.749566       0.024357
      890.789239       0.024617
      890.828916       0.024883
      890.868597       0.025149
      890.908281       0.025420
      890.947969       0.025693
      890.987660       0.025970
      891.027355       0.026248
      891.067053       0.026532
      891.106755       0.026817
      891.146460       0.027107
      891.186169       0.027398
      891.225881       0.027695
      891.265597       0.027992
      891.305317       0.028296
      891.345040       0.028600
      891.384766       0.028910
      891.424496       0.029221
      891.464230       0.029539
      891.503967       0.029857
      891.543708       0.030182
      891.583452       0.030507
      891.623200       0.030839
      891.662951       0.031172
      891.702706       0.031512
      891.742465       0.031853
      891.782227       0.032200
      891.821992       0.032549
      891.861761       0.032904
      891.901534       0.033261
      891.941310       0.033625
      891.981090       0.033989
      892.020873       0.034362
      892.060660       0.034735
      892.100451       0.035116
      892.140244       0.035497
      892.180042       0.035887
      892.219843       0.036278
      892.259648       0.036677
      892.299456       0.037076
      892.339267       0.037485
      892.379083       0.037893
      892.418901       0.038311
      892.458724       0.038730
      892.498550       0.039158
      892.538379       0.039586
      892.578212       0.040024
      892.618049       0.040462
      892.657889       0.040910
      892.697733       0.041359
      892.737580       0.041818
      892.777431       0.042277
      892.817285       0.042747
      892.857143       0.043217
      892.897004       0.043698
      892.936869       0.044179
      892.976738       0.044671
      893.016610       0.045164
      893.056486       0.045668
      893.096365       0.046172
      893.136248       0.046689
      893.176134       0.047205
      893.216024       0.047734
      893.255918       0.048263
      893.295815       0.048804
      893.335716       0.049345
      893.375620       0.049899
      893.415528       0.050454
      893.455439       0.051022
      893.495354       0.051590
      893.535272       0.052171
      893.575194       0.052753
      893.615120       0.053348
      893.655049       0.053944
      893.694982       0.054554
      893.734918       0.055164
      893.774858       0.055789
      893.814802       0.056414
      893.854749       0.057054
      893.894699       0.057694
      893.934653       0.058350
      893.974611       0.059006
      894.014572       0.059678
      894.054537       0.060350
      894.094506       0.061038
      894.134478       0.061726
      894.174453       0.062431
      894.214433       0.063137
      894.254415       0.063859
      894.294402       0.064582
      894.334392       0.065322
      894.374385       0.066063
      894.414382       0.066821
      894.454383       0.067580
      894.494387       0.068357
      894.534395       0.069135
      894.574406       0.069931
      894.614421       0.070728
      894.654440       0.071544
      894.694462       0.072361
      894.734488       0.073197
      894.774517       0.074034
      894.814550       0.074891
      894.854586       0.075749
      894.894626       0.076627
      894.934670       0.077506
      894.974717       0.078406
      895.014768       0.079307
      895.054822       0.080230
      895.094880       0.081153
      895.134942       0.082099
      895.175007       0.083045
      895.215075       0.084015
      895.255148       0.084985
      895.295224       0.085978
      895.335303       0.086973
      895.375386       0.087991
      895.415473       0.089010
      895.455563       0.090054
      895.495657       0.091098
      895.535754       0.092168
      895.575855       0.093239
      895.615960       0.094336
      895.656068       0.095433
      895.696180       0.096558
      895.736295       0.097682
      895.776414       0.098835
      895.816537       0.099988
      895.856663       0.101169
      895.896793       0.102350
      895.936926       0.103561
      895.977063       0.104772
      896.017204       0.106013
      896.057348       0.107255
      896.097495       0.108527
      896.137647       0.109799
      896.177802       0.111103
      896.217960       0.112407
      896.258122       0.113743
      896.298288       0.115080
      896.338457       0.116449
      896.378630       0.117819
      896.418807       0.119222
      896.458987       0.120626
      896.499171       0.122064
      896.539358       0.123503
      896.579549       0.124977
      896.619744       0.126451
      896.659942       0.127961
      896.700143       0.129472
      896.740349       0.131019
      896.780558       0.132567
      896.820770       0.134153
      896.860987       0.135739
      896.901206       0.137363
      896.941430       0.138988
      896.981657       0.140652
      897.021887       0.142316
