13,   13, MVIRI VIS channel from srf_MET5_1992303_1992304_1801-Release_S10EL_10.dat
Number of data points:
806
Wavenumber (cm-1)   Filter response
     8350.730700       0.000000
     8357.710000       0.000000
     8364.701000       0.000000
     8371.703600       0.000001
     8378.718100       0.000004
     8385.744200       0.000009
     8392.782200       0.000016
     8399.832000       0.000026
     8406.893700       0.000040
     8413.967200       0.000058
     8421.052600       0.000080
     8428.150000       0.000108
     8435.259400       0.000140
     8442.380800       0.000179
     8449.514200       0.000224
     8456.659600       0.000276
     8463.817200       0.000334
     8470.986900       0.000400
     8478.168700       0.000474
     8485.362700       0.000556
     8492.569000       0.000647
     8499.787500       0.000746
     8507.018300       0.000854
     8514.261400       0.000972
     8521.516800       0.001099
     8528.784600       0.001236
     8536.064900       0.001384
     8543.357500       0.001542
     8550.662700       0.001711
     8557.980300       0.001890
     8565.310500       0.002081
     8572.653200       0.002284
     8580.008600       0.002498
     8587.376600       0.002724
     8594.757200       0.002963
     8602.150500       0.003213
     8609.556600       0.003476
     8616.975400       0.003752
     8624.407100       0.004041
     8631.851500       0.004343
     8639.308900       0.004658
     8646.779100       0.004986
     8654.262200       0.005328
     8661.758300       0.005685
     8669.267400       0.006054
     8676.789600       0.006438
     8684.324800       0.006837
     8691.873100       0.007249
     8699.434500       0.007677
     8707.009100       0.008119
     8714.596900       0.008576
     8722.198000       0.009047
     8729.812300       0.009534
     8737.439900       0.010036
     8745.080900       0.010554
     8752.735200       0.011087
     8760.403000       0.011636
     8768.084200       0.012200
     8775.778900       0.012780
     8783.487000       0.013377
     8791.208800       0.013989
     8798.944100       0.014618
     8806.693100       0.015263
     8814.455700       0.015924
     8822.232000       0.016602
     8830.022100       0.017297
     8837.825900       0.018009
     8845.643500       0.018737
     8853.475000       0.019483
     8861.320300       0.020246
     8869.179600       0.021026
     8877.052800       0.021823
     8884.940000       0.022638
     8892.841300       0.023470
     8900.756600       0.024320
     8908.686000       0.025188
     8916.629500       0.026074
     8924.587200       0.026978
     8932.559200       0.027900
     8940.545400       0.028840
     8948.545900       0.029798
     8956.560700       0.030775
     8964.589900       0.031770
     8972.633500       0.032784
     8980.691500       0.033817
     8988.764000       0.034868
     8996.851100       0.035939
     9004.952700       0.037028
     9013.068900       0.038137
     9021.199800       0.039265
     9029.345400       0.040412
     9037.505600       0.041579
     9045.680700       0.042765
     9053.870500       0.043971
     9062.075200       0.045196
     9070.294800       0.046442
     9078.529300       0.047707
     9086.778700       0.048993
     9095.043200       0.050298
     9103.322700       0.051624
     9111.617300       0.052970
     9119.927000       0.054336
     9128.251900       0.055723
     9136.592100       0.057131
     9144.947400       0.058559
     9153.318100       0.060008
     9161.704100       0.061478
     9170.105500       0.062969
     9178.522300       0.064481
     9186.954500       0.066014
     9195.402300       0.067568
     9203.865600       0.069144
     9212.344500       0.070741
     9220.839100       0.072360
     9229.349300       0.074000
     9237.875300       0.075662
     9246.417000       0.077345
     9254.974500       0.079051
     9263.547900       0.080778
     9272.137200       0.082528
     9280.742500       0.084299
     9289.363700       0.086092
     9298.000900       0.087908
     9306.654300       0.089747
     9315.323700       0.091607
     9324.009300       0.093490
     9332.711200       0.095395
     9341.429200       0.097323
     9350.163600       0.099274
     9358.914400       0.101247
     9367.681500       0.103243
     9376.465100       0.105262
     9385.265100       0.107303
     9394.081700       0.109368
     9402.914900       0.111455
     9411.764700       0.113566
     9420.631200       0.115699
     9429.514400       0.117856
     9438.414300       0.120036
     9447.331100       0.122239
     9456.264800       0.124465
     9465.215300       0.126714
     9474.182900       0.128987
     9483.167400       0.131283
     9492.169000       0.133602
     9501.187600       0.135945
     9510.223500       0.138311
     9519.276500       0.140701
     9528.346800       0.143114
     9537.434400       0.145550
     9546.539400       0.148010
     9555.661700       0.150493
     9564.801500       0.153000
     9573.958800       0.155530
     9583.133700       0.158084
     9592.326100       0.160661
     9601.536200       0.163261
     9610.764100       0.165885
     9620.009600       0.168532
     9629.273000       0.171203
     9638.554200       0.173897
     9647.853400       0.176614
     9657.170400       0.179355
     9666.505600       0.182119
     9675.858700       0.184906
     9685.230000       0.187716
     9694.619500       0.190550
     9704.027200       0.193406
     9713.453100       0.196286
     9722.897400       0.199188
     9732.360100       0.202114
     9741.841200       0.205062
     9751.340800       0.208033
     9760.859000       0.211027
     9770.395700       0.214044
     9779.951100       0.217082
     9789.525200       0.220144
     9799.118100       0.223228
     9808.729800       0.226334
     9818.360300       0.229463
     9828.009800       0.232613
     9837.678300       0.235786
     9847.365800       0.238980
     9857.072400       0.242196
     9866.798200       0.245434
     9876.543200       0.248693
     9886.307500       0.251974
     9896.091000       0.255277
     9905.894000       0.258600
     9915.716400       0.261944
     9925.558300       0.265309
     9935.419800       0.268695
     9945.300800       0.272102
     9955.201600       0.275529
     9965.122100       0.278976
     9975.062300       0.282444
     9985.022500       0.285931
     9995.002500       0.289438
    10005.002500       0.292965
    10015.022500       0.296511
    10025.062700       0.300077
    10035.122900       0.303661
    10045.203400       0.307265
    10055.304200       0.310887
    10065.425300       0.314528
    10075.566800       0.318187
    10085.728700       0.321864
    10095.911200       0.325559
    10106.114200       0.329271
    10116.337900       0.333001
    10126.582300       0.336748
    10136.847400       0.340513
    10147.133400       0.344294
    10157.440300       0.348091
    10167.768200       0.351905
    10178.117000       0.355735
    10188.487000       0.359580
    10198.878100       0.363441
    10209.290500       0.367318
    10219.724100       0.371209
    10230.179000       0.375115
    10240.655400       0.379036
    10251.153300       0.382971
    10261.672700       0.386920
    10272.213700       0.390883
    10282.776300       0.394858
    10293.360800       0.398848
    10303.967000       0.402850
    10314.595200       0.406864
    10325.245200       0.410891
    10335.917300       0.414930
    10346.611500       0.418980
    10357.327800       0.423041
    10368.066400       0.427114
    10378.827200       0.431197
    10389.610400       0.435292
    10400.416000       0.439395
    10411.244100       0.443509
    10422.094800       0.447632
    10432.968200       0.451764
    10443.864200       0.455906
    10454.783100       0.460055
    10465.724800       0.464213
    10476.689400       0.468378
    10487.677000       0.472551
    10498.687700       0.476731
    10509.721500       0.480917
    10520.778500       0.485110
    10531.858900       0.489310
    10542.962600       0.493515
    10554.089700       0.497725
    10565.240400       0.501940
    10576.414600       0.506159
    10587.612500       0.510383
    10598.834100       0.514612
    10610.079600       0.518843
    10621.348900       0.523077
    10632.642200       0.527315
    10643.959600       0.531555
    10655.301000       0.535797
    10666.666700       0.540040
    10678.056600       0.544285
    10689.470900       0.548530
    10700.909600       0.552777
    10712.372800       0.557023
    10723.860600       0.561269
    10735.373100       0.565514
    10746.910300       0.569759
    10758.472300       0.574002
    10770.059200       0.578243
    10781.671200       0.582482
    10793.308100       0.586718
    10804.970300       0.590952
    10816.657700       0.595182
    10828.370300       0.599408
    10840.108400       0.603630
    10851.871900       0.607847
    10863.661100       0.612060
    10875.475800       0.616267
    10887.316300       0.620469
    10899.182600       0.624664
    10911.074700       0.628853
    10922.992900       0.633035
    10934.937100       0.637209
    10946.907500       0.641376
    10958.904100       0.645535
    10970.927000       0.649685
    10982.976400       0.653826
    10995.052200       0.657958
    11007.154700       0.662080
    11019.283700       0.666192
    11031.439600       0.670294
    11043.622300       0.674384
    11055.832000       0.678463
    11068.068600       0.682531
    11080.332400       0.686587
    11092.623400       0.690629
    11104.941700       0.694660
    11117.287400       0.698676
    11129.660500       0.702679
    11142.061300       0.706669
    11154.489700       0.710643
    11166.945800       0.714603
    11179.429800       0.718548
    11191.941800       0.722477
    11204.481800       0.726390
    11217.049900       0.730287
    11229.646300       0.734167
    11242.270900       0.738030
    11254.924000       0.741876
    11267.605600       0.745704
    11280.315800       0.749513
    11293.054800       0.753304
    11305.822500       0.757076
    11318.619100       0.760829
    11331.444800       0.764562
    11344.299500       0.768275
    11357.183400       0.771968
    11370.096600       0.775640
    11383.039300       0.779291
    11396.011400       0.782921
    11409.013100       0.786529
    11422.044500       0.790114
    11435.105800       0.793678
    11448.196900       0.797218
    11461.318100       0.800736
    11474.469300       0.804230
    11487.650800       0.807700
    11500.862600       0.811147
    11514.104800       0.814568
    11527.377500       0.817965
    11540.680900       0.821338
    11554.015000       0.824685
    11567.380000       0.828006
    11580.775900       0.831301
    11594.202900       0.834570
    11607.661100       0.837813
    11621.150500       0.841029
    11634.671300       0.844217
    11648.223600       0.847379
    11661.807600       0.850512
    11675.423200       0.853618
    11689.070700       0.856696
    11702.750100       0.859745
    11716.461600       0.862766
    11730.205300       0.865757
    11743.981200       0.868720
    11757.789500       0.871653
    11771.630400       0.874556
    11785.503800       0.877430
    11799.410000       0.880273
    11813.349100       0.883086
    11827.321100       0.885868
    11841.326200       0.888620
    11855.364600       0.891340
    11869.436200       0.894030
    11883.541300       0.896687
    11897.680000       0.899314
    11911.852300       0.901908
    11926.058400       0.904470
    11940.298500       0.907001
    11954.572600       0.909499
    11968.880900       0.911964
    11983.223500       0.914397
    11997.600500       0.916797
    12012.012000       0.919164
    12026.458200       0.921497
    12040.939200       0.923798
    12055.455100       0.926065
    12070.006000       0.928298
    12084.592100       0.930498
    12099.213600       0.932664
    12113.870400       0.934796
    12128.562800       0.936894
    12143.290800       0.938958
    12158.054700       0.940987
    12172.854500       0.942983
    12187.690400       0.944944
    12202.562500       0.946870
    12217.471000       0.948762
    12232.415900       0.950619
    12247.397400       0.952442
    12262.415700       0.954230
    12277.470800       0.955983
    12292.563000       0.957701
    12307.692300       0.959384
    12322.858900       0.961033
    12338.062900       0.962646
    12353.304500       0.964225
    12368.583800       0.965768
    12383.900900       0.967277
    12399.256000       0.968750
    12414.649300       0.970189
    12430.080800       0.971593
    12445.550700       0.972961
    12461.059200       0.974295
    12476.606400       0.975594
    12492.192400       0.976858
    12507.817400       0.978087
    12523.481500       0.979282
    12539.185000       0.980441
    12554.927800       0.981566
    12570.710200       0.982657
    12586.532400       0.983713
    12602.394500       0.984734
    12618.296500       0.985721
    12634.238800       0.986674
    12650.221400       0.987592
    12666.244500       0.988477
    12682.308200       0.989327
    12698.412700       0.990144
    12714.558200       0.990927
    12730.744700       0.991676
    12746.972600       0.992392
    12763.241900       0.993074
    12779.552700       0.993723
    12795.905300       0.994339
    12812.299800       0.994923
    12828.736400       0.995473
    12845.215200       0.995991
    12861.736300       0.996476
    12878.300100       0.996929
    12894.906500       0.997350
    12911.555800       0.997740
    12928.248200       0.998097
    12944.983800       0.998423
    12961.762800       0.998718
    12978.585300       0.998982
    12995.451600       0.999215
    13012.361700       0.999417
    13029.316000       0.999589
    13046.314400       0.999730
    13063.357300       0.999842
    13080.444700       0.999924
    13097.576900       0.999977
    13114.754100       1.000000
    13131.976400       0.999994
    13149.243900       0.999960
    13166.556900       0.999898
    13183.915600       0.999807
    13201.320100       0.999688
    13218.770700       0.999542
    13236.267400       0.999368
    13253.810500       0.999168
    13271.400100       0.998941
    13289.036500       0.998687
    13306.719900       0.998407
    13324.450400       0.998102
    13342.228200       0.997771
    13360.053400       0.997415
    13377.926400       0.997034
    13395.847300       0.996628
    13413.816200       0.996198
    13431.833400       0.995745
    13449.899100       0.995268
    13468.013500       0.994767
    13486.176700       0.994244
    13504.388900       0.993699
    13522.650400       0.993131
    13540.961400       0.992541
    13559.322000       0.991931
    13577.732500       0.991299
    13596.193100       0.990646
    13614.703900       0.989973
    13633.265200       0.989280
    13651.877100       0.988568
    13670.540000       0.987836
    13689.253900       0.987086
    13708.019200       0.986317
    13726.836000       0.985530
    13745.704500       0.984725
    13764.624900       0.983903
    13783.597500       0.983064
    13802.622500       0.982209
    13821.700100       0.981338
    13840.830400       0.980451
    13860.013900       0.979549
    13879.250500       0.978632
    13898.540700       0.977700
    13917.884500       0.976754
    13937.282200       0.975795
    13956.734100       0.974822
    13976.240400       0.973837
    13995.801300       0.972839
    14015.417000       0.971829
    14035.087700       0.970808
    14054.813800       0.969775
    14074.595400       0.968732
    14094.432700       0.967678
    14114.326000       0.966614
    14134.275600       0.965541
    14154.281700       0.964459
    14174.344400       0.963368
    14194.464200       0.962269
    14214.641100       0.961162
    14234.875400       0.960047
    14255.167500       0.958926
    14275.517500       0.957798
    14295.925700       0.956664
    14316.392300       0.955524
    14336.917600       0.954379
    14357.501800       0.953228
    14378.145200       0.952074
    14398.848100       0.950915
    14419.610700       0.949752
    14440.433200       0.948587
    14461.316000       0.947418
    14482.259200       0.946247
    14503.263200       0.945074
    14524.328200       0.943899
    14545.454500       0.942723
    14566.642400       0.941547
    14587.892000       0.940370
    14609.203800       0.939192
    14630.577900       0.938016
    14652.014700       0.936839
    14673.514300       0.935665
    14695.077100       0.934491
    14716.703500       0.933320
    14738.393500       0.932151
    14760.147600       0.930984
    14781.966000       0.929821
    14803.849000       0.928661
    14825.796900       0.927504
    14847.809900       0.926352
    14869.888500       0.925205
    14892.032800       0.924062
    14914.243100       0.922925
    14936.519800       0.921793
    14958.863100       0.920667
    14981.273400       0.919547
    15003.750900       0.918434
    15026.296000       0.917328
    15048.909000       0.916229
    15071.590100       0.915138
    15094.339600       0.914055
    15117.158000       0.912979
    15140.045400       0.911913
    15163.002300       0.910855
    15186.028900       0.909807
    15209.125500       0.908767
    15232.292500       0.907738
    15255.530100       0.906718
    15278.838800       0.905709
    15302.218800       0.904710
    15325.670500       0.903722
    15349.194200       0.902745
    15372.790200       0.901780
    15396.458800       0.900826
    15420.200500       0.899884
    15444.015400       0.898953
    15467.904100       0.898035
    15491.866800       0.897130
    15515.903800       0.896237
    15540.015500       0.895357
    15564.202300       0.894490
    15588.464500       0.893637
    15612.802500       0.892796
    15637.216600       0.891970
    15661.707100       0.891157
    15686.274500       0.890358
    15710.919100       0.889573
    15735.641200       0.888803
    15760.441300       0.888047
    15785.319700       0.887305
    15810.276700       0.886578
    15835.312700       0.885865
    15860.428200       0.885168
    15885.623500       0.884485
    15910.899000       0.883818
    15936.255000       0.883165
    15961.691900       0.882528
    15987.210200       0.881906
    16012.810200       0.881299
    16038.492400       0.880707
    16064.257000       0.880131
    16090.104600       0.879570
    16116.035500       0.879025
    16142.050000       0.878495
    16168.148700       0.877980
    16194.332000       0.877481
    16220.600200       0.876997
    16246.953700       0.876528
    16273.393000       0.876075
    16299.918500       0.875637
    16326.530600       0.875213
    16353.229800       0.874805
    16380.016400       0.874412
    16406.890900       0.874034
    16433.853700       0.873671
    16460.905300       0.873322
    16488.046200       0.872988
    16515.276600       0.872669
    16542.597200       0.872363
    16570.008300       0.872072
    16597.510400       0.871795
    16625.103900       0.871531
    16652.789300       0.871281
    16680.567100       0.871045
    16708.437800       0.870821
    16736.401700       0.870611
    16764.459300       0.870413
    16792.611300       0.870228
    16820.857900       0.870056
    16849.199700       0.869895
    16877.637100       0.869746
    16906.170800       0.869608
    16934.801000       0.869482
    16963.528400       0.869366
    16992.353400       0.869261
    17021.276600       0.869166
    17050.298400       0.869081
    17079.419300       0.869006
    17108.639900       0.868940
    17137.960600       0.868882
    17167.382000       0.868833
    17196.904600       0.868792
    17226.528900       0.868759
    17256.255400       0.868733
    17286.084700       0.868713
