07 , goes_11_sounder_07.flt
Number of data points:
816
Wavenumber (cm-1)   Filter response
      799.100000       0.004024
      799.200000       0.004462
      799.300000       0.004936
      799.400000       0.005450
      799.500000       0.006013
      799.600000       0.006628
      799.700000       0.007289
      799.800000       0.008010
      799.900000       0.008798
      800.000000       0.009655
      800.100000       0.010562
      800.200000       0.011512
      800.300000       0.012488
      800.400000       0.013459
      800.500000       0.014448
      800.600000       0.015425
      800.700000       0.016373
      800.800000       0.017274
      800.900000       0.018154
      801.000000       0.019002
      801.100000       0.019835
      801.200000       0.020665
      801.300000       0.021439
      801.400000       0.022171
      801.500000       0.022899
      801.600000       0.023606
      801.700000       0.024284
      801.800000       0.024954
      801.900000       0.025606
      802.000000       0.026259
      802.100000       0.026948
      802.200000       0.027710
      802.300000       0.028537
      802.400000       0.029462
      802.500000       0.030504
      802.600000       0.031709
      802.700000       0.033094
      802.800000       0.034694
      802.900000       0.036529
      803.000000       0.038665
      803.100000       0.041095
      803.200000       0.043777
      803.300000       0.046654
      803.400000       0.049709
      803.500000       0.052917
      803.600000       0.056175
      803.700000       0.059498
      803.800000       0.062809
      803.900000       0.066060
      804.000000       0.069171
      804.100000       0.072226
      804.200000       0.075213
      804.300000       0.078185
      804.400000       0.081159
      804.500000       0.084212
      804.600000       0.087315
      804.700000       0.090568
      804.800000       0.094019
      804.900000       0.097666
      805.000000       0.101522
      805.100000       0.105623
      805.200000       0.109898
      805.300000       0.114299
      805.400000       0.118851
      805.500000       0.123616
      805.600000       0.128525
      805.700000       0.133512
      805.800000       0.138712
      805.900000       0.144074
      806.000000       0.149703
      806.100000       0.155544
      806.200000       0.161739
      806.300000       0.168171
      806.400000       0.175019
      806.500000       0.182154
      806.600000       0.189745
      806.700000       0.197770
      806.800000       0.206104
      806.900000       0.214791
      807.000000       0.223933
      807.100000       0.233430
      807.200000       0.243076
      807.300000       0.253130
      807.400000       0.263441
      807.500000       0.274306
      807.600000       0.285269
      807.700000       0.296668
      807.800000       0.308126
      807.900000       0.319934
      808.000000       0.331959
      808.100000       0.344169
      808.200000       0.356384
      808.300000       0.368548
      808.400000       0.380634
      808.500000       0.392616
      808.600000       0.404499
      808.700000       0.416390
      808.800000       0.428232
      808.900000       0.439987
      809.000000       0.451864
      809.100000       0.463823
      809.200000       0.476040
      809.300000       0.488372
      809.400000       0.501154
      809.500000       0.513953
      809.600000       0.527257
      809.700000       0.540666
      809.800000       0.554799
      809.900000       0.569200
      810.000000       0.583798
      810.100000       0.598457
      810.200000       0.613643
      810.300000       0.630021
      810.400000       0.647562
      810.500000       0.666403
      810.600000       0.685969
      810.700000       0.705973
      810.800000       0.724968
      810.900000       0.742375
      811.000000       0.757668
      811.100000       0.771815
      811.200000       0.785053
      811.300000       0.798117
      811.400000       0.811116
      811.500000       0.824694
      811.600000       0.838664
      811.700000       0.852200
      811.800000       0.864308
      811.900000       0.875230
      812.000000       0.884927
      812.100000       0.893480
      812.200000       0.901387
      812.300000       0.908646
      812.400000       0.915450
      812.500000       0.922005
      812.600000       0.928983
      812.700000       0.935719
      812.800000       0.941819
      812.900000       0.946592
      813.000000       0.951142
      813.100000       0.955656
      813.200000       0.958989
      813.300000       0.961229
      813.400000       0.963898
      813.500000       0.967121
      813.600000       0.970724
      813.700000       0.973978
      813.800000       0.977109
      813.900000       0.980734
      814.000000       0.984476
      814.100000       0.987948
      814.200000       0.990583
      814.300000       0.992977
      814.400000       0.995514
      814.500000       0.997241
      814.600000       0.998075
      814.700000       0.998728
      814.800000       0.999079
      814.900000       0.999145
      815.000000       0.999339
      815.100000       0.999746
      815.200000       1.000000
      815.300000       0.999621
      815.400000       0.998728
      815.500000       0.998170
      815.600000       0.997801
      815.700000       0.997179
      815.800000       0.996397
      815.900000       0.995768
      816.000000       0.995525
      816.100000       0.995077
      816.200000       0.994126
      816.300000       0.993443
      816.400000       0.992984
      816.500000       0.992191
      816.600000       0.991257
      816.700000       0.990188
      816.800000       0.988520
      816.900000       0.986749
      817.000000       0.985507
      817.100000       0.984313
      817.200000       0.982991
      817.300000       0.981781
      817.400000       0.980365
      817.500000       0.978506
      817.600000       0.976706
      817.700000       0.975085
      817.800000       0.973413
      817.900000       0.972056
      818.000000       0.971185
      818.100000       0.970074
      818.200000       0.968690
      818.300000       0.967352
      818.400000       0.965852
      818.500000       0.964360
      818.600000       0.963397
      818.700000       0.962547
      818.800000       0.961145
      818.900000       0.959010
      819.000000       0.956742
      819.100000       0.955493
      819.200000       0.954750
      819.300000       0.953728
      819.400000       0.952483
      819.500000       0.951147
      819.600000       0.949752
      819.700000       0.948295
      819.800000       0.946754
      819.900000       0.945206
      820.000000       0.943653
      820.100000       0.942092
      820.200000       0.940826
      820.300000       0.939914
      820.400000       0.938958
      820.500000       0.937523
      820.600000       0.935566
      820.700000       0.934020
      820.800000       0.932759
      820.900000       0.930900
      821.000000       0.928848
      821.100000       0.926972
      821.200000       0.925151
      821.300000       0.923239
      821.400000       0.921261
      821.500000       0.919277
      821.600000       0.917177
      821.700000       0.914469
      821.800000       0.911874
      821.900000       0.910005
      822.000000       0.907538
      822.100000       0.904342
      822.200000       0.901709
      822.300000       0.899447
      822.400000       0.897094
      822.500000       0.894677
      822.600000       0.892225
      822.700000       0.889834
      822.800000       0.887565
      822.900000       0.885389
      823.000000       0.883218
      823.100000       0.881003
      823.200000       0.878707
      823.300000       0.876974
      823.400000       0.875469
      823.500000       0.872916
      823.600000       0.870193
      823.700000       0.868467
      823.800000       0.866956
      823.900000       0.865204
      824.000000       0.863132
      824.100000       0.861073
      824.200000       0.859057
      824.300000       0.856603
      824.400000       0.853863
      824.500000       0.851204
      824.600000       0.848909
      824.700000       0.846858
      824.800000       0.844818
      824.900000       0.843213
      825.000000       0.842223
      825.100000       0.840750
      825.200000       0.838912
      825.300000       0.837741
      825.400000       0.836318
      825.500000       0.834036
      825.600000       0.832448
      825.700000       0.831550
      825.800000       0.830407
      825.900000       0.829148
      826.000000       0.827952
      826.100000       0.826727
      826.200000       0.825438
      826.300000       0.824195
      826.400000       0.822990
      826.500000       0.821821
      826.600000       0.820628
      826.700000       0.819306
      826.800000       0.817817
      826.900000       0.816740
      827.000000       0.815927
      827.100000       0.814684
      827.200000       0.813256
      827.300000       0.811824
      827.400000       0.809827
      827.500000       0.808408
      827.600000       0.809033
      827.700000       0.808948
      827.800000       0.807186
      827.900000       0.806414
      828.000000       0.806254
      828.100000       0.805282
      828.200000       0.804052
      828.300000       0.803417
      828.400000       0.804096
      828.500000       0.804534
      828.600000       0.803767
      828.700000       0.804156
      828.800000       0.805486
      828.900000       0.805787
      829.000000       0.805566
      829.100000       0.805629
      829.200000       0.806255
      829.300000       0.807047
      829.400000       0.807432
      829.500000       0.808049
      829.600000       0.809052
      829.700000       0.809792
      829.800000       0.810388
      829.900000       0.811119
      830.000000       0.812348
      830.100000       0.813800
      830.200000       0.814875
      830.300000       0.815743
      830.400000       0.816760
      830.500000       0.817797
      830.600000       0.818863
      830.700000       0.819912
      830.800000       0.820891
      830.900000       0.821836
      831.000000       0.822894
      831.100000       0.824065
      831.200000       0.825295
      831.300000       0.826527
      831.400000       0.827715
      831.500000       0.828900
      831.600000       0.830073
      831.700000       0.831328
      831.800000       0.832655
      831.900000       0.834135
      832.000000       0.835645
      832.100000       0.837202
      832.200000       0.838691
      832.300000       0.840090
      832.400000       0.841438
      832.500000       0.842906
      832.600000       0.844383
      832.700000       0.845735
      832.800000       0.846925
      832.900000       0.848106
      833.000000       0.849235
      833.100000       0.850150
      833.200000       0.850978
      833.300000       0.851929
      833.400000       0.853012
      833.500000       0.854062
      833.600000       0.855497
      833.700000       0.857058
      833.800000       0.858196
      833.900000       0.859215
      834.000000       0.860403
      834.100000       0.861652
      834.200000       0.862780
      834.300000       0.863878
      834.400000       0.865939
      834.500000       0.868605
      834.600000       0.870234
      834.700000       0.871341
      834.800000       0.872733
      834.900000       0.874150
      835.000000       0.875690
      835.100000       0.877818
      835.200000       0.879240
      835.300000       0.879607
      835.400000       0.880668
      835.500000       0.882216
      835.600000       0.883080
      835.700000       0.883768
      835.800000       0.884467
      835.900000       0.884974
      836.000000       0.885293
      836.100000       0.885653
      836.200000       0.886391
      836.300000       0.887265
      836.400000       0.887665
      836.500000       0.887283
      836.600000       0.886571
      836.700000       0.887336
      836.800000       0.888754
      836.900000       0.888562
      837.000000       0.887468
      837.100000       0.886853
      837.200000       0.887808
      837.300000       0.889148
      837.400000       0.889334
      837.500000       0.889268
      837.600000       0.889406
      837.700000       0.889328
      837.800000       0.889313
      837.900000       0.889700
      838.000000       0.889843
      838.100000       0.889500
      838.200000       0.888944
      838.300000       0.888490
      838.400000       0.888344
      838.500000       0.888193
      838.600000       0.887542
      838.700000       0.886130
      838.800000       0.884910
      838.900000       0.884007
      839.000000       0.882548
      839.100000       0.880536
      839.200000       0.878473
      839.300000       0.876645
      839.400000       0.875182
      839.500000       0.873841
      839.600000       0.872164
      839.700000       0.870094
      839.800000       0.868457
      839.900000       0.867015
      840.000000       0.864966
      840.100000       0.862698
      840.200000       0.860547
      840.300000       0.858458
      840.400000       0.856341
      840.500000       0.854231
      840.600000       0.852035
      840.700000       0.849781
      840.800000       0.847329
      840.900000       0.845110
      841.000000       0.843139
      841.100000       0.840647
      841.200000       0.837444
      841.300000       0.834041
      841.400000       0.831045
      841.500000       0.828262
      841.600000       0.824870
      841.700000       0.821006
      841.800000       0.817494
      841.900000       0.814234
      842.000000       0.811106
      842.100000       0.808004
      842.200000       0.805165
      842.300000       0.802487
      842.400000       0.799569
      842.500000       0.796496
      842.600000       0.794014
      842.700000       0.791506
      842.800000       0.788588
      842.900000       0.785652
      843.000000       0.782984
      843.100000       0.780456
      843.200000       0.777872
      843.300000       0.775252
      843.400000       0.773004
      843.500000       0.771153
      843.600000       0.769278
      843.700000       0.767329
      843.800000       0.765317
      843.900000       0.763427
      844.000000       0.761618
      844.100000       0.759863
      844.200000       0.758064
      844.300000       0.756323
      844.400000       0.754578
      844.500000       0.752816
      844.600000       0.750942
      844.700000       0.749099
      844.800000       0.747336
      844.900000       0.745563
      845.000000       0.743728
      845.100000       0.741824
      845.200000       0.739851
      845.300000       0.737766
      845.400000       0.735630
      845.500000       0.733405
      845.600000       0.731142
      845.700000       0.728834
      845.800000       0.726605
      845.900000       0.724420
      846.000000       0.722289
      846.100000       0.720187
      846.200000       0.718332
      846.300000       0.716724
      846.400000       0.715279
      846.500000       0.713882
      846.600000       0.712680
      846.700000       0.711747
      846.800000       0.710676
      846.900000       0.709447
      847.000000       0.708526
      847.100000       0.708037
      847.200000       0.707887
      847.300000       0.707651
      847.400000       0.707213
      847.500000       0.706792
      847.600000       0.706388
      847.700000       0.706068
      847.800000       0.705878
      847.900000       0.705749
      848.000000       0.705634
      848.100000       0.705547
      848.200000       0.705498
      848.300000       0.705485
      848.400000       0.705500
      848.500000       0.705548
      848.600000       0.705627
      848.700000       0.705750
      848.800000       0.705936
      848.900000       0.706211
      849.000000       0.706591
      849.100000       0.707134
      849.200000       0.707805
      849.300000       0.708616
      849.400000       0.709905
      849.500000       0.711795
      849.600000       0.713558
      849.700000       0.715270
      849.800000       0.717190
      849.900000       0.719042
      850.000000       0.720994
      850.100000       0.723885
      850.200000       0.726427
      850.300000       0.727504
      850.400000       0.729362
      850.500000       0.731866
      850.600000       0.732943
      850.700000       0.733873
      850.800000       0.735786
      850.900000       0.737320
      851.000000       0.738607
      851.100000       0.740503
      851.200000       0.742925
      851.300000       0.745466
      851.400000       0.747940
      851.500000       0.750393
      851.600000       0.753053
      851.700000       0.756263
      851.800000       0.759952
      851.900000       0.763511
      852.000000       0.767199
      852.100000       0.771221
      852.200000       0.774257
      852.300000       0.776347
      852.400000       0.778577
      852.500000       0.781571
      852.600000       0.785096
      852.700000       0.788016
      852.800000       0.790342
      852.900000       0.793057
      853.000000       0.796559
      853.100000       0.800376
      853.200000       0.802824
      853.300000       0.804910
      853.400000       0.807884
      853.500000       0.811351
      853.600000       0.814592
      853.700000       0.816967
      853.800000       0.818504
      853.900000       0.819686
      854.000000       0.821625
      854.100000       0.823689
      854.200000       0.824738
      854.300000       0.825812
      854.400000       0.827546
      854.500000       0.829167
      854.600000       0.830504
      854.700000       0.831606
      854.800000       0.832475
      854.900000       0.832862
      855.000000       0.832354
      855.100000       0.831051
      855.200000       0.829109
      855.300000       0.826651
      855.400000       0.823760
      855.500000       0.820502
      855.600000       0.817821
      855.700000       0.816129
      855.800000       0.814264
      855.900000       0.810505
      856.000000       0.803513
      856.100000       0.794485
      856.200000       0.786075
      856.300000       0.778043
      856.400000       0.770893
      856.500000       0.765095
      856.600000       0.759573
      856.700000       0.754156
      856.800000       0.749071
      856.900000       0.742904
      857.000000       0.734178
      857.100000       0.723152
      857.200000       0.711170
      857.300000       0.699390
      857.400000       0.687807
      857.500000       0.676463
      857.600000       0.665389
      857.700000       0.654709
      857.800000       0.643422
      857.900000       0.630977
      858.000000       0.617481
      858.100000       0.605031
      858.200000       0.591720
      858.300000       0.576645
      858.400000       0.562025
      858.500000       0.548571
      858.600000       0.534733
      858.700000       0.521029
      858.800000       0.507737
      858.900000       0.494678
      859.000000       0.481630
      859.100000       0.468393
      859.200000       0.455203
      859.300000       0.441929
      859.400000       0.428441
      859.500000       0.414611
      859.600000       0.401093
      859.700000       0.387096
      859.800000       0.373102
      859.900000       0.359451
      860.000000       0.346440
      860.100000       0.333900
      860.200000       0.322218
      860.300000       0.311196
      860.400000       0.300596
      860.500000       0.290488
      860.600000       0.280825
      860.700000       0.271577
      860.800000       0.262664
      860.900000       0.253937
      861.000000       0.245021
      861.100000       0.236225
      861.200000       0.227862
