17,   17, MVIRI VIS channel from srf_MET2_1984078_1984079_1801-Release_S10EL_10.dat
Number of data points:
730
Wavenumber (cm-1)   Filter response
     8916.629500       0.000000
     8924.587200       0.000000
     8932.559200       0.000002
     8940.545400       0.000011
     8948.545900       0.000032
     8956.560700       0.000068
     8964.589900       0.000125
     8972.633500       0.000206
     8980.691500       0.000315
     8988.764000       0.000457
     8996.851100       0.000634
     9004.952700       0.000850
     9013.068900       0.001109
     9021.199800       0.001413
     9029.345400       0.001767
     9037.505600       0.002171
     9045.680700       0.002630
     9053.870500       0.003146
     9062.075200       0.003721
     9070.294800       0.004359
     9078.529300       0.005059
     9086.778700       0.005826
     9095.043200       0.006661
     9103.322700       0.007566
     9111.617300       0.008542
     9119.927000       0.009592
     9128.251900       0.010716
     9136.592100       0.011916
     9144.947400       0.013194
     9153.318100       0.014550
     9161.704100       0.015986
     9170.105500       0.017503
     9178.522300       0.019101
     9186.954500       0.020781
     9195.402300       0.022545
     9203.865600       0.024392
     9212.344500       0.026324
     9220.839100       0.028340
     9229.349300       0.030442
     9237.875300       0.032629
     9246.417000       0.034902
     9254.974500       0.037260
     9263.547900       0.039705
     9272.137200       0.042236
     9280.742500       0.044852
     9289.363700       0.047555
     9298.000900       0.050343
     9306.654300       0.053217
     9315.323700       0.056176
     9324.009300       0.059220
     9332.711200       0.062348
     9341.429200       0.065560
     9350.163600       0.068856
     9358.914400       0.072234
     9367.681500       0.075696
     9376.465100       0.079239
     9385.265100       0.082862
     9394.081700       0.086566
     9402.914900       0.090350
     9411.764700       0.094212
     9420.631200       0.098153
     9429.514400       0.102169
     9438.414300       0.106263
     9447.331100       0.110431
     9456.264800       0.114673
     9465.215300       0.118989
     9474.182900       0.123376
     9483.167400       0.127835
     9492.169000       0.132363
     9501.187600       0.136960
     9510.223500       0.141625
     9519.276500       0.146355
     9528.346800       0.151152
     9537.434400       0.156012
     9546.539400       0.160935
     9555.661700       0.165920
     9564.801500       0.170964
     9573.958800       0.176068
     9583.133700       0.181229
     9592.326100       0.186447
     9601.536200       0.191720
     9610.764100       0.197045
     9620.009600       0.202424
     9629.273000       0.207854
     9638.554200       0.213333
     9647.853400       0.218860
     9657.170400       0.224434
     9666.505600       0.230054
     9675.858700       0.235718
     9685.230000       0.241423
     9694.619500       0.247171
     9704.027200       0.252958
     9713.453100       0.258784
     9722.897400       0.264646
     9732.360100       0.270544
     9741.841200       0.276477
     9751.340800       0.282441
     9760.859000       0.288438
     9770.395700       0.294464
     9779.951100       0.300518
     9789.525200       0.306600
     9799.118100       0.312708
     9808.729800       0.318839
     9818.360300       0.324994
     9828.009800       0.331170
     9837.678300       0.337367
     9847.365800       0.343582
     9857.072400       0.349814
     9866.798200       0.356063
     9876.543200       0.362325
     9886.307500       0.368602
     9896.091000       0.374891
     9905.894000       0.381190
     9915.716400       0.387498
     9925.558300       0.393814
     9935.419800       0.400138
     9945.300800       0.406467
     9955.201600       0.412799
     9965.122100       0.419135
     9975.062300       0.425472
     9985.022500       0.431810
     9995.002500       0.438148
    10005.002500       0.444483
    10015.022500       0.450814
    10025.062700       0.457141
    10035.122900       0.463463
    10045.203400       0.469778
    10055.304200       0.476085
    10065.425300       0.482383
    10075.566800       0.488671
    10085.728700       0.494947
    10095.911200       0.501212
    10106.114200       0.507462
    10116.337900       0.513698
    10126.582300       0.519919
    10136.847400       0.526123
    10147.133400       0.532310
    10157.440300       0.538477
    10167.768200       0.544626
    10178.117000       0.550753
    10188.487000       0.556859
    10198.878100       0.562943
    10209.290500       0.569003
    10219.724100       0.575039
    10230.179000       0.581050
    10240.655400       0.587035
    10251.153300       0.592993
    10261.672700       0.598923
    10272.213700       0.604825
    10282.776300       0.610697
    10293.360800       0.616539
    10303.967000       0.622350
    10314.595200       0.628129
    10325.245200       0.633876
    10335.917300       0.639590
    10346.611500       0.645270
    10357.327800       0.650915
    10368.066400       0.656525
    10378.827200       0.662099
    10389.610400       0.667637
    10400.416000       0.673137
    10411.244100       0.678600
    10422.094800       0.684024
    10432.968200       0.689409
    10443.864200       0.694755
    10454.783100       0.700061
    10465.724800       0.705325
    10476.689400       0.710549
    10487.677000       0.715732
    10498.687700       0.720872
    10509.721500       0.725969
    10520.778500       0.731024
    10531.858900       0.736034
    10542.962600       0.741002
    10554.089700       0.745925
    10565.240400       0.750803
    10576.414600       0.755635
    10587.612500       0.760423
    10598.834100       0.765165
    10610.079600       0.769861
    10621.348900       0.774510
    10632.642200       0.779112
    10643.959600       0.783668
    10655.301000       0.788176
    10666.666700       0.792636
    10678.056600       0.797049
    10689.470900       0.801413
    10700.909600       0.805730
    10712.372800       0.809998
    10723.860600       0.814217
    10735.373100       0.818387
    10746.910300       0.822509
    10758.472300       0.826581
    10770.059200       0.830603
    10781.671200       0.834577
    10793.308100       0.838500
    10804.970300       0.842375
    10816.657700       0.846199
    10828.370300       0.849973
    10840.108400       0.853697
    10851.871900       0.857372
    10863.661100       0.860996
    10875.475800       0.864570
    10887.316300       0.868094
    10899.182600       0.871568
    10911.074700       0.874992
    10922.992900       0.878366
    10934.937100       0.881689
    10946.907500       0.884963
    10958.904100       0.888186
    10970.927000       0.891359
    10982.976400       0.894483
    10995.052200       0.897556
    11007.154700       0.900580
    11019.283700       0.903554
    11031.439600       0.906478
    11043.622300       0.909353
    11055.832000       0.912178
    11068.068600       0.914954
    11080.332400       0.917680
    11092.623400       0.920358
    11104.941700       0.922987
    11117.287400       0.925566
    11129.660500       0.928097
    11142.061300       0.930580
    11154.489700       0.933015
    11166.945800       0.935401
    11179.429800       0.937739
    11191.941800       0.940030
    11204.481800       0.942272
    11217.049900       0.944468
    11229.646300       0.946616
    11242.270900       0.948718
    11254.924000       0.950773
    11267.605600       0.952781
    11280.315800       0.954743
    11293.054800       0.956659
    11305.822500       0.958529
    11318.619100       0.960353
    11331.444800       0.962132
    11344.299500       0.963867
    11357.183400       0.965556
    11370.096600       0.967201
    11383.039300       0.968801
    11396.011400       0.970358
    11409.013100       0.971871
    11422.044500       0.973340
    11435.105800       0.974767
    11448.196900       0.976150
    11461.318100       0.977491
    11474.469300       0.978789
    11487.650800       0.980046
    11500.862600       0.981261
    11514.104800       0.982434
    11527.377500       0.983566
    11540.680900       0.984658
    11554.015000       0.985709
    11567.380000       0.986720
    11580.775900       0.987691
    11594.202900       0.988622
    11607.661100       0.989514
    11621.150500       0.990368
    11634.671300       0.991182
    11648.223600       0.991959
    11661.807600       0.992697
    11675.423200       0.993398
    11689.070700       0.994061
    11702.750100       0.994687
    11716.461600       0.995277
    11730.205300       0.995830
    11743.981200       0.996347
    11757.789500       0.996829
    11771.630400       0.997275
    11785.503800       0.997686
    11799.410000       0.998062
    11813.349100       0.998404
    11827.321100       0.998712
    11841.326200       0.998986
    11855.364600       0.999226
    11869.436200       0.999434
    11883.541300       0.999608
    11897.680000       0.999750
    11911.852300       0.999860
    11926.058400       0.999938
    11940.298500       0.999985
    11954.572600       1.000000
    11968.880900       0.999984
    11983.223500       0.999938
    11997.600500       0.999861
    12012.012000       0.999755
    12026.458200       0.999619
    12040.939200       0.999453
    12055.455100       0.999259
    12070.006000       0.999035
    12084.592100       0.998784
    12099.213600       0.998504
    12113.870400       0.998196
    12128.562800       0.997861
    12143.290800       0.997498
    12158.054700       0.997109
    12172.854500       0.996692
    12187.690400       0.996250
    12202.562500       0.995781
    12217.471000       0.995287
    12232.415900       0.994767
    12247.397400       0.994222
    12262.415700       0.993652
    12277.470800       0.993057
    12292.563000       0.992438
    12307.692300       0.991795
    12322.858900       0.991127
    12338.062900       0.990437
    12353.304500       0.989723
    12368.583800       0.988985
    12383.900900       0.988225
    12399.256000       0.987443
    12414.649300       0.986638
    12430.080800       0.985811
    12445.550700       0.984962
    12461.059200       0.984091
    12476.606400       0.983200
    12492.192400       0.982287
    12507.817400       0.981353
    12523.481500       0.980399
    12539.185000       0.979424
    12554.927800       0.978429
    12570.710200       0.977414
    12586.532400       0.976379
    12602.394500       0.975325
    12618.296500       0.974251
    12634.238800       0.973159
    12650.221400       0.972047
    12666.244500       0.970917
    12682.308200       0.969768
    12698.412700       0.968601
    12714.558200       0.967416
    12730.744700       0.966213
    12746.972600       0.964992
    12763.241900       0.963754
    12779.552700       0.962498
    12795.905300       0.961226
    12812.299800       0.959936
    12828.736400       0.958629
    12845.215200       0.957306
    12861.736300       0.955966
    12878.300100       0.954610
    12894.906500       0.953238
    12911.555800       0.951850
    12928.248200       0.950446
    12944.983800       0.949027
    12961.762800       0.947592
    12978.585300       0.946141
    12995.451600       0.944676
    13012.361700       0.943195
    13029.316000       0.941699
    13046.314400       0.940189
    13063.357300       0.938664
    13080.444700       0.937124
    13097.576900       0.935570
    13114.754100       0.934002
    13131.976400       0.932420
    13149.243900       0.930824
    13166.556900       0.929213
    13183.915600       0.927589
    13201.320100       0.925952
    13218.770700       0.924301
    13236.267400       0.922636
    13253.810500       0.920958
    13271.400100       0.919267
    13289.036500       0.917563
    13306.719900       0.915846
    13324.450400       0.914116
    13342.228200       0.912373
    13360.053400       0.910617
    13377.926400       0.908849
    13395.847300       0.907069
    13413.816200       0.905276
    13431.833400       0.903470
    13449.899100       0.901653
    13468.013500       0.899823
    13486.176700       0.897981
    13504.388900       0.896127
    13522.650400       0.894262
    13540.961400       0.892384
    13559.322000       0.890495
    13577.732500       0.888594
    13596.193100       0.886682
    13614.703900       0.884758
    13633.265200       0.882822
    13651.877100       0.880876
    13670.540000       0.878918
    13689.253900       0.876948
    13708.019200       0.874968
    13726.836000       0.872976
    13745.704500       0.870974
    13764.624900       0.868960
    13783.597500       0.866936
    13802.622500       0.864901
    13821.700100       0.862855
    13840.830400       0.860799
    13860.013900       0.858731
    13879.250500       0.856654
    13898.540700       0.854565
    13917.884500       0.852467
    13937.282200       0.850357
    13956.734100       0.848238
    13976.240400       0.846108
    13995.801300       0.843968
    14015.417000       0.841818
    14035.087700       0.839658
    14054.813800       0.837488
    14074.595400       0.835307
    14094.432700       0.833117
    14114.326000       0.830917
    14134.275600       0.828707
    14154.281700       0.826488
    14174.344400       0.824258
    14194.464200       0.822019
    14214.641100       0.819771
    14234.875400       0.817513
    14255.167500       0.815245
    14275.517500       0.812968
    14295.925700       0.810682
    14316.392300       0.808386
    14336.917600       0.806081
    14357.501800       0.803767
    14378.145200       0.801444
    14398.848100       0.799112
    14419.610700       0.796771
    14440.433200       0.794420
    14461.316000       0.792061
    14482.259200       0.789694
    14503.263200       0.787317
    14524.328200       0.784932
    14545.454500       0.782538
    14566.642400       0.780135
    14587.892000       0.777725
    14609.203800       0.775305
    14630.577900       0.772877
    14652.014700       0.770442
    14673.514300       0.767997
    14695.077100       0.765545
    14716.703500       0.763085
    14738.393500       0.760616
    14760.147600       0.758140
    14781.966000       0.755656
    14803.849000       0.753164
    14825.796900       0.750664
    14847.809900       0.748157
    14869.888500       0.745642
    14892.032800       0.743120
    14914.243100       0.740590
    14936.519800       0.738054
    14958.863100       0.735510
    14981.273400       0.732958
    15003.750900       0.730400
    15026.296000       0.727835
    15048.909000       0.725263
    15071.590100       0.722684
    15094.339600       0.720099
    15117.158000       0.717507
    15140.045400       0.714908
    15163.002300       0.712303
    15186.028900       0.709692
    15209.125500       0.707075
    15232.292500       0.704451
    15255.530100       0.701822
    15278.838800       0.699187
    15302.218800       0.696546
    15325.670500       0.693899
    15349.194200       0.691247
    15372.790200       0.688589
    15396.458800       0.685926
    15420.200500       0.683258
    15444.015400       0.680584
    15467.904100       0.677906
    15491.866800       0.675223
    15515.903800       0.672535
    15540.015500       0.669842
    15564.202300       0.667144
    15588.464500       0.664443
    15612.802500       0.661737
    15637.216600       0.659027
    15661.707100       0.656312
    15686.274500       0.653594
    15710.919100       0.650872
    15735.641200       0.648147
    15760.441300       0.645418
    15785.319700       0.642685
    15810.276700       0.639949
    15835.312700       0.637211
    15860.428200       0.634469
    15885.623500       0.631724
    15910.899000       0.628976
    15936.255000       0.626226
    15961.691900       0.623474
    15987.210200       0.620719
    16012.810200       0.617961
    16038.492400       0.615202
    16064.257000       0.612441
    16090.104600       0.609678
    16116.035500       0.606914
    16142.050000       0.604148
    16168.148700       0.601381
    16194.332000       0.598612
    16220.600200       0.595843
    16246.953700       0.593072
    16273.393000       0.590301
    16299.918500       0.587530
    16326.530600       0.584757
    16353.229800       0.581985
    16380.016400       0.579212
    16406.890900       0.576440
    16433.853700       0.573667
    16460.905300       0.570895
    16488.046200       0.568123
    16515.276600       0.565352
    16542.597200       0.562581
    16570.008300       0.559811
    16597.510400       0.557043
    16625.103900       0.554275
    16652.789300       0.551509
    16680.567100       0.548745
    16708.437800       0.545982
    16736.401700       0.543220
    16764.459300       0.540461
    16792.611300       0.537703
    16820.857900       0.534948
    16849.199700       0.532196
    16877.637100       0.529445
    16906.170800       0.526698
    16934.801000       0.523953
    16963.528400       0.521211
    16992.353400       0.518472
    17021.276600       0.515736
    17050.298400       0.513004
    17079.419300       0.510275
    17108.639900       0.507550
    17137.960600       0.504828
    17167.382000       0.502110
    17196.904600       0.499397
    17226.528900       0.496687
    17256.255400       0.493982
    17286.084700       0.491281
    17316.017300       0.488585
    17346.053800       0.485893
    17376.194600       0.483206
    17406.440400       0.480524
    17436.791600       0.477847
    17467.248900       0.475176
    17497.812800       0.472509
    17528.483800       0.469848
    17559.262500       0.467192
    17590.149500       0.464542
    17621.145400       0.461898
    17652.250700       0.459259
    17683.466000       0.456626
    17714.791900       0.453999
    17746.228900       0.451379
    17777.777800       0.448764
    17809.439000       0.446156
    17841.213200       0.443554
    17873.101000       0.440959
    17905.103000       0.438370
    17937.219700       0.435787
    17969.451900       0.433212
    18001.800200       0.430643
    18034.265100       0.428081
    18066.847300       0.425526
    18099.547500       0.422978
    18132.366300       0.420437
    18165.304300       0.417902
    18198.362100       0.415375
    18231.540600       0.412856
    18264.840200       0.410343
    18298.261700       0.407838
    18331.805700       0.405340
    18365.472900       0.402849
    18399.264000       0.400366
    18433.179700       0.397890
    18467.220700       0.395421
    18501.387600       0.392960
    18535.681200       0.390506
    18570.102100       0.388060
    18604.651200       0.385621
    18639.329000       0.383190
    18674.136300       0.380766
    18709.073900       0.378350
    18744.142500       0.375941
    18779.342700       0.373540
    18814.675400       0.371145
    18850.141400       0.368759
    18885.741300       0.366379
    18921.475900       0.364007
    18957.346000       0.361643
    18993.352300       0.359285
    19029.495700       0.356935
    19065.776900       0.354592
    19102.196800       0.352256
    19138.756000       0.349927
    19175.455400       0.347605
    19212.295900       0.345290
    19249.278200       0.342981
    19286.403100       0.340680
    19323.671500       0.338385
    19361.084200       0.336097
    19398.642100       0.333815
    19436.346000       0.331539
    19474.196700       0.329270
    19512.195100       0.327007
    19550.342100       0.324750
    19588.638600       0.322499
    19627.085400       0.320254
    19665.683400       0.318015
    19704.433500       0.315781
    19743.336600       0.313552
    19782.393700       0.311329
    19821.605600       0.309111
    19860.973200       0.306898
    19900.497500       0.304690
