102,   102, MVIRI VIS channel from srf_MET7_2010123_2010124_1801-Release_S10EE_10.dat
Number of data points:
793
Wavenumber (cm-1)   Filter response
     8442.380800       0.000000
     8449.514200       0.000000
     8456.659600       0.000004
     8463.817200       0.000056
     8470.986900       0.000166
     8478.168700       0.000332
     8485.362700       0.000553
     8492.569000       0.000827
     8499.787500       0.001152
     8507.018300       0.001527
     8514.261400       0.001951
     8521.516800       0.002421
     8528.784600       0.002938
     8536.064900       0.003499
     8543.357500       0.004103
     8550.662700       0.004750
     8557.980300       0.005437
     8565.310500       0.006164
     8572.653200       0.006930
     8580.008600       0.007733
     8587.376600       0.008574
     8594.757200       0.009450
     8602.150500       0.010360
     8609.556600       0.011305
     8616.975400       0.012283
     8624.407100       0.013294
     8631.851500       0.014336
     8639.308900       0.015409
     8646.779100       0.016512
     8654.262200       0.017644
     8661.758300       0.018806
     8669.267400       0.019996
     8676.789600       0.021213
     8684.324800       0.022458
     8691.873100       0.023730
     8699.434500       0.025027
     8707.009100       0.026351
     8714.596900       0.027699
     8722.198000       0.029073
     8729.812300       0.030471
     8737.439900       0.031893
     8745.080900       0.033339
     8752.735200       0.034809
     8760.403000       0.036302
     8768.084200       0.037817
     8775.778900       0.039355
     8783.487000       0.040916
     8791.208800       0.042499
     8798.944100       0.044104
     8806.693100       0.045731
     8814.455700       0.047379
     8822.232000       0.049049
     8830.022100       0.050740
     8837.825900       0.052452
     8845.643500       0.054186
     8853.475000       0.055940
     8861.320300       0.057716
     8869.179600       0.059512
     8877.052800       0.061329
     8884.940000       0.063167
     8892.841300       0.065025
     8900.756600       0.066905
     8908.686000       0.068805
     8916.629500       0.070725
     8924.587200       0.072667
     8932.559200       0.074629
     8940.545400       0.076611
     8948.545900       0.078615
     8956.560700       0.080639
     8964.589900       0.082684
     8972.633500       0.084750
     8980.691500       0.086836
     8988.764000       0.088944
     8996.851100       0.091073
     9004.952700       0.093222
     9013.068900       0.095393
     9021.199800       0.097585
     9029.345400       0.099799
     9037.505600       0.102033
     9045.680700       0.104289
     9053.870500       0.106567
     9062.075200       0.108866
     9070.294800       0.111187
     9078.529300       0.113530
     9086.778700       0.115894
     9095.043200       0.118281
     9103.322700       0.120689
     9111.617300       0.123120
     9119.927000       0.125573
     9128.251900       0.128048
     9136.592100       0.130546
     9144.947400       0.133065
     9153.318100       0.135608
     9161.704100       0.138173
     9170.105500       0.140761
     9178.522300       0.143372
     9186.954500       0.146006
     9195.402300       0.148663
     9203.865600       0.151342
     9212.344500       0.154045
     9220.839100       0.156771
     9229.349300       0.159521
     9237.875300       0.162293
     9246.417000       0.165089
     9254.974500       0.167909
     9263.547900       0.170752
     9272.137200       0.173618
     9280.742500       0.176508
     9289.363700       0.179421
     9298.000900       0.182359
     9306.654300       0.185320
     9315.323700       0.188304
     9324.009300       0.191312
     9332.711200       0.194344
     9341.429200       0.197400
     9350.163600       0.200479
     9358.914400       0.203582
     9367.681500       0.206709
     9376.465100       0.209860
     9385.265100       0.213034
     9394.081700       0.216232
     9402.914900       0.219454
     9411.764700       0.222699
     9420.631200       0.225968
     9429.514400       0.229260
     9438.414300       0.232576
     9447.331100       0.235915
     9456.264800       0.239277
     9465.215300       0.242663
     9474.182900       0.246072
     9483.167400       0.249504
     9492.169000       0.252959
     9501.187600       0.256437
     9510.223500       0.259938
     9519.276500       0.263461
     9528.346800       0.267007
     9537.434400       0.270576
     9546.539400       0.274167
     9555.661700       0.277780
     9564.801500       0.281415
     9573.958800       0.285072
     9583.133700       0.288751
     9592.326100       0.292451
     9601.536200       0.296173
     9610.764100       0.299916
     9620.009600       0.303680
     9629.273000       0.307465
     9638.554200       0.311271
     9647.853400       0.315097
     9657.170400       0.318943
     9666.505600       0.322810
     9675.858700       0.326696
     9685.230000       0.330602
     9694.619500       0.334528
     9704.027200       0.338472
     9713.453100       0.342436
     9722.897400       0.346418
     9732.360100       0.350418
     9741.841200       0.354437
     9751.340800       0.358473
     9760.859000       0.362527
     9770.395700       0.366599
     9779.951100       0.370687
     9789.525200       0.374793
     9799.118100       0.378915
     9808.729800       0.383052
     9818.360300       0.387206
     9828.009800       0.391375
     9837.678300       0.395559
     9847.365800       0.399759
     9857.072400       0.403972
     9866.798200       0.408200
     9876.543200       0.412442
     9886.307500       0.416697
     9896.091000       0.420966
     9905.894000       0.425247
     9915.716400       0.429541
     9925.558300       0.433847
     9935.419800       0.438164
     9945.300800       0.442494
     9955.201600       0.446833
     9965.122100       0.451184
     9975.062300       0.455544
     9985.022500       0.459915
     9995.002500       0.464295
    10005.002500       0.468684
    10015.022500       0.473081
    10025.062700       0.477487
    10035.122900       0.481901
    10045.203400       0.486321
    10055.304200       0.490749
    10065.425300       0.495184
    10075.566800       0.499624
    10085.728700       0.504070
    10095.911200       0.508522
    10106.114200       0.512978
    10116.337900       0.517439
    10126.582300       0.521903
    10136.847400       0.526371
    10147.133400       0.530842
    10157.440300       0.535316
    10167.768200       0.539792
    10178.117000       0.544269
    10188.487000       0.548748
    10198.878100       0.553228
    10209.290500       0.557708
    10219.724100       0.562188
    10230.179000       0.566667
    10240.655400       0.571145
    10251.153300       0.575622
    10261.672700       0.580096
    10272.213700       0.584569
    10282.776300       0.589038
    10293.360800       0.593504
    10303.967000       0.597966
    10314.595200       0.602424
    10325.245200       0.606877
    10335.917300       0.611324
    10346.611500       0.615766
    10357.327800       0.620202
    10368.066400       0.624631
    10378.827200       0.629053
    10389.610400       0.633467
    10400.416000       0.637873
    10411.244100       0.642271
    10422.094800       0.646659
    10432.968200       0.651038
    10443.864200       0.655407
    10454.783100       0.659765
    10465.724800       0.664113
    10476.689400       0.668449
    10487.677000       0.672773
    10498.687700       0.677085
    10509.721500       0.681384
    10520.778500       0.685669
    10531.858900       0.689941
    10542.962600       0.694199
    10554.089700       0.698442
    10565.240400       0.702670
    10576.414600       0.706882
    10587.612500       0.711078
    10598.834100       0.715258
    10610.079600       0.719421
    10621.348900       0.723566
    10632.642200       0.727693
    10643.959600       0.731803
    10655.301000       0.735893
    10666.666700       0.739964
    10678.056600       0.744016
    10689.470900       0.748047
    10700.909600       0.752058
    10712.372800       0.756049
    10723.860600       0.760017
    10735.373100       0.763964
    10746.910300       0.767889
    10758.472300       0.771791
    10770.059200       0.775670
    10781.671200       0.779526
    10793.308100       0.783358
    10804.970300       0.787166
    10816.657700       0.790949
    10828.370300       0.794707
    10840.108400       0.798439
    10851.871900       0.802146
    10863.661100       0.805827
    10875.475800       0.809481
    10887.316300       0.813108
    10899.182600       0.816707
    10911.074700       0.820280
    10922.992900       0.823824
    10934.937100       0.827339
    10946.907500       0.830826
    10958.904100       0.834284
    10970.927000       0.837713
    10982.976400       0.841111
    10995.052200       0.844480
    11007.154700       0.847818
    11019.283700       0.851125
    11031.439600       0.854402
    11043.622300       0.857647
    11055.832000       0.860860
    11068.068600       0.864041
    11080.332400       0.867190
    11092.623400       0.870307
    11104.941700       0.873390
    11117.287400       0.876441
    11129.660500       0.879458
    11142.061300       0.882442
    11154.489700       0.885391
    11166.945800       0.888306
    11179.429800       0.891187
    11191.941800       0.894033
    11204.481800       0.896845
    11217.049900       0.899621
    11229.646300       0.902362
    11242.270900       0.905067
    11254.924000       0.907736
    11267.605600       0.910370
    11280.315800       0.912967
    11293.054800       0.915528
    11305.822500       0.918052
    11318.619100       0.920539
    11331.444800       0.922990
    11344.299500       0.925403
    11357.183400       0.927779
    11370.096600       0.930118
    11383.039300       0.932419
    11396.011400       0.934682
    11409.013100       0.936907
    11422.044500       0.939095
    11435.105800       0.941244
    11448.196900       0.943355
    11461.318100       0.945428
    11474.469300       0.947462
    11487.650800       0.949457
    11500.862600       0.951415
    11514.104800       0.953333
    11527.377500       0.955212
    11540.680900       0.957053
    11554.015000       0.958855
    11567.380000       0.960617
    11580.775900       0.962341
    11594.202900       0.964025
    11607.661100       0.965671
    11621.150500       0.967277
    11634.671300       0.968844
    11648.223600       0.970372
    11661.807600       0.971861
    11675.423200       0.973310
    11689.070700       0.974721
    11702.750100       0.976092
    11716.461600       0.977424
    11730.205300       0.978717
    11743.981200       0.979970
    11757.789500       0.981185
    11771.630400       0.982361
    11785.503800       0.983497
    11799.410000       0.984595
    11813.349100       0.985654
    11827.321100       0.986674
    11841.326200       0.987655
    11855.364600       0.988598
    11869.436200       0.989502
    11883.541300       0.990368
    11897.680000       0.991196
    11911.852300       0.991985
    11926.058400       0.992736
    11940.298500       0.993449
    11954.572600       0.994125
    11968.880900       0.994762
    11983.223500       0.995363
    11997.600500       0.995925
    12012.012000       0.996451
    12026.458200       0.996939
    12040.939200       0.997391
    12055.455100       0.997806
    12070.006000       0.998184
    12084.592100       0.998526
    12099.213600       0.998831
    12113.870400       0.999101
    12128.562800       0.999335
    12143.290800       0.999533
    12158.054700       0.999697
    12172.854500       0.999824
    12187.690400       0.999918
    12202.562500       0.999976
    12217.471000       1.000000
    12232.415900       0.999990
    12247.397400       0.999946
    12262.415700       0.999868
    12277.470800       0.999757
    12292.563000       0.999613
    12307.692300       0.999436
    12322.858900       0.999226
    12338.062900       0.998984
    12353.304500       0.998710
    12368.583800       0.998405
    12383.900900       0.998068
    12399.256000       0.997700
    12414.649300       0.997301
    12430.080800       0.996872
    12445.550700       0.996412
    12461.059200       0.995923
    12476.606400       0.995405
    12492.192400       0.994857
    12507.817400       0.994280
    12523.481500       0.993675
    12539.185000       0.993042
    12554.927800       0.992381
    12570.710200       0.991692
    12586.532400       0.990977
    12602.394500       0.990235
    12618.296500       0.989466
    12634.238800       0.988672
    12650.221400       0.987851
    12666.244500       0.987006
    12682.308200       0.986136
    12698.412700       0.985242
    12714.558200       0.984323
    12730.744700       0.983381
    12746.972600       0.982416
    12763.241900       0.981427
    12779.552700       0.980417
    12795.905300       0.979384
    12812.299800       0.978330
    12828.736400       0.977254
    12845.215200       0.976158
    12861.736300       0.975041
    12878.300100       0.973904
    12894.906500       0.972748
    12911.555800       0.971573
    12928.248200       0.970379
    12944.983800       0.969166
    12961.762800       0.967936
    12978.585300       0.966689
    12995.451600       0.965424
    13012.361700       0.964143
    13029.316000       0.962846
    13046.314400       0.961533
    13063.357300       0.960205
    13080.444700       0.958863
    13097.576900       0.957506
    13114.754100       0.956135
    13131.976400       0.954750
    13149.243900       0.953353
    13166.556900       0.951943
    13183.915600       0.950521
    13201.320100       0.949088
    13218.770700       0.947643
    13236.267400       0.946188
    13253.810500       0.944722
    13271.400100       0.943247
    13289.036500       0.941762
    13306.719900       0.940268
    13324.450400       0.938766
    13342.228200       0.937256
    13360.053400       0.935738
    13377.926400       0.934213
    13395.847300       0.932681
    13413.816200       0.931144
    13431.833400       0.929600
    13449.899100       0.928051
    13468.013500       0.926498
    13486.176700       0.924940
    13504.388900       0.923378
    13522.650400       0.921812
    13540.961400       0.920244
    13559.322000       0.918672
    13577.732500       0.917099
    13596.193100       0.915524
    13614.703900       0.913947
    13633.265200       0.912370
    13651.877100       0.910792
    13670.540000       0.909214
    13689.253900       0.907637
    13708.019200       0.906060
    13726.836000       0.904485
    13745.704500       0.902911
    13764.624900       0.901339
    13783.597500       0.899770
    13802.622500       0.898204
    13821.700100       0.896642
    13840.830400       0.895083
    13860.013900       0.893528
    13879.250500       0.891977
    13898.540700       0.890432
    13917.884500       0.888892
    13937.282200       0.887358
    13956.734100       0.885830
    13976.240400       0.884308
    13995.801300       0.882794
    14015.417000       0.881286
    14035.087700       0.879786
    14054.813800       0.878294
    14074.595400       0.876811
    14094.432700       0.875336
    14114.326000       0.873871
    14134.275600       0.872414
    14154.281700       0.870968
    14174.344400       0.869532
    14194.464200       0.868106
    14214.641100       0.866691
    14234.875400       0.865287
    14255.167500       0.863894
    14275.517500       0.862513
    14295.925700       0.861144
    14316.392300       0.859788
    14336.917600       0.858444
    14357.501800       0.857113
    14378.145200       0.855796
    14398.848100       0.854491
    14419.610700       0.853201
    14440.433200       0.851925
    14461.316000       0.850663
    14482.259200       0.849415
    14503.263200       0.848182
    14524.328200       0.846965
    14545.454500       0.845762
    14566.642400       0.844576
    14587.892000       0.843405
    14609.203800       0.842249
    14630.577900       0.841110
    14652.014700       0.839988
    14673.514300       0.838882
    14695.077100       0.837793
    14716.703500       0.836720
    14738.393500       0.835665
    14760.147600       0.834627
    14781.966000       0.833607
    14803.849000       0.832604
    14825.796900       0.831619
    14847.809900       0.830651
    14869.888500       0.829702
    14892.032800       0.828771
    14914.243100       0.827858
    14936.519800       0.826964
    14958.863100       0.826088
    14981.273400       0.825230
    15003.750900       0.824391
    15026.296000       0.823571
    15048.909000       0.822769
    15071.590100       0.821987
    15094.339600       0.821223
    15117.158000       0.820478
    15140.045400       0.819752
    15163.002300       0.819045
    15186.028900       0.818357
    15209.125500       0.817688
    15232.292500       0.817038
    15255.530100       0.816407
    15278.838800       0.815795
    15302.218800       0.815201
    15325.670500       0.814627
    15349.194200       0.814072
    15372.790200       0.813535
    15396.458800       0.813017
    15420.200500       0.812518
    15444.015400       0.812037
    15467.904100       0.811575
    15491.866800       0.811131
    15515.903800       0.810705
    15540.015500       0.810298
    15564.202300       0.809909
    15588.464500       0.809537
    15612.802500       0.809183
    15637.216600       0.808847
    15661.707100       0.808529
    15686.274500       0.808227
    15710.919100       0.807943
    15735.641200       0.807676
    15760.441300       0.807425
    15785.319700       0.807191
    15810.276700       0.806973
    15835.312700       0.806771
    15860.428200       0.806585
    15885.623500       0.806415
    15910.899000       0.806260
    15936.255000       0.806120
    15961.691900       0.805994
    15987.210200       0.805883
    16012.810200       0.805787
    16038.492400       0.805704
    16064.257000       0.805635
    16090.104600       0.805579
    16116.035500       0.805536
    16142.050000       0.805506
    16168.148700       0.805488
    16194.332000       0.805482
    16220.600200       0.805487
    16246.953700       0.805504
    16273.393000       0.805531
    16299.918500       0.805569
    16326.530600       0.805617
    16353.229800       0.805674
    16380.016400       0.805741
    16406.890900       0.805816
    16433.853700       0.805900
    16460.905300       0.805992
    16488.046200       0.806091
    16515.276600       0.806197
    16542.597200       0.806309
    16570.008300       0.806427
    16597.510400       0.806551
    16625.103900       0.806680
    16652.789300       0.806814
    16680.567100       0.806951
    16708.437800       0.807093
    16736.401700       0.807237
    16764.459300       0.807383
    16792.611300       0.807532
    16820.857900       0.807681
    16849.199700       0.807832
    16877.637100       0.807983
    16906.170800       0.808133
    16934.801000       0.808283
    16963.528400       0.808431
    16992.353400       0.808577
    17021.276600       0.808720
    17050.298400       0.808860
    17079.419300       0.808996
    17108.639900       0.809128
    17137.960600       0.809254
    17167.382000       0.809375
    17196.904600       0.809489
    17226.528900       0.809596
    17256.255400       0.809695
    17286.084700       0.809786
    17316.017300       0.809868
    17346.053800       0.809940
    17376.194600       0.810002
    17406.440400       0.810053
    17436.791600       0.810092
    17467.248900       0.810118
    17497.812800       0.810131
    17528.483800       0.810131
    17559.262500       0.810116
    17590.149500       0.810085
    17621.145400       0.810039
    17652.250700       0.809976
    17683.466000       0.809895
