15,   15, MVIRI VIS channel from srf_MET5_1993033_1993034_1801-Release_S10EL_10.dat
Number of data points:
806
Wavenumber (cm-1)   Filter response
     8350.730700       0.000000
     8357.710000       0.000000
     8364.701000       0.000000
     8371.703600       0.000001
     8378.718100       0.000004
     8385.744200       0.000009
     8392.782200       0.000016
     8399.832000       0.000026
     8406.893700       0.000040
     8413.967200       0.000058
     8421.052600       0.000080
     8428.150000       0.000108
     8435.259400       0.000141
     8442.380800       0.000179
     8449.514200       0.000224
     8456.659600       0.000276
     8463.817200       0.000335
     8470.986900       0.000401
     8478.168700       0.000475
     8485.362700       0.000557
     8492.569000       0.000648
     8499.787500       0.000747
     8507.018300       0.000855
     8514.261400       0.000973
     8521.516800       0.001101
     8528.784600       0.001238
     8536.064900       0.001386
     8543.357500       0.001544
     8550.662700       0.001713
     8557.980300       0.001893
     8565.310500       0.002084
     8572.653200       0.002287
     8580.008600       0.002501
     8587.376600       0.002728
     8594.757200       0.002966
     8602.150500       0.003217
     8609.556600       0.003481
     8616.975400       0.003757
     8624.407100       0.004046
     8631.851500       0.004348
     8639.308900       0.004664
     8646.779100       0.004993
     8654.262200       0.005335
     8661.758300       0.005692
     8669.267400       0.006062
     8676.789600       0.006447
     8684.324800       0.006846
     8691.873100       0.007259
     8699.434500       0.007687
     8707.009100       0.008129
     8714.596900       0.008586
     8722.198000       0.009059
     8729.812300       0.009546
     8737.439900       0.010049
     8745.080900       0.010567
     8752.735200       0.011101
     8760.403000       0.011650
     8768.084200       0.012215
     8775.778900       0.012796
     8783.487000       0.013393
     8791.208800       0.014006
     8798.944100       0.014636
     8806.693100       0.015282
     8814.455700       0.015944
     8822.232000       0.016623
     8830.022100       0.017319
     8837.825900       0.018031
     8845.643500       0.018760
     8853.475000       0.019507
     8861.320300       0.020271
     8869.179600       0.021051
     8877.052800       0.021850
     8884.940000       0.022665
     8892.841300       0.023499
     8900.756600       0.024350
     8908.686000       0.025219
     8916.629500       0.026106
     8924.587200       0.027010
     8932.559200       0.027933
     8940.545400       0.028874
     8948.545900       0.029834
     8956.560700       0.030812
     8964.589900       0.031808
     8972.633500       0.032823
     8980.691500       0.033857
     8988.764000       0.034910
     8996.851100       0.035982
     9004.952700       0.037072
     9013.068900       0.038182
     9021.199800       0.039311
     9029.345400       0.040460
     9037.505600       0.041628
     9045.680700       0.042815
     9053.870500       0.044022
     9062.075200       0.045249
     9070.294800       0.046496
     9078.529300       0.047763
     9086.778700       0.049049
     9095.043200       0.050356
     9103.322700       0.051683
     9111.617300       0.053031
     9119.927000       0.054399
     9128.251900       0.055787
     9136.592100       0.057196
     9144.947400       0.058626
     9153.318100       0.060076
     9161.704100       0.061548
     9170.105500       0.063040
     9178.522300       0.064554
     9186.954500       0.066088
     9195.402300       0.067644
     9203.865600       0.069222
     9212.344500       0.070820
     9220.839100       0.072441
     9229.349300       0.074083
     9237.875300       0.075746
     9246.417000       0.077431
     9254.974500       0.079139
     9263.547900       0.080868
     9272.137200       0.082619
     9280.742500       0.084392
     9289.363700       0.086187
     9298.000900       0.088005
     9306.654300       0.089845
     9315.323700       0.091707
     9324.009300       0.093592
     9332.711200       0.095499
     9341.429200       0.097429
     9350.163600       0.099381
     9358.914400       0.101356
     9367.681500       0.103354
     9376.465100       0.105375
     9385.265100       0.107418
     9394.081700       0.109485
     9402.914900       0.111574
     9411.764700       0.113687
     9420.631200       0.115822
     9429.514400       0.117981
     9438.414300       0.120163
     9447.331100       0.122367
     9456.264800       0.124596
     9465.215300       0.126847
     9474.182900       0.129122
     9483.167400       0.131420
     9492.169000       0.133741
     9501.187600       0.136086
     9510.223500       0.138455
     9519.276500       0.140846
     9528.346800       0.143261
     9537.434400       0.145700
     9546.539400       0.148162
     9555.661700       0.150647
     9564.801500       0.153156
     9573.958800       0.155688
     9583.133700       0.158244
     9592.326100       0.160823
     9601.536200       0.163426
     9610.764100       0.166052
     9620.009600       0.168702
     9629.273000       0.171375
     9638.554200       0.174071
     9647.853400       0.176790
     9657.170400       0.179533
     9666.505600       0.182299
     9675.858700       0.185089
     9685.230000       0.187901
     9694.619500       0.190737
     9704.027200       0.193595
     9713.453100       0.196477
     9722.897400       0.199382
     9732.360100       0.202310
     9741.841200       0.205260
     9751.340800       0.208234
     9760.859000       0.211230
     9770.395700       0.214249
     9779.951100       0.217290
     9789.525200       0.220354
     9799.118100       0.223440
     9808.729800       0.226548
     9818.360300       0.229679
     9828.009800       0.232832
     9837.678300       0.236007
     9847.365800       0.239204
     9857.072400       0.242422
     9866.798200       0.245662
     9876.543200       0.248924
     9886.307500       0.252207
     9896.091000       0.255512
     9905.894000       0.258837
     9915.716400       0.262184
     9925.558300       0.265551
     9935.419800       0.268940
     9945.300800       0.272349
     9955.201600       0.275778
     9965.122100       0.279228
     9975.062300       0.282697
     9985.022500       0.286187
     9995.002500       0.289697
    10005.002500       0.293226
    10015.022500       0.296774
    10025.062700       0.300342
    10035.122900       0.303929
    10045.203400       0.307535
    10055.304200       0.311159
    10065.425300       0.314802
    10075.566800       0.318463
    10085.728700       0.322142
    10095.911200       0.325840
    10106.114200       0.329554
    10116.337900       0.333286
    10126.582300       0.337036
    10136.847400       0.340802
    10147.133400       0.344585
    10157.440300       0.348385
    10167.768200       0.352201
    10178.117000       0.356033
    10188.487000       0.359880
    10198.878100       0.363744
    10209.290500       0.367622
    10219.724100       0.371516
    10230.179000       0.375424
    10240.655400       0.379347
    10251.153300       0.383284
    10261.672700       0.387235
    10272.213700       0.391199
    10282.776300       0.395177
    10293.360800       0.399169
    10303.967000       0.403172
    10314.595200       0.407189
    10325.245200       0.411217
    10335.917300       0.415258
    10346.611500       0.419310
    10357.327800       0.423374
    10368.066400       0.427448
    10378.827200       0.431533
    10389.610400       0.435629
    10400.416000       0.439735
    10411.244100       0.443850
    10422.094800       0.447975
    10432.968200       0.452109
    10443.864200       0.456252
    10454.783100       0.460403
    10465.724800       0.464562
    10476.689400       0.468729
    10487.677000       0.472904
    10498.687700       0.477085
    10509.721500       0.481274
    10520.778500       0.485468
    10531.858900       0.489669
    10542.962600       0.493875
    10554.089700       0.498087
    10565.240400       0.502303
    10576.414600       0.506524
    10587.612500       0.510750
    10598.834100       0.514979
    10610.079600       0.519212
    10621.348900       0.523448
    10632.642200       0.527686
    10643.959600       0.531928
    10655.301000       0.536171
    10666.666700       0.540415
    10678.056600       0.544661
    10689.470900       0.548908
    10700.909600       0.553155
    10712.372800       0.557402
    10723.860600       0.561649
    10735.373100       0.565896
    10746.910300       0.570141
    10758.472300       0.574385
    10770.059200       0.578627
    10781.671200       0.582867
    10793.308100       0.587104
    10804.970300       0.591338
    10816.657700       0.595569
    10828.370300       0.599796
    10840.108400       0.604019
    10851.871900       0.608237
    10863.661100       0.612450
    10875.475800       0.616658
    10887.316300       0.620860
    10899.182600       0.625056
    10911.074700       0.629245
    10922.992900       0.633427
    10934.937100       0.637602
    10946.907500       0.641769
    10958.904100       0.645928
    10970.927000       0.650079
    10982.976400       0.654220
    10995.052200       0.658352
    11007.154700       0.662474
    11019.283700       0.666586
    11031.439600       0.670688
    11043.622300       0.674778
    11055.832000       0.678858
    11068.068600       0.682925
    11080.332400       0.686981
    11092.623400       0.691023
    11104.941700       0.695053
    11117.287400       0.699070
    11129.660500       0.703073
    11142.061300       0.707062
    11154.489700       0.711036
    11166.945800       0.714995
    11179.429800       0.718940
    11191.941800       0.722868
    11204.481800       0.726781
    11217.049900       0.730677
    11229.646300       0.734557
    11242.270900       0.738419
    11254.924000       0.742264
    11267.605600       0.746091
    11280.315800       0.749900
    11293.054800       0.753690
    11305.822500       0.757461
    11318.619100       0.761213
    11331.444800       0.764945
    11344.299500       0.768658
    11357.183400       0.772349
    11370.096600       0.776020
    11383.039300       0.779670
    11396.011400       0.783299
    11409.013100       0.786905
    11422.044500       0.790490
    11435.105800       0.794052
    11448.196900       0.797591
    11461.318100       0.801107
    11474.469300       0.804600
    11487.650800       0.808068
    11500.862600       0.811513
    11514.104800       0.814934
    11527.377500       0.818329
    11540.680900       0.821700
    11554.015000       0.825045
    11567.380000       0.828364
    11580.775900       0.831658
    11594.202900       0.834925
    11607.661100       0.838166
    11621.150500       0.841380
    11634.671300       0.844567
    11648.223600       0.847726
    11661.807600       0.850858
    11675.423200       0.853962
    11689.070700       0.857037
    11702.750100       0.860084
    11716.461600       0.863103
    11730.205300       0.866092
    11743.981200       0.869052
    11757.789500       0.871983
    11771.630400       0.874884
    11785.503800       0.877755
    11799.410000       0.880596
    11813.349100       0.883406
    11827.321100       0.886186
    11841.326200       0.888935
    11855.364600       0.891653
    11869.436200       0.894340
    11883.541300       0.896995
    11897.680000       0.899618
    11911.852300       0.902210
    11926.058400       0.904770
    11940.298500       0.907297
    11954.572600       0.909792
    11968.880900       0.912255
    11983.223500       0.914684
    11997.600500       0.917081
    12012.012000       0.919445
    12026.458200       0.921776
    12040.939200       0.924073
    12055.455100       0.926337
    12070.006000       0.928567
    12084.592100       0.930764
    12099.213600       0.932926
    12113.870400       0.935055
    12128.562800       0.937150
    12143.290800       0.939211
    12158.054700       0.941237
    12172.854500       0.943229
    12187.690400       0.945186
    12202.562500       0.947109
    12217.471000       0.948998
    12232.415900       0.950851
    12247.397400       0.952670
    12262.415700       0.954455
    12277.470800       0.956204
    12292.563000       0.957919
    12307.692300       0.959598
    12322.858900       0.961243
    12338.062900       0.962853
    12353.304500       0.964427
    12368.583800       0.965967
    12383.900900       0.967472
    12399.256000       0.968942
    12414.649300       0.970376
    12430.080800       0.971776
    12445.550700       0.973141
    12461.059200       0.974471
    12476.606400       0.975766
    12492.192400       0.977026
    12507.817400       0.978251
    12523.481500       0.979441
    12539.185000       0.980597
    12554.927800       0.981717
    12570.710200       0.982804
    12586.532400       0.983855
    12602.394500       0.984873
    12618.296500       0.985856
    12634.238800       0.986804
    12650.221400       0.987718
    12666.244500       0.988599
    12682.308200       0.989445
    12698.412700       0.990257
    12714.558200       0.991036
    12730.744700       0.991780
    12746.972600       0.992492
    12763.241900       0.993170
    12779.552700       0.993815
    12795.905300       0.994426
    12812.299800       0.995005
    12828.736400       0.995551
    12845.215200       0.996064
    12861.736300       0.996545
    12878.300100       0.996994
    12894.906500       0.997410
    12911.555800       0.997795
    12928.248200       0.998148
    12944.983800       0.998470
    12961.762800       0.998760
    12978.585300       0.999019
    12995.451600       0.999247
    13012.361700       0.999445
    13029.316000       0.999612
    13046.314400       0.999749
    13063.357300       0.999856
    13080.444700       0.999933
    13097.576900       0.999981
    13114.754100       1.000000
    13131.976400       0.999990
    13149.243900       0.999951
    13166.556900       0.999883
    13183.915600       0.999788
    13201.320100       0.999665
    13218.770700       0.999514
    13236.267400       0.999335
    13253.810500       0.999130
    13271.400100       0.998898
    13289.036500       0.998640
    13306.719900       0.998355
    13324.450400       0.998045
    13342.228200       0.997709
    13360.053400       0.997348
    13377.926400       0.996963
    13395.847300       0.996552
    13413.816200       0.996118
    13431.833400       0.995659
    13449.899100       0.995177
    13468.013500       0.994672
    13486.176700       0.994145
    13504.388900       0.993594
    13522.650400       0.993022
    13540.961400       0.992427
    13559.322000       0.991812
    13577.732500       0.991175
    13596.193100       0.990517
    13614.703900       0.989840
    13633.265200       0.989142
    13651.877100       0.988425
    13670.540000       0.987688
    13689.253900       0.986933
    13708.019200       0.986159
    13726.836000       0.985368
    13745.704500       0.984558
    13764.624900       0.983732
    13783.597500       0.982888
    13802.622500       0.982028
    13821.700100       0.981152
    13840.830400       0.980260
    13860.013900       0.979353
    13879.250500       0.978431
    13898.540700       0.977495
    13917.884500       0.976544
    13937.282200       0.975580
    13956.734100       0.974603
    13976.240400       0.973613
    13995.801300       0.972610
    14015.417000       0.971596
    14035.087700       0.970569
    14054.813800       0.969532
    14074.595400       0.968484
    14094.432700       0.967425
    14114.326000       0.966357
    14134.275600       0.965279
    14154.281700       0.964192
    14174.344400       0.963096
    14194.464200       0.961993
    14214.641100       0.960881
    14234.875400       0.959762
    14255.167500       0.958635
    14275.517500       0.957503
    14295.925700       0.956364
    14316.392300       0.955219
    14336.917600       0.954069
    14357.501800       0.952914
    14378.145200       0.951755
    14398.848100       0.950592
    14419.610700       0.949424
    14440.433200       0.948254
    14461.316000       0.947081
    14482.259200       0.945905
    14503.263200       0.944727
    14524.328200       0.943548
    14545.454500       0.942367
    14566.642400       0.941186
    14587.892000       0.940004
    14609.203800       0.938822
    14630.577900       0.937641
    14652.014700       0.936460
    14673.514300       0.935281
    14695.077100       0.934103
    14716.703500       0.932926
    14738.393500       0.931753
    14760.147600       0.930582
    14781.966000       0.929414
    14803.849000       0.928249
    14825.796900       0.927088
    14847.809900       0.925931
    14869.888500       0.924779
    14892.032800       0.923632
    14914.243100       0.922490
    14936.519800       0.921353
    14958.863100       0.920223
    14981.273400       0.919099
    15003.750900       0.917981
    15026.296000       0.916870
    15048.909000       0.915767
    15071.590100       0.914671
    15094.339600       0.913583
    15117.158000       0.912503
    15140.045400       0.911432
    15163.002300       0.910369
    15186.028900       0.909316
    15209.125500       0.908272
    15232.292500       0.907238
    15255.530100       0.906214
    15278.838800       0.905200
    15302.218800       0.904197
    15325.670500       0.903204
    15349.194200       0.902222
    15372.790200       0.901252
    15396.458800       0.900294
    15420.200500       0.899347
    15444.015400       0.898412
    15467.904100       0.897489
    15491.866800       0.896579
    15515.903800       0.895681
    15540.015500       0.894797
    15564.202300       0.893925
    15588.464500       0.893066
    15612.802500       0.892222
    15637.216600       0.891390
    15661.707100       0.890573
    15686.274500       0.889769
    15710.919100       0.888979
    15735.641200       0.888204
    15760.441300       0.887443
    15785.319700       0.886697
    15810.276700       0.885965
    15835.312700       0.885247
    15860.428200       0.884545
    15885.623500       0.883858
    15910.899000       0.883185
    15936.255000       0.882528
    15961.691900       0.881886
    15987.210200       0.881259
    16012.810200       0.880647
    16038.492400       0.880050
    16064.257000       0.879469
    16090.104600       0.878903
    16116.035500       0.878353
    16142.050000       0.877818
    16168.148700       0.877298
    16194.332000       0.876794
    16220.600200       0.876305
    16246.953700       0.875831
    16273.393000       0.875372
    16299.918500       0.874929
    16326.530600       0.874501
    16353.229800       0.874088
    16380.016400       0.873689
    16406.890900       0.873306
    16433.853700       0.872938
    16460.905300       0.872584
    16488.046200       0.872244
    16515.276600       0.871920
    16542.597200       0.871609
    16570.008300       0.871312
    16597.510400       0.871030
    16625.103900       0.870761
    16652.789300       0.870506
    16680.567100       0.870264
    16708.437800       0.870035
    16736.401700       0.869819
    16764.459300       0.869616
    16792.611300       0.869426
    16820.857900       0.869248
    16849.199700       0.869081
    16877.637100       0.868927
    16906.170800       0.868784
    16934.801000       0.868652
    16963.528400       0.868530
    16992.353400       0.868420
    17021.276600       0.868319
    17050.298400       0.868229
    17079.419300       0.868148
    17108.639900       0.868076
    17137.960600       0.868013
    17167.382000       0.867958
    17196.904600       0.867911
    17226.528900       0.867872
    17256.255400       0.867840
    17286.084700       0.867815
