15, channel 15 SRF extracted from AHI-9_SpectralResponsivity_Data.xlsx (release Oct 2013)
Number of data points:
1631
Wavenumber (cm-1)   Filter response
      732.000000       0.000850
      732.100000       0.000864
      732.200000       0.000878
      732.300000       0.000893
      732.400000       0.000907
      732.500000       0.000921
      732.600000       0.000935
      732.700000       0.000947
      732.800000       0.000960
      732.900000       0.000971
      733.000000       0.000982
      733.100000       0.000992
      733.200000       0.001001
      733.300000       0.001009
      733.400000       0.001017
      733.500000       0.001024
      733.600000       0.001031
      733.700000       0.001037
      733.800000       0.001043
      733.900000       0.001048
      734.000000       0.001053
      734.100000       0.001057
      734.200000       0.001061
      734.300000       0.001065
      734.400000       0.001068
      734.500000       0.001070
      734.600000       0.001072
      734.700000       0.001073
      734.800000       0.001073
      734.900000       0.001072
      735.000000       0.001071
      735.100000       0.001068
      735.200000       0.001065
      735.300000       0.001062
      735.400000       0.001058
      735.500000       0.001053
      735.600000       0.001048
      735.700000       0.001044
      735.800000       0.001039
      735.900000       0.001036
      736.000000       0.001033
      736.100000       0.001031
      736.200000       0.001030
      736.300000       0.001031
      736.400000       0.001035
      736.500000       0.001039
      736.600000       0.001046
      736.700000       0.001055
      736.800000       0.001066
      736.900000       0.001081
      737.000000       0.001096
      737.100000       0.001115
      737.200000       0.001136
      737.300000       0.001158
      737.400000       0.001184
      737.500000       0.001210
      737.600000       0.001238
      737.700000       0.001267
      737.800000       0.001296
      737.900000       0.001326
      738.000000       0.001357
      738.100000       0.001386
      738.200000       0.001416
      738.300000       0.001444
      738.400000       0.001470
      738.500000       0.001496
      738.600000       0.001518
      738.700000       0.001539
      738.800000       0.001558
      738.900000       0.001574
      739.000000       0.001589
      739.100000       0.001599
      739.200000       0.001609
      739.300000       0.001616
      739.400000       0.001621
      739.500000       0.001626
      739.600000       0.001629
      739.700000       0.001631
      739.800000       0.001633
      739.900000       0.001635
      740.000000       0.001637
      740.100000       0.001640
      740.200000       0.001643
      740.300000       0.001648
      740.400000       0.001654
      740.500000       0.001661
      740.600000       0.001670
      740.700000       0.001680
      740.800000       0.001691
      740.900000       0.001703
      741.000000       0.001715
      741.100000       0.001728
      741.200000       0.001741
      741.300000       0.001753
      741.400000       0.001765
      741.500000       0.001776
      741.600000       0.001786
      741.700000       0.001795
      741.800000       0.001802
      741.900000       0.001809
      742.000000       0.001814
      742.100000       0.001819
      742.200000       0.001823
      742.300000       0.001826
      742.400000       0.001830
      742.500000       0.001834
      742.600000       0.001839
      742.700000       0.001845
      742.800000       0.001853
      742.900000       0.001862
      743.000000       0.001874
      743.100000       0.001889
      743.200000       0.001905
      743.300000       0.001924
      743.400000       0.001946
      743.500000       0.001969
      743.600000       0.001995
      743.700000       0.002022
      743.800000       0.002051
      743.900000       0.002080
      744.000000       0.002110
      744.100000       0.002141
      744.200000       0.002171
      744.300000       0.002201
      744.400000       0.002230
      744.500000       0.002259
      744.600000       0.002287
      744.700000       0.002315
      744.800000       0.002341
      744.900000       0.002366
      745.000000       0.002392
      745.100000       0.002416
      745.200000       0.002441
      745.300000       0.002465
      745.400000       0.002489
      745.500000       0.002513
      745.600000       0.002538
      745.700000       0.002562
      745.800000       0.002587
      745.900000       0.002612
      746.000000       0.002636
      746.100000       0.002660
      746.200000       0.002684
      746.300000       0.002706
      746.400000       0.002729
      746.500000       0.002750
      746.600000       0.002769
      746.700000       0.002789
      746.800000       0.002806
      746.900000       0.002823
      747.000000       0.002839
      747.100000       0.002854
      747.200000       0.002869
      747.300000       0.002884
      747.400000       0.002900
      747.500000       0.002917
      747.600000       0.002935
      747.700000       0.002955
      747.800000       0.002979
      747.900000       0.003004
      748.000000       0.003033
      748.100000       0.003066
      748.200000       0.003101
      748.300000       0.003141
      748.400000       0.003184
      748.500000       0.003231
      748.600000       0.003281
      748.700000       0.003333
      748.800000       0.003389
      748.900000       0.003446
      749.000000       0.003505
      749.100000       0.003565
      749.200000       0.003625
      749.300000       0.003685
      749.400000       0.003745
      749.500000       0.003804
      749.600000       0.003862
      749.700000       0.003919
      749.800000       0.003973
      749.900000       0.004028
      750.000000       0.004080
      750.100000       0.004131
      750.200000       0.004181
      750.300000       0.004231
      750.400000       0.004280
      750.500000       0.004331
      750.600000       0.004381
      750.700000       0.004433
      750.800000       0.004488
      750.900000       0.004544
      751.000000       0.004604
      751.100000       0.004667
      751.200000       0.004733
      751.300000       0.004804
      751.400000       0.004876
      751.500000       0.004955
      751.600000       0.005036
      751.700000       0.005121
      751.800000       0.005210
      751.900000       0.005302
      752.000000       0.005397
      752.100000       0.005494
      752.200000       0.005593
      752.300000       0.005693
      752.400000       0.005794
      752.500000       0.005896
      752.600000       0.005997
      752.700000       0.006099
      752.800000       0.006198
      752.900000       0.006298
      753.000000       0.006394
      753.100000       0.006490
      753.200000       0.006584
      753.300000       0.006675
      753.400000       0.006767
      753.500000       0.006855
      753.600000       0.006943
      753.700000       0.007031
      753.800000       0.007119
      753.900000       0.007207
      754.000000       0.007297
      754.100000       0.007388
      754.200000       0.007483
      754.300000       0.007581
      754.400000       0.007682
      754.500000       0.007789
      754.600000       0.007900
      754.700000       0.008018
      754.800000       0.008143
      754.900000       0.008272
      755.000000       0.008410
      755.100000       0.008554
      755.200000       0.008700
      755.300000       0.008846
      755.400000       0.008995
      755.500000       0.009152
      755.600000       0.009312
      755.700000       0.009476
      755.800000       0.009644
      755.900000       0.009816
      756.000000       0.009991
      756.100000       0.010170
      756.200000       0.010351
      756.300000       0.010534
      756.400000       0.010719
      756.500000       0.010907
      756.600000       0.011096
      756.700000       0.011287
      756.800000       0.011480
      756.900000       0.011673
      757.000000       0.011869
      757.100000       0.012066
      757.200000       0.012265
      757.300000       0.012466
      757.400000       0.012669
      757.500000       0.012875
      757.600000       0.013083
      757.700000       0.013295
      757.800000       0.013511
      757.900000       0.013729
      758.000000       0.013953
      758.100000       0.014180
      758.200000       0.014412
      758.300000       0.014649
      758.400000       0.014891
      758.500000       0.015137
      758.600000       0.015390
      758.700000       0.015649
      758.800000       0.015911
      758.900000       0.016181
      759.000000       0.016457
      759.100000       0.016737
      759.200000       0.017023
      759.300000       0.017315
      759.400000       0.017613
      759.500000       0.017916
      759.600000       0.018227
      759.700000       0.018566
      759.800000       0.018921
      759.900000       0.019283
      760.000000       0.019653
      760.100000       0.020031
      760.200000       0.020416
      760.300000       0.020808
      760.400000       0.021206
      760.500000       0.021612
      760.600000       0.022024
      760.700000       0.022442
      760.800000       0.022868
      760.900000       0.023299
      761.000000       0.023737
      761.100000       0.024181
      761.200000       0.024630
      761.300000       0.025086
      761.400000       0.025549
      761.500000       0.026019
      761.600000       0.026494
      761.700000       0.026975
      761.800000       0.027463
      761.900000       0.027959
      762.000000       0.028490
      762.100000       0.029050
      762.200000       0.029619
      762.300000       0.030200
      762.400000       0.030794
      762.500000       0.031398
      762.600000       0.032016
      762.700000       0.032647
      762.800000       0.033289
      762.900000       0.033945
      763.000000       0.034614
      763.100000       0.035298
      763.200000       0.035997
      763.300000       0.036708
      763.400000       0.037435
      763.500000       0.038177
      763.600000       0.038934
      763.700000       0.039709
      763.800000       0.040499
      763.900000       0.041306
      764.000000       0.042130
      764.100000       0.042969
      764.200000       0.043825
      764.300000       0.044698
      764.400000       0.045590
      764.500000       0.046502
      764.600000       0.047431
      764.700000       0.048405
      764.800000       0.049439
      764.900000       0.050495
      765.000000       0.051575
      765.100000       0.052683
      765.200000       0.053812
      765.300000       0.054966
      765.400000       0.056145
      765.500000       0.057348
      765.600000       0.058578
      765.700000       0.059832
      765.800000       0.061111
      765.900000       0.062415
      766.000000       0.063744
      766.100000       0.065097
      766.200000       0.066477
      766.300000       0.067881
      766.400000       0.069311
      766.500000       0.070767
      766.600000       0.072247
      766.700000       0.073754
      766.800000       0.075286
      766.900000       0.076844
      767.000000       0.078453
      767.100000       0.080129
      767.200000       0.081834
      767.300000       0.083571
      767.400000       0.085339
      767.500000       0.087147
      767.600000       0.089022
      767.700000       0.090947
      767.800000       0.092914
      767.900000       0.094916
      768.000000       0.096961
      768.100000       0.099049
      768.200000       0.101181
      768.300000       0.103356
      768.400000       0.105571
      768.500000       0.107829
      768.600000       0.110110
      768.700000       0.112426
      768.800000       0.114784
      768.900000       0.117170
      769.000000       0.119596
      769.100000       0.122050
      769.200000       0.124534
      769.300000       0.127052
      769.400000       0.129616
      769.500000       0.132230
      769.600000       0.134869
      769.700000       0.137548
      769.800000       0.140307
      769.900000       0.143097
      770.000000       0.145928
      770.100000       0.148818
      770.200000       0.151770
      770.300000       0.154757
      770.400000       0.157795
      770.500000       0.160897
      770.600000       0.164021
      770.700000       0.167197
      770.800000       0.170417
      770.900000       0.173678
      771.000000       0.176978
      771.100000       0.180318
      771.200000       0.183697
      771.300000       0.187091
      771.400000       0.190527
      771.500000       0.193983
      771.600000       0.197481
      771.700000       0.201004
      771.800000       0.204567
      771.900000       0.208148
      772.000000       0.211742
      772.100000       0.215396
      772.200000       0.219076
      772.300000       0.222822
      772.400000       0.226562
      772.500000       0.230361
      772.600000       0.234182
      772.700000       0.238064
      772.800000       0.242003
      772.900000       0.245945
      773.000000       0.249956
      773.100000       0.253954
      773.200000       0.258042
      773.300000       0.262130
      773.400000       0.266262
      773.500000       0.270412
      773.600000       0.274594
      773.700000       0.278821
      773.800000       0.283063
      773.900000       0.287341
      774.000000       0.291616
      774.100000       0.295915
      774.200000       0.300214
      774.300000       0.304519
      774.400000       0.308797
      774.500000       0.313080
      774.600000       0.317318
      774.700000       0.321569
      774.800000       0.325758
      774.900000       0.329939
      775.000000       0.334070
      775.100000       0.338212
      775.200000       0.342305
      775.300000       0.346437
      775.400000       0.350523
      775.500000       0.354661
      775.600000       0.358797
      775.700000       0.362975
      775.800000       0.367199
      775.900000       0.371454
      776.000000       0.375763
      776.100000       0.380103
      776.200000       0.384509
      776.300000       0.388983
      776.400000       0.393481
      776.500000       0.398075
      776.600000       0.402679
      776.700000       0.407422
      776.800000       0.412148
      776.900000       0.416970
      777.000000       0.421780
      777.100000       0.426641
      777.200000       0.431497
      777.300000       0.436296
      777.400000       0.441098
      777.500000       0.445772
      777.600000       0.450423
      777.700000       0.455001
      777.800000       0.459576
      777.900000       0.464141
      778.000000       0.468693
      778.100000       0.473275
      778.200000       0.477906
      778.300000       0.482609
      778.400000       0.487413
      778.500000       0.492297
      778.600000       0.497324
      778.700000       0.502455
      778.800000       0.507770
      778.900000       0.513256
      779.000000       0.518945
      779.100000       0.524849
      779.200000       0.530813
      779.300000       0.536712
      779.400000       0.542491
      779.500000       0.548089
      779.600000       0.553568
      779.700000       0.559028
      779.800000       0.564473
      779.900000       0.569997
      780.000000       0.575729
      780.100000       0.581691
      780.200000       0.587923
      780.300000       0.594359
      780.400000       0.600930
      780.500000       0.607664
      780.600000       0.614679
      780.700000       0.621505
      780.800000       0.627977
      780.900000       0.633554
      781.000000       0.638840
      781.100000       0.643574
      781.200000       0.648262
      781.300000       0.652698
      781.400000       0.657193
      781.500000       0.661839
      781.600000       0.666547
      781.700000       0.671576
      781.800000       0.676720
      781.900000       0.681928
      782.000000       0.687188
      782.100000       0.692411
      782.200000       0.697627
      782.300000       0.702775
      782.400000       0.707827
      782.500000       0.712092
      782.600000       0.716308
      782.700000       0.720103
      782.800000       0.723575
      782.900000       0.727038
      783.000000       0.730288
      783.100000       0.733329
      783.200000       0.736347
      783.300000       0.739359
      783.400000       0.742115
      783.500000       0.744787
      783.600000       0.747439
      783.700000       0.750096
      783.800000       0.752821
      783.900000       0.755614
      784.000000       0.758390
      784.100000       0.761173
      784.200000       0.764101
      784.300000       0.767101
      784.400000       0.770066
      784.500000       0.772976
      784.600000       0.775826
      784.700000       0.778649
      784.800000       0.781447
      784.900000       0.784093
      785.000000       0.786668
      785.100000       0.789236
      785.200000       0.791747
      785.300000       0.793959
      785.400000       0.795907
      785.500000       0.797858
      785.600000       0.799800
      785.700000       0.801730
      785.800000       0.803555
      785.900000       0.805182
      786.000000       0.806775
      786.100000       0.808378
      786.200000       0.809998
      786.300000       0.811644
      786.400000       0.813318
      786.500000       0.815088
      786.600000       0.817142
      786.700000       0.819178
      786.800000       0.821211
      786.900000       0.823246
      787.000000       0.825277
      787.100000       0.827319
      787.200000       0.829403
      787.300000       0.831466
      787.400000       0.833472
      787.500000       0.835433
      787.600000       0.837363
      787.700000       0.839176
      787.800000       0.840946
      787.900000       0.842663
      788.000000       0.844324
      788.100000       0.845945
      788.200000       0.847530
      788.300000       0.848694
      788.400000       0.849829
      788.500000       0.850958
      788.600000       0.852082
      788.700000       0.853201
      788.800000       0.854293
      788.900000       0.855369
      789.000000       0.856420
      789.100000       0.857984
      789.200000       0.859774
      789.300000       0.861603
      789.400000       0.863474
      789.500000       0.865379
      789.600000       0.867377
      789.700000       0.869471
      789.800000       0.871589
      789.900000       0.873714
      790.000000       0.875870
      790.100000       0.877885
      790.200000       0.879451
      790.300000       0.881035
      790.400000       0.882642
      790.500000       0.884255
      790.600000       0.885881
      790.700000       0.887532
      790.800000       0.889192
      790.900000       0.890778
      791.000000       0.892235
      791.100000       0.893647
      791.200000       0.895021
      791.300000       0.896363
      791.400000       0.897677
      791.500000       0.898961
      791.600000       0.900244
      791.700000       0.901502
      791.800000       0.902741
      791.900000       0.904107
      792.000000       0.906092
      792.100000       0.908026
      792.200000       0.909906
      792.300000       0.911695
      792.400000       0.913432
      792.500000       0.915376
      792.600000       0.916615
      792.700000       0.917998
      792.800000       0.919374
      792.900000       0.920671
      793.000000       0.921851
      793.100000       0.922933
      793.200000       0.923903
      793.300000       0.924781
      793.400000       0.925564
      793.500000       0.926288
      793.600000       0.926965
      793.700000       0.927629
      793.800000       0.928308
      793.900000       0.929018
