58,   58, MVIRI VIS channel from srf_MET5_1998168_1998169_1801-Release_S10EL_10.dat
Number of data points:
806
Wavenumber (cm-1)   Filter response
     8350.730700       0.000000
     8357.710000       0.000000
     8364.701000       0.000000
     8371.703600       0.000002
     8378.718100       0.000004
     8385.744200       0.000009
     8392.782200       0.000016
     8399.832000       0.000027
     8406.893700       0.000041
     8413.967200       0.000060
     8421.052600       0.000083
     8428.150000       0.000111
     8435.259400       0.000145
     8442.380800       0.000184
     8449.514200       0.000231
     8456.659600       0.000284
     8463.817200       0.000344
     8470.986900       0.000412
     8478.168700       0.000488
     8485.362700       0.000572
     8492.569000       0.000665
     8499.787500       0.000767
     8507.018300       0.000879
     8514.261400       0.001000
     8521.516800       0.001131
     8528.784600       0.001272
     8536.064900       0.001423
     8543.357500       0.001586
     8550.662700       0.001759
     8557.980300       0.001944
     8565.310500       0.002141
     8572.653200       0.002349
     8580.008600       0.002569
     8587.376600       0.002801
     8594.757200       0.003046
     8602.150500       0.003304
     8609.556600       0.003574
     8616.975400       0.003857
     8624.407100       0.004154
     8631.851500       0.004464
     8639.308900       0.004788
     8646.779100       0.005125
     8654.262200       0.005477
     8661.758300       0.005842
     8669.267400       0.006222
     8676.789600       0.006617
     8684.324800       0.007026
     8691.873100       0.007449
     8699.434500       0.007888
     8707.009100       0.008342
     8714.596900       0.008811
     8722.198000       0.009295
     8729.812300       0.009795
     8737.439900       0.010310
     8745.080900       0.010841
     8752.735200       0.011388
     8760.403000       0.011951
     8768.084200       0.012530
     8775.778900       0.013126
     8783.487000       0.013737
     8791.208800       0.014366
     8798.944100       0.015011
     8806.693100       0.015672
     8814.455700       0.016351
     8822.232000       0.017046
     8830.022100       0.017759
     8837.825900       0.018488
     8845.643500       0.019235
     8853.475000       0.020000
     8861.320300       0.020782
     8869.179600       0.021581
     8877.052800       0.022399
     8884.940000       0.023234
     8892.841300       0.024087
     8900.756600       0.024958
     8908.686000       0.025847
     8916.629500       0.026755
     8924.587200       0.027681
     8932.559200       0.028625
     8940.545400       0.029589
     8948.545900       0.030570
     8956.560700       0.031571
     8964.589900       0.032590
     8972.633500       0.033629
     8980.691500       0.034686
     8988.764000       0.035763
     8996.851100       0.036859
     9004.952700       0.037975
     9013.068900       0.039109
     9021.199800       0.040264
     9029.345400       0.041439
     9037.505600       0.042632
     9045.680700       0.043846
     9053.870500       0.045080
     9062.075200       0.046335
     9070.294800       0.047609
     9078.529300       0.048903
     9086.778700       0.050218
     9095.043200       0.051554
     9103.322700       0.052910
     9111.617300       0.054287
     9119.927000       0.055684
     9128.251900       0.057103
     9136.592100       0.058542
     9144.947400       0.060002
     9153.318100       0.061484
     9161.704100       0.062986
     9170.105500       0.064510
     9178.522300       0.066056
     9186.954500       0.067623
     9195.402300       0.069211
     9203.865600       0.070822
     9212.344500       0.072454
     9220.839100       0.074108
     9229.349300       0.075783
     9237.875300       0.077481
     9246.417000       0.079201
     9254.974500       0.080943
     9263.547900       0.082707
     9272.137200       0.084494
     9280.742500       0.086303
     9289.363700       0.088134
     9298.000900       0.089988
     9306.654300       0.091865
     9315.323700       0.093764
     9324.009300       0.095686
     9332.711200       0.097630
     9341.429200       0.099598
     9350.163600       0.101589
     9358.914400       0.103602
     9367.681500       0.105639
     9376.465100       0.107698
     9385.265100       0.109781
     9394.081700       0.111887
     9402.914900       0.114016
     9411.764700       0.116169
     9420.631200       0.118345
     9429.514400       0.120544
     9438.414300       0.122766
     9447.331100       0.125012
     9456.264800       0.127282
     9465.215300       0.129575
     9474.182900       0.131891
     9483.167400       0.134232
     9492.169000       0.136595
     9501.187600       0.138983
     9510.223500       0.141394
     9519.276500       0.143828
     9528.346800       0.146286
     9537.434400       0.148768
     9546.539400       0.151273
     9555.661700       0.153803
     9564.801500       0.156355
     9573.958800       0.158932
     9583.133700       0.161532
     9592.326100       0.164156
     9601.536200       0.166803
     9610.764100       0.169474
     9620.009600       0.172168
     9629.273000       0.174886
     9638.554200       0.177628
     9647.853400       0.180393
     9657.170400       0.183181
     9666.505600       0.185993
     9675.858700       0.188828
     9685.230000       0.191687
     9694.619500       0.194569
     9704.027200       0.197473
     9713.453100       0.200402
     9722.897400       0.203353
     9732.360100       0.206327
     9741.841200       0.209324
     9751.340800       0.212344
     9760.859000       0.215387
     9770.395700       0.218453
     9779.951100       0.221541
     9789.525200       0.224652
     9799.118100       0.227785
     9808.729800       0.230941
     9818.360300       0.234119
     9828.009800       0.237318
     9837.678300       0.240541
     9847.365800       0.243785
     9857.072400       0.247050
     9866.798200       0.250338
     9876.543200       0.253646
     9886.307500       0.256977
     9896.091000       0.260328
     9905.894000       0.263701
     9915.716400       0.267095
     9925.558300       0.270509
     9935.419800       0.273944
     9945.300800       0.277400
     9955.201600       0.280876
     9965.122100       0.284373
     9975.062300       0.287889
     9985.022500       0.291425
     9995.002500       0.294982
    10005.002500       0.298557
    10015.022500       0.302152
    10025.062700       0.305766
    10035.122900       0.309398
    10045.203400       0.313050
    10055.304200       0.316720
    10065.425300       0.320409
    10075.566800       0.324115
    10085.728700       0.327840
    10095.911200       0.331582
    10106.114200       0.335342
    10116.337900       0.339118
    10126.582300       0.342912
    10136.847400       0.346723
    10147.133400       0.350550
    10157.440300       0.354393
    10167.768200       0.358253
    10178.117000       0.362128
    10188.487000       0.366019
    10198.878100       0.369925
    10209.290500       0.373846
    10219.724100       0.377781
    10230.179000       0.381731
    10240.655400       0.385696
    10251.153300       0.389674
    10261.672700       0.393666
    10272.213700       0.397671
    10282.776300       0.401689
    10293.360800       0.405721
    10303.967000       0.409764
    10314.595200       0.413820
    10325.245200       0.417887
    10335.917300       0.421966
    10346.611500       0.426057
    10357.327800       0.430158
    10368.066400       0.434269
    10378.827200       0.438392
    10389.610400       0.442524
    10400.416000       0.446665
    10411.244100       0.450816
    10422.094800       0.454976
    10432.968200       0.459145
    10443.864200       0.463322
    10454.783100       0.467507
    10465.724800       0.471699
    10476.689400       0.475899
    10487.677000       0.480106
    10498.687700       0.484319
    10509.721500       0.488538
    10520.778500       0.492763
    10531.858900       0.496994
    10542.962600       0.501230
    10554.089700       0.505471
    10565.240400       0.509716
    10576.414600       0.513965
    10587.612500       0.518217
    10598.834100       0.522473
    10610.079600       0.526732
    10621.348900       0.530994
    10632.642200       0.535257
    10643.959600       0.539523
    10655.301000       0.543789
    10666.666700       0.548057
    10678.056600       0.552325
    10689.470900       0.556593
    10700.909600       0.560862
    10712.372800       0.565130
    10723.860600       0.569397
    10735.373100       0.573662
    10746.910300       0.577926
    10758.472300       0.582187
    10770.059200       0.586447
    10781.671200       0.590703
    10793.308100       0.594955
    10804.970300       0.599205
    10816.657700       0.603450
    10828.370300       0.607690
    10840.108400       0.611925
    10851.871900       0.616155
    10863.661100       0.620380
    10875.475800       0.624598
    10887.316300       0.628810
    10899.182600       0.633015
    10911.074700       0.637212
    10922.992900       0.641402
    10934.937100       0.645584
    10946.907500       0.649756
    10958.904100       0.653920
    10970.927000       0.658075
    10982.976400       0.662220
    10995.052200       0.666355
    11007.154700       0.670479
    11019.283700       0.674592
    11031.439600       0.678694
    11043.622300       0.682784
    11055.832000       0.686862
    11068.068600       0.690927
    11080.332400       0.694979
    11092.623400       0.699018
    11104.941700       0.703043
    11117.287400       0.707054
    11129.660500       0.711051
    11142.061300       0.715032
    11154.489700       0.718999
    11166.945800       0.722949
    11179.429800       0.726883
    11191.941800       0.730802
    11204.481800       0.734703
    11217.049900       0.738586
    11229.646300       0.742453
    11242.270900       0.746301
    11254.924000       0.750131
    11267.605600       0.753942
    11280.315800       0.757734
    11293.054800       0.761506
    11305.822500       0.765259
    11318.619100       0.768991
    11331.444800       0.772703
    11344.299500       0.776394
    11357.183400       0.780064
    11370.096600       0.783712
    11383.039300       0.787338
    11396.011400       0.790941
    11409.013100       0.794522
    11422.044500       0.798080
    11435.105800       0.801615
    11448.196900       0.805126
    11461.318100       0.808613
    11474.469300       0.812075
    11487.650800       0.815513
    11500.862600       0.818926
    11514.104800       0.822314
    11527.377500       0.825676
    11540.680900       0.829012
    11554.015000       0.832322
    11567.380000       0.835605
    11580.775900       0.838862
    11594.202900       0.842091
    11607.661100       0.845293
    11621.150500       0.848467
    11634.671300       0.851614
    11648.223600       0.854732
    11661.807600       0.857821
    11675.423200       0.860882
    11689.070700       0.863914
    11702.750100       0.866916
    11716.461600       0.869888
    11730.205300       0.872831
    11743.981200       0.875744
    11757.789500       0.878627
    11771.630400       0.881479
    11785.503800       0.884300
    11799.410000       0.887090
    11813.349100       0.889849
    11827.321100       0.892577
    11841.326200       0.895272
    11855.364600       0.897936
    11869.436200       0.900568
    11883.541300       0.903168
    11897.680000       0.905735
    11911.852300       0.908270
    11926.058400       0.910772
    11940.298500       0.913241
    11954.572600       0.915676
    11968.880900       0.918078
    11983.223500       0.920447
    11997.600500       0.922782
    12012.012000       0.925084
    12026.458200       0.927351
    12040.939200       0.929585
    12055.455100       0.931784
    12070.006000       0.933949
    12084.592100       0.936080
    12099.213600       0.938175
    12113.870400       0.940237
    12128.562800       0.942263
    12143.290800       0.944255
    12158.054700       0.946212
    12172.854500       0.948133
    12187.690400       0.950020
    12202.562500       0.951871
    12217.471000       0.953688
    12232.415900       0.955469
    12247.397400       0.957214
    12262.415700       0.958924
    12277.470800       0.960599
    12292.563000       0.962238
    12307.692300       0.963842
    12322.858900       0.965410
    12338.062900       0.966943
    12353.304500       0.968440
    12368.583800       0.969901
    12383.900900       0.971327
    12399.256000       0.972717
    12414.649300       0.974072
    12430.080800       0.975391
    12445.550700       0.976675
    12461.059200       0.977923
    12476.606400       0.979136
    12492.192400       0.980313
    12507.817400       0.981455
    12523.481500       0.982562
    12539.185000       0.983634
    12554.927800       0.984670
    12570.710200       0.985671
    12586.532400       0.986637
    12602.394500       0.987569
    12618.296500       0.988465
    12634.238800       0.989327
    12650.221400       0.990154
    12666.244500       0.990947
    12682.308200       0.991705
    12698.412700       0.992429
    12714.558200       0.993118
    12730.744700       0.993774
    12746.972600       0.994396
    12763.241900       0.994984
    12779.552700       0.995538
    12795.905300       0.996059
    12812.299800       0.996547
    12828.736400       0.997002
    12845.215200       0.997424
    12861.736300       0.997813
    12878.300100       0.998169
    12894.906500       0.998493
    12911.555800       0.998785
    12928.248200       0.999045
    12944.983800       0.999273
    12961.762800       0.999470
    12978.585300       0.999635
    12995.451600       0.999769
    13012.361700       0.999873
    13029.316000       0.999946
    13046.314400       0.999988
    13063.357300       1.000000
    13080.444700       0.999982
    13097.576900       0.999935
    13114.754100       0.999858
    13131.976400       0.999752
    13149.243900       0.999617
    13166.556900       0.999454
    13183.915600       0.999263
    13201.320100       0.999043
    13218.770700       0.998796
    13236.267400       0.998521
    13253.810500       0.998219
    13271.400100       0.997890
    13289.036500       0.997535
    13306.719900       0.997153
    13324.450400       0.996746
    13342.228200       0.996313
    13360.053400       0.995855
    13377.926400       0.995372
    13395.847300       0.994864
    13413.816200       0.994333
    13431.833400       0.993777
    13449.899100       0.993197
    13468.013500       0.992595
    13486.176700       0.991969
    13504.388900       0.991321
    13522.650400       0.990651
    13540.961400       0.989959
    13559.322000       0.989246
    13577.732500       0.988512
    13596.193100       0.987757
    13614.703900       0.986981
    13633.265200       0.986186
    13651.877100       0.985371
    13670.540000       0.984537
    13689.253900       0.983684
    13708.019200       0.982813
    13726.836000       0.981924
    13745.704500       0.981017
    13764.624900       0.980093
    13783.597500       0.979152
    13802.622500       0.978195
    13821.700100       0.977222
    13840.830400       0.976233
    13860.013900       0.975228
    13879.250500       0.974210
    13898.540700       0.973176
    13917.884500       0.972129
    13937.282200       0.971068
    13956.734100       0.969994
    13976.240400       0.968907
    13995.801300       0.967808
    14015.417000       0.966697
    14035.087700       0.965574
    14054.813800       0.964440
    14074.595400       0.963296
    14094.432700       0.962141
    14114.326000       0.960977
    14134.275600       0.959803
    14154.281700       0.958620
    14174.344400       0.957429
    14194.464200       0.956229
    14214.641100       0.955022
    14234.875400       0.953807
    14255.167500       0.952586
    14275.517500       0.951358
    14295.925700       0.950124
    14316.392300       0.948884
    14336.917600       0.947639
    14357.501800       0.946389
    14378.145200       0.945135
    14398.848100       0.943877
    14419.610700       0.942615
    14440.433200       0.941350
    14461.316000       0.940082
    14482.259200       0.938812
    14503.263200       0.937540
    14524.328200       0.936266
    14545.454500       0.934992
    14566.642400       0.933716
    14587.892000       0.932441
    14609.203800       0.931165
    14630.577900       0.929889
    14652.014700       0.928615
    14673.514300       0.927342
    14695.077100       0.926070
    14716.703500       0.924800
    14738.393500       0.923533
    14760.147600       0.922268
    14781.966000       0.921007
    14803.849000       0.919749
    14825.796900       0.918494
    14847.809900       0.917244
    14869.888500       0.915999
    14892.032800       0.914758
    14914.243100       0.913523
    14936.519800       0.912293
    14958.863100       0.911069
    14981.273400       0.909852
    15003.750900       0.908641
    15026.296000       0.907437
    15048.909000       0.906240
    15071.590100       0.905051
    15094.339600       0.903869
    15117.158000       0.902696
    15140.045400       0.901532
    15163.002300       0.900376
    15186.028900       0.899229
    15209.125500       0.898092
    15232.292500       0.896964
    15255.530100       0.895846
    15278.838800       0.894738
    15302.218800       0.893641
    15325.670500       0.892555
    15349.194200       0.891479
    15372.790200       0.890415
    15396.458800       0.889362
    15420.200500       0.888321
    15444.015400       0.887291
    15467.904100       0.886274
    15491.866800       0.885269
    15515.903800       0.884277
    15540.015500       0.883297
    15564.202300       0.882330
    15588.464500       0.881377
    15612.802500       0.880436
    15637.216600       0.879509
    15661.707100       0.878596
    15686.274500       0.877696
    15710.919100       0.876810
    15735.641200       0.875939
    15760.441300       0.875081
    15785.319700       0.874238
    15810.276700       0.873409
    15835.312700       0.872595
    15860.428200       0.871795
    15885.623500       0.871009
    15910.899000       0.870239
    15936.255000       0.869483
    15961.691900       0.868743
    15987.210200       0.868017
    16012.810200       0.867306
    16038.492400       0.866610
    16064.257000       0.865930
    16090.104600       0.865264
    16116.035500       0.864613
    16142.050000       0.863978
    16168.148700       0.863357
    16194.332000       0.862752
    16220.600200       0.862161
    16246.953700       0.861586
    16273.393000       0.861025
    16299.918500       0.860479
    16326.530600       0.859948
    16353.229800       0.859432
    16380.016400       0.858930
    16406.890900       0.858443
    16433.853700       0.857971
    16460.905300       0.857512
    16488.046200       0.857068
    16515.276600       0.856638
    16542.597200       0.856221
    16570.008300       0.855819
    16597.510400       0.855430
    16625.103900       0.855054
    16652.789300       0.854692
    16680.567100       0.854343
    16708.437800       0.854006
    16736.401700       0.853682
    16764.459300       0.853370
    16792.611300       0.853071
    16820.857900       0.852783
    16849.199700       0.852507
    16877.637100       0.852242
    16906.170800       0.851988
    16934.801000       0.851745
    16963.528400       0.851513
    16992.353400       0.851291
    17021.276600       0.851078
    17050.298400       0.850875
    17079.419300       0.850681
    17108.639900       0.850496
    17137.960600       0.850319
    17167.382000       0.850150
    17196.904600       0.849989
    17226.528900       0.849836
    17256.255400       0.849689
    17286.084700       0.849548
