53,   53, MVIRI VIS channel from srf_MET7_2004078_2004079_1801-Release_S10EE_10.dat
Number of data points:
793
Wavenumber (cm-1)   Filter response
     8442.380800       0.000000
     8449.514200       0.000000
     8456.659600       0.000004
     8463.817200       0.000054
     8470.986900       0.000161
     8478.168700       0.000322
     8485.362700       0.000536
     8492.569000       0.000801
     8499.787500       0.001116
     8507.018300       0.001480
     8514.261400       0.001891
     8521.516800       0.002347
     8528.784600       0.002848
     8536.064900       0.003392
     8543.357500       0.003978
     8550.662700       0.004605
     8557.980300       0.005272
     8565.310500       0.005977
     8572.653200       0.006720
     8580.008600       0.007500
     8587.376600       0.008315
     8594.757200       0.009166
     8602.150500       0.010049
     8609.556600       0.010967
     8616.975400       0.011916
     8624.407100       0.012897
     8631.851500       0.013909
     8639.308900       0.014951
     8646.779100       0.016022
     8654.262200       0.017122
     8661.758300       0.018250
     8669.267400       0.019406
     8676.789600       0.020589
     8684.324800       0.021798
     8691.873100       0.023034
     8699.434500       0.024295
     8707.009100       0.025581
     8714.596900       0.026892
     8722.198000       0.028227
     8729.812300       0.029586
     8737.439900       0.030969
     8745.080900       0.032375
     8752.735200       0.033804
     8760.403000       0.035256
     8768.084200       0.036730
     8775.778900       0.038226
     8783.487000       0.039745
     8791.208800       0.041285
     8798.944100       0.042846
     8806.693100       0.044429
     8814.455700       0.046033
     8822.232000       0.047659
     8830.022100       0.049305
     8837.825900       0.050972
     8845.643500       0.052660
     8853.475000       0.054368
     8861.320300       0.056097
     8869.179600       0.057847
     8877.052800       0.059617
     8884.940000       0.061407
     8892.841300       0.063218
     8900.756600       0.065049
     8908.686000       0.066901
     8916.629500       0.068772
     8924.587200       0.070664
     8932.559200       0.072577
     8940.545400       0.074510
     8948.545900       0.076463
     8956.560700       0.078437
     8964.589900       0.080431
     8972.633500       0.082446
     8980.691500       0.084481
     8988.764000       0.086537
     8996.851100       0.088614
     9004.952700       0.090711
     9013.068900       0.092829
     9021.199800       0.094969
     9029.345400       0.097129
     9037.505600       0.099310
     9045.680700       0.101513
     9053.870500       0.103737
     9062.075200       0.105982
     9070.294800       0.108248
     9078.529300       0.110536
     9086.778700       0.112846
     9095.043200       0.115177
     9103.322700       0.117530
     9111.617300       0.119905
     9119.927000       0.122302
     9128.251900       0.124721
     9136.592100       0.127163
     9144.947400       0.129626
     9153.318100       0.132112
     9161.704100       0.134620
     9170.105500       0.137151
     9178.522300       0.139704
     9186.954500       0.142280
     9195.402300       0.144879
     9203.865600       0.147500
     9212.344500       0.150145
     9220.839100       0.152812
     9229.349300       0.155503
     9237.875300       0.158216
     9246.417000       0.160953
     9254.974500       0.163713
     9263.547900       0.166497
     9272.137200       0.169303
     9280.742500       0.172133
     9289.363700       0.174987
     9298.000900       0.177864
     9306.654300       0.180765
     9315.323700       0.183688
     9324.009300       0.186636
     9332.711200       0.189608
     9341.429200       0.192602
     9350.163600       0.195621
     9358.914400       0.198663
     9367.681500       0.201728
     9376.465100       0.204818
     9385.265100       0.207931
     9394.081700       0.211067
     9402.914900       0.214227
     9411.764700       0.217411
     9420.631200       0.220618
     9429.514400       0.223848
     9438.414300       0.227102
     9447.331100       0.230379
     9456.264800       0.233680
     9465.215300       0.237004
     9474.182900       0.240351
     9483.167400       0.243721
     9492.169000       0.247114
     9501.187600       0.250530
     9510.223500       0.253969
     9519.276500       0.257431
     9528.346800       0.260915
     9537.434400       0.264422
     9546.539400       0.267951
     9555.661700       0.271503
     9564.801500       0.275076
     9573.958800       0.278672
     9583.133700       0.282290
     9592.326100       0.285928
     9601.536200       0.289589
     9610.764100       0.293271
     9620.009600       0.296975
     9629.273000       0.300699
     9638.554200       0.304444
     9647.853400       0.308210
     9657.170400       0.311996
     9666.505600       0.315803
     9675.858700       0.319630
     9685.230000       0.323476
     9694.619500       0.327342
     9704.027200       0.331228
     9713.453100       0.335132
     9722.897400       0.339056
     9732.360100       0.342998
     9741.841200       0.346959
     9751.340800       0.350938
     9760.859000       0.354935
     9770.395700       0.358950
     9779.951100       0.362981
     9789.525200       0.367031
     9799.118100       0.371096
     9808.729800       0.375179
     9818.360300       0.379277
     9828.009800       0.383391
     9837.678300       0.387522
     9847.365800       0.391667
     9857.072400       0.395827
     9866.798200       0.400003
     9876.543200       0.404192
     9886.307500       0.408395
     9896.091000       0.412613
     9905.894000       0.416843
     9915.716400       0.421086
     9925.558300       0.425342
     9935.419800       0.429610
     9945.300800       0.433891
     9955.201600       0.438182
     9965.122100       0.442485
     9975.062300       0.446799
     9985.022500       0.451123
     9995.002500       0.455457
    10005.002500       0.459801
    10015.022500       0.464154
    10025.062700       0.468516
    10035.122900       0.472886
    10045.203400       0.477264
    10055.304200       0.481651
    10065.425300       0.486044
    10075.566800       0.490444
    10085.728700       0.494851
    10095.911200       0.499263
    10106.114200       0.503682
    10116.337900       0.508105
    10126.582300       0.512533
    10136.847400       0.516965
    10147.133400       0.521402
    10157.440300       0.525841
    10167.768200       0.530284
    10178.117000       0.534729
    10188.487000       0.539176
    10198.878100       0.543625
    10209.290500       0.548075
    10219.724100       0.552526
    10230.179000       0.556977
    10240.655400       0.561429
    10251.153300       0.565879
    10261.672700       0.570329
    10272.213700       0.574777
    10282.776300       0.579223
    10293.360800       0.583666
    10303.967000       0.588107
    10314.595200       0.592544
    10325.245200       0.596978
    10335.917300       0.601407
    10346.611500       0.605832
    10357.327800       0.610251
    10368.066400       0.614665
    10378.827200       0.619072
    10389.610400       0.623473
    10400.416000       0.627867
    10411.244100       0.632254
    10422.094800       0.636632
    10432.968200       0.641002
    10443.864200       0.645363
    10454.783100       0.649715
    10465.724800       0.654056
    10476.689400       0.658388
    10487.677000       0.662709
    10498.687700       0.667018
    10509.721500       0.671316
    10520.778500       0.675602
    10531.858900       0.679875
    10542.962600       0.684135
    10554.089700       0.688381
    10565.240400       0.692614
    10576.414600       0.696832
    10587.612500       0.701035
    10598.834100       0.705223
    10610.079600       0.709395
    10621.348900       0.713551
    10632.642200       0.717690
    10643.959600       0.721812
    10655.301000       0.725917
    10666.666700       0.730003
    10678.056600       0.734071
    10689.470900       0.738120
    10700.909600       0.742151
    10712.372800       0.746161
    10723.860600       0.750151
    10735.373100       0.754121
    10746.910300       0.758069
    10758.472300       0.761997
    10770.059200       0.765902
    10781.671200       0.769785
    10793.308100       0.773646
    10804.970300       0.777484
    10816.657700       0.781298
    10828.370300       0.785089
    10840.108400       0.788855
    10851.871900       0.792597
    10863.661100       0.796314
    10875.475800       0.800005
    10887.316300       0.803671
    10899.182600       0.807311
    10911.074700       0.810924
    10922.992900       0.814511
    10934.937100       0.818070
    10946.907500       0.821602
    10958.904100       0.825106
    10970.927000       0.828582
    10982.976400       0.832029
    10995.052200       0.835447
    11007.154700       0.838837
    11019.283700       0.842196
    11031.439600       0.845526
    11043.622300       0.848826
    11055.832000       0.852095
    11068.068600       0.855333
    11080.332400       0.858541
    11092.623400       0.861717
    11104.941700       0.864861
    11117.287400       0.867974
    11129.660500       0.871054
    11142.061300       0.874102
    11154.489700       0.877117
    11166.945800       0.880098
    11179.429800       0.883047
    11191.941800       0.885962
    11204.481800       0.888844
    11217.049900       0.891691
    11229.646300       0.894504
    11242.270900       0.897283
    11254.924000       0.900027
    11267.605600       0.902736
    11280.315800       0.905410
    11293.054800       0.908049
    11305.822500       0.910652
    11318.619100       0.913219
    11331.444800       0.915751
    11344.299500       0.918247
    11357.183400       0.920706
    11370.096600       0.923129
    11383.039300       0.925515
    11396.011400       0.927865
    11409.013100       0.930178
    11422.044500       0.932454
    11435.105800       0.934693
    11448.196900       0.936894
    11461.318100       0.939058
    11474.469300       0.941185
    11487.650800       0.943274
    11500.862600       0.945326
    11514.104800       0.947339
    11527.377500       0.949315
    11540.680900       0.951253
    11554.015000       0.953153
    11567.380000       0.955015
    11580.775900       0.956838
    11594.202900       0.958624
    11607.661100       0.960371
    11621.150500       0.962080
    11634.671300       0.963750
    11648.223600       0.965382
    11661.807600       0.966976
    11675.423200       0.968531
    11689.070700       0.970049
    11702.750100       0.971527
    11716.461600       0.972967
    11730.205300       0.974369
    11743.981200       0.975733
    11757.789500       0.977058
    11771.630400       0.978345
    11785.503800       0.979593
    11799.410000       0.980804
    11813.349100       0.981976
    11827.321100       0.983110
    11841.326200       0.984207
    11855.364600       0.985265
    11869.436200       0.986285
    11883.541300       0.987268
    11897.680000       0.988212
    11911.852300       0.989120
    11926.058400       0.989989
    11940.298500       0.990822
    11954.572600       0.991617
    11968.880900       0.992375
    11983.223500       0.993096
    11997.600500       0.993780
    12012.012000       0.994427
    12026.458200       0.995038
    12040.939200       0.995612
    12055.455100       0.996150
    12070.006000       0.996652
    12084.592100       0.997118
    12099.213600       0.997549
    12113.870400       0.997943
    12128.562800       0.998303
    12143.290800       0.998627
    12158.054700       0.998917
    12172.854500       0.999171
    12187.690400       0.999391
    12202.562500       0.999577
    12217.471000       0.999729
    12232.415900       0.999847
    12247.397400       0.999931
    12262.415700       0.999982
    12277.470800       1.000000
    12292.563000       0.999985
    12307.692300       0.999938
    12322.858900       0.999858
    12338.062900       0.999746
    12353.304500       0.999602
    12368.583800       0.999427
    12383.900900       0.999221
    12399.256000       0.998984
    12414.649300       0.998716
    12430.080800       0.998418
    12445.550700       0.998090
    12461.059200       0.997732
    12476.606400       0.997345
    12492.192400       0.996929
    12507.817400       0.996484
    12523.481500       0.996011
    12539.185000       0.995510
    12554.927800       0.994982
    12570.710200       0.994425
    12586.532400       0.993842
    12602.394500       0.993233
    12618.296500       0.992597
    12634.238800       0.991935
    12650.221400       0.991247
    12666.244500       0.990534
    12682.308200       0.989797
    12698.412700       0.989035
    12714.558200       0.988249
    12730.744700       0.987440
    12746.972600       0.986607
    12763.241900       0.985751
    12779.552700       0.984873
    12795.905300       0.983973
    12812.299800       0.983051
    12828.736400       0.982107
    12845.215200       0.981143
    12861.736300       0.980159
    12878.300100       0.979154
    12894.906500       0.978130
    12911.555800       0.977087
    12928.248200       0.976024
    12944.983800       0.974944
    12961.762800       0.973845
    12978.585300       0.972729
    12995.451600       0.971596
    13012.361700       0.970446
    13029.316000       0.969280
    13046.314400       0.968099
    13063.357300       0.966902
    13080.444700       0.965690
    13097.576900       0.964463
    13114.754100       0.963223
    13131.976400       0.961969
    13149.243900       0.960701
    13166.556900       0.959422
    13183.915600       0.958129
    13201.320100       0.956826
    13218.770700       0.955510
    13236.267400       0.954184
    13253.810500       0.952848
    13271.400100       0.951501
    13289.036500       0.950145
    13306.719900       0.948780
    13324.450400       0.947406
    13342.228200       0.946024
    13360.053400       0.944634
    13377.926400       0.943237
    13395.847300       0.941834
    13413.816200       0.940423
    13431.833400       0.939007
    13449.899100       0.937586
    13468.013500       0.936159
    13486.176700       0.934728
    13504.388900       0.933293
    13522.650400       0.931854
    13540.961400       0.930411
    13559.322000       0.928966
    13577.732500       0.927519
    13596.193100       0.926070
    13614.703900       0.924619
    13633.265200       0.923167
    13651.877100       0.921715
    13670.540000       0.920262
    13689.253900       0.918810
    13708.019200       0.917358
    13726.836000       0.915908
    13745.704500       0.914459
    13764.624900       0.913012
    13783.597500       0.911568
    13802.622500       0.910126
    13821.700100       0.908688
    13840.830400       0.907253
    13860.013900       0.905822
    13879.250500       0.904396
    13898.540700       0.902975
    13917.884500       0.901559
    13937.282200       0.900149
    13956.734100       0.898745
    13976.240400       0.897347
    13995.801300       0.895956
    14015.417000       0.894572
    14035.087700       0.893196
    14054.813800       0.891828
    14074.595400       0.890469
    14094.432700       0.889118
    14114.326000       0.887776
    14134.275600       0.886443
    14154.281700       0.885121
    14174.344400       0.883808
    14194.464200       0.882507
    14214.641100       0.881215
    14234.875400       0.879936
    14255.167500       0.878667
    14275.517500       0.877411
    14295.925700       0.876166
    14316.392300       0.874934
    14336.917600       0.873715
    14357.501800       0.872509
    14378.145200       0.871316
    14398.848100       0.870137
    14419.610700       0.868972
    14440.433200       0.867821
    14461.316000       0.866685
    14482.259200       0.865563
    14503.263200       0.864457
    14524.328200       0.863365
    14545.454500       0.862290
    14566.642400       0.861230
    14587.892000       0.860186
    14609.203800       0.859158
    14630.577900       0.858147
    14652.014700       0.857152
    14673.514300       0.856174
    14695.077100       0.855214
    14716.703500       0.854271
    14738.393500       0.853345
    14760.147600       0.852437
    14781.966000       0.851546
    14803.849000       0.850674
    14825.796900       0.849820
    14847.809900       0.848984
    14869.888500       0.848166
    14892.032800       0.847367
    14914.243100       0.846587
    14936.519800       0.845825
    14958.863100       0.845083
    14981.273400       0.844359
    15003.750900       0.843655
    15026.296000       0.842970
    15048.909000       0.842304
    15071.590100       0.841658
    15094.339600       0.841031
    15117.158000       0.840423
    15140.045400       0.839835
    15163.002300       0.839266
    15186.028900       0.838717
    15209.125500       0.838188
    15232.292500       0.837678
    15255.530100       0.837188
    15278.838800       0.836717
    15302.218800       0.836266
    15325.670500       0.835835
    15349.194200       0.835423
    15372.790200       0.835031
    15396.458800       0.834658
    15420.200500       0.834304
    15444.015400       0.833970
    15467.904100       0.833654
    15491.866800       0.833358
    15515.903800       0.833081
    15540.015500       0.832823
    15564.202300       0.832584
    15588.464500       0.832363
    15612.802500       0.832161
    15637.216600       0.831977
    15661.707100       0.831812
    15686.274500       0.831664
    15710.919100       0.831535
    15735.641200       0.831423
    15760.441300       0.831328
    15785.319700       0.831251
    15810.276700       0.831191
    15835.312700       0.831148
    15860.428200       0.831122
    15885.623500       0.831112
    15910.899000       0.831118
    15936.255000       0.831140
    15961.691900       0.831177
    15987.210200       0.831230
    16012.810200       0.831298
    16038.492400       0.831380
    16064.257000       0.831477
    16090.104600       0.831589
    16116.035500       0.831714
    16142.050000       0.831852
    16168.148700       0.832003
    16194.332000       0.832167
    16220.600200       0.832344
    16246.953700       0.832533
    16273.393000       0.832733
    16299.918500       0.832944
    16326.530600       0.833166
    16353.229800       0.833399
    16380.016400       0.833641
    16406.890900       0.833893
    16433.853700       0.834154
    16460.905300       0.834424
    16488.046200       0.834702
    16515.276600       0.834988
    16542.597200       0.835281
    16570.008300       0.835580
    16597.510400       0.835886
    16625.103900       0.836197
    16652.789300       0.836514
    16680.567100       0.836836
    16708.437800       0.837161
    16736.401700       0.837491
    16764.459300       0.837823
    16792.611300       0.838158
    16820.857900       0.838494
    16849.199700       0.838833
    16877.637100       0.839172
    16906.170800       0.839511
    16934.801000       0.839849
    16963.528400       0.840187
    16992.353400       0.840523
    17021.276600       0.840857
    17050.298400       0.841188
    17079.419300       0.841515
    17108.639900       0.841838
    17137.960600       0.842157
    17167.382000       0.842469
    17196.904600       0.842776
    17226.528900       0.843076
    17256.255400       0.843368
    17286.084700       0.843653
    17316.017300       0.843928
    17346.053800       0.844193
    17376.194600       0.844449
    17406.440400       0.844693
    17436.791600       0.844925
    17467.248900       0.845145
    17497.812800       0.845352
    17528.483800       0.845545
    17559.262500       0.845723
    17590.149500       0.845886
    17621.145400       0.846033
    17652.250700       0.846162
    17683.466000       0.846274
