25,   25, MVIRI VIS channel from srf_MET7_2000258_2000259_1801-Release_S10EE_10.dat
Number of data points:
793
Wavenumber (cm-1)   Filter response
     8442.380800       0.000000
     8449.514200       0.000000
     8456.659600       0.000004
     8463.817200       0.000053
     8470.986900       0.000156
     8478.168700       0.000313
     8485.362700       0.000521
     8492.569000       0.000779
     8499.787500       0.001085
     8507.018300       0.001439
     8514.261400       0.001838
     8521.516800       0.002282
     8528.784600       0.002769
     8536.064900       0.003298
     8543.357500       0.003868
     8550.662700       0.004478
     8557.980300       0.005126
     8565.310500       0.005812
     8572.653200       0.006535
     8580.008600       0.007294
     8587.376600       0.008087
     8594.757200       0.008914
     8602.150500       0.009775
     8609.556600       0.010667
     8616.975400       0.011591
     8624.407100       0.012546
     8631.851500       0.013531
     8639.308900       0.014545
     8646.779100       0.015588
     8654.262200       0.016659
     8661.758300       0.017758
     8669.267400       0.018884
     8676.789600       0.020036
     8684.324800       0.021214
     8691.873100       0.022417
     8699.434500       0.023646
     8707.009100       0.024899
     8714.596900       0.026176
     8722.198000       0.027477
     8729.812300       0.028802
     8737.439900       0.030150
     8745.080900       0.031520
     8752.735200       0.032913
     8760.403000       0.034329
     8768.084200       0.035766
     8775.778900       0.037225
     8783.487000       0.038706
     8791.208800       0.040208
     8798.944100       0.041731
     8806.693100       0.043275
     8814.455700       0.044840
     8822.232000       0.046426
     8830.022100       0.048032
     8837.825900       0.049659
     8845.643500       0.051306
     8853.475000       0.052973
     8861.320300       0.054661
     8869.179600       0.056369
     8877.052800       0.058097
     8884.940000       0.059845
     8892.841300       0.061613
     8900.756600       0.063401
     8908.686000       0.065210
     8916.629500       0.067038
     8924.587200       0.068886
     8932.559200       0.070754
     8940.545400       0.072643
     8948.545900       0.074552
     8956.560700       0.076480
     8964.589900       0.078429
     8972.633500       0.080398
     8980.691500       0.082388
     8988.764000       0.084398
     8996.851100       0.086428
     9004.952700       0.088479
     9013.068900       0.090550
     9021.199800       0.092643
     9029.345400       0.094755
     9037.505600       0.096889
     9045.680700       0.099044
     9053.870500       0.101219
     9062.075200       0.103416
     9070.294800       0.105634
     9078.529300       0.107873
     9086.778700       0.110133
     9095.043200       0.112415
     9103.322700       0.114719
     9111.617300       0.117044
     9119.927000       0.119390
     9128.251900       0.121759
     9136.592100       0.124150
     9144.947400       0.126563
     9153.318100       0.128997
     9161.704100       0.131454
     9170.105500       0.133934
     9178.522300       0.136436
     9186.954500       0.138960
     9195.402300       0.141506
     9203.865600       0.144076
     9212.344500       0.146668
     9220.839100       0.149283
     9229.349300       0.151920
     9237.875300       0.154581
     9246.417000       0.157265
     9254.974500       0.159971
     9263.547900       0.162701
     9272.137200       0.165454
     9280.742500       0.168231
     9289.363700       0.171030
     9298.000900       0.173853
     9306.654300       0.176699
     9315.323700       0.179569
     9324.009300       0.182462
     9332.711200       0.185379
     9341.429200       0.188318
     9350.163600       0.191282
     9358.914400       0.194269
     9367.681500       0.197279
     9376.465100       0.200313
     9385.265100       0.203371
     9394.081700       0.206452
     9402.914900       0.209556
     9411.764700       0.212684
     9420.631200       0.215835
     9429.514400       0.219010
     9438.414300       0.222208
     9447.331100       0.225429
     9456.264800       0.228674
     9465.215300       0.231942
     9474.182900       0.235233
     9483.167400       0.238547
     9492.169000       0.241884
     9501.187600       0.245244
     9510.223500       0.248627
     9519.276500       0.252032
     9528.346800       0.255461
     9537.434400       0.258912
     9546.539400       0.262385
     9555.661700       0.265880
     9564.801500       0.269398
     9573.958800       0.272938
     9583.133700       0.276500
     9592.326100       0.280083
     9601.536200       0.283688
     9610.764100       0.287314
     9620.009600       0.290963
     9629.273000       0.294632
     9638.554200       0.298322
     9647.853400       0.302033
     9657.170400       0.305764
     9666.505600       0.309516
     9675.858700       0.313288
     9685.230000       0.317080
     9694.619500       0.320892
     9704.027200       0.324724
     9713.453100       0.328575
     9722.897400       0.332445
     9732.360100       0.336334
     9741.841200       0.340242
     9751.340800       0.344168
     9760.859000       0.348112
     9770.395700       0.352075
     9779.951100       0.356054
     9789.525200       0.360052
     9799.118100       0.364067
     9808.729800       0.368098
     9818.360300       0.372146
     9828.009800       0.376209
     9837.678300       0.380290
     9847.365800       0.384386
     9857.072400       0.388496
     9866.798200       0.392623
     9876.543200       0.396763
     9886.307500       0.400919
     9896.091000       0.405089
     9905.894000       0.409272
     9915.716400       0.413468
     9925.558300       0.417678
     9935.419800       0.421900
     9945.300800       0.426135
     9955.201600       0.430382
     9965.122100       0.434641
     9975.062300       0.438910
     9985.022500       0.443191
     9995.002500       0.447483
    10005.002500       0.451784
    10015.022500       0.456096
    10025.062700       0.460416
    10035.122900       0.464746
    10045.203400       0.469085
    10055.304200       0.473432
    10065.425300       0.477786
    10075.566800       0.482148
    10085.728700       0.486518
    10095.911200       0.490894
    10106.114200       0.495276
    10116.337900       0.499663
    10126.582300       0.504057
    10136.847400       0.508455
    10147.133400       0.512858
    10157.440300       0.517265
    10167.768200       0.521676
    10178.117000       0.526090
    10188.487000       0.530507
    10198.878100       0.534926
    10209.290500       0.539347
    10219.724100       0.543770
    10230.179000       0.548194
    10240.655400       0.552619
    10251.153300       0.557044
    10261.672700       0.561468
    10272.213700       0.565892
    10282.776300       0.570315
    10293.360800       0.574736
    10303.967000       0.579155
    10314.595200       0.583572
    10325.245200       0.587986
    10335.917300       0.592396
    10346.611500       0.596803
    10357.327800       0.601205
    10368.066400       0.605603
    10378.827200       0.609995
    10389.610400       0.614382
    10400.416000       0.618762
    10411.244100       0.623136
    10422.094800       0.627503
    10432.968200       0.631862
    10443.864200       0.636214
    10454.783100       0.640557
    10465.724800       0.644891
    10476.689400       0.649216
    10487.677000       0.653531
    10498.687700       0.657836
    10509.721500       0.662130
    10520.778500       0.666413
    10531.858900       0.670684
    10542.962600       0.674944
    10554.089700       0.679191
    10565.240400       0.683425
    10576.414600       0.687645
    10587.612500       0.691852
    10598.834100       0.696045
    10610.079600       0.700222
    10621.348900       0.704385
    10632.642200       0.708532
    10643.959600       0.712663
    10655.301000       0.716777
    10666.666700       0.720875
    10678.056600       0.724955
    10689.470900       0.729017
    10700.909600       0.733062
    10712.372800       0.737087
    10723.860600       0.741094
    10735.373100       0.745081
    10746.910300       0.749049
    10758.472300       0.752996
    10770.059200       0.756922
    10781.671200       0.760827
    10793.308100       0.764711
    10804.970300       0.768573
    10816.657700       0.772413
    10828.370300       0.776230
    10840.108400       0.780023
    10851.871900       0.783794
    10863.661100       0.787541
    10875.475800       0.791263
    10887.316300       0.794961
    10899.182600       0.798633
    10911.074700       0.802281
    10922.992900       0.805903
    10934.937100       0.809499
    10946.907500       0.813068
    10958.904100       0.816611
    10970.927000       0.820126
    10982.976400       0.823614
    10995.052200       0.827075
    11007.154700       0.830507
    11019.283700       0.833911
    11031.439600       0.837286
    11043.622300       0.840632
    11055.832000       0.843949
    11068.068600       0.847236
    11080.332400       0.850493
    11092.623400       0.853719
    11104.941700       0.856916
    11117.287400       0.860081
    11129.660500       0.863215
    11142.061300       0.866318
    11154.489700       0.869389
    11166.945800       0.872428
    11179.429800       0.875435
    11191.941800       0.878409
    11204.481800       0.881351
    11217.049900       0.884260
    11229.646300       0.887135
    11242.270900       0.889977
    11254.924000       0.892786
    11267.605600       0.895560
    11280.315800       0.898301
    11293.054800       0.901007
    11305.822500       0.903679
    11318.619100       0.906316
    11331.444800       0.908918
    11344.299500       0.911485
    11357.183400       0.914017
    11370.096600       0.916513
    11383.039300       0.918974
    11396.011400       0.921399
    11409.013100       0.923788
    11422.044500       0.926141
    11435.105800       0.928458
    11448.196900       0.930739
    11461.318100       0.932983
    11474.469300       0.935190
    11487.650800       0.937361
    11500.862600       0.939495
    11514.104800       0.941593
    11527.377500       0.943653
    11540.680900       0.945676
    11554.015000       0.947662
    11567.380000       0.949610
    11580.775900       0.951522
    11594.202900       0.953396
    11607.661100       0.955232
    11621.150500       0.957031
    11634.671300       0.958793
    11648.223600       0.960517
    11661.807600       0.962203
    11675.423200       0.963852
    11689.070700       0.965463
    11702.750100       0.967037
    11716.461600       0.968572
    11730.205300       0.970071
    11743.981200       0.971531
    11757.789500       0.972954
    11771.630400       0.974339
    11785.503800       0.975687
    11799.410000       0.976997
    11813.349100       0.978270
    11827.321100       0.979505
    11841.326200       0.980703
    11855.364600       0.981864
    11869.436200       0.982987
    11883.541300       0.984073
    11897.680000       0.985122
    11911.852300       0.986134
    11926.058400       0.987109
    11940.298500       0.988047
    11954.572600       0.988949
    11968.880900       0.989813
    11983.223500       0.990642
    11997.600500       0.991434
    12012.012000       0.992190
    12026.458200       0.992909
    12040.939200       0.993593
    12055.455100       0.994241
    12070.006000       0.994854
    12084.592100       0.995431
    12099.213600       0.995972
    12113.870400       0.996479
    12128.562800       0.996950
    12143.290800       0.997387
    12158.054700       0.997789
    12172.854500       0.998157
    12187.690400       0.998491
    12202.562500       0.998791
    12217.471000       0.999057
    12232.415900       0.999290
    12247.397400       0.999489
    12262.415700       0.999655
    12277.470800       0.999789
    12292.563000       0.999890
    12307.692300       0.999958
    12322.858900       0.999995
    12338.062900       1.000000
    12353.304500       0.999973
    12368.583800       0.999916
    12383.900900       0.999827
    12399.256000       0.999707
    12414.649300       0.999557
    12430.080800       0.999377
    12445.550700       0.999168
    12461.059200       0.998929
    12476.606400       0.998660
    12492.192400       0.998363
    12507.817400       0.998037
    12523.481500       0.997683
    12539.185000       0.997301
    12554.927800       0.996892
    12570.710200       0.996455
    12586.532400       0.995992
    12602.394500       0.995501
    12618.296500       0.994985
    12634.238800       0.994443
    12650.221400       0.993875
    12666.244500       0.993283
    12682.308200       0.992665
    12698.412700       0.992024
    12714.558200       0.991358
    12730.744700       0.990668
    12746.972600       0.989956
    12763.241900       0.989220
    12779.552700       0.988462
    12795.905300       0.987682
    12812.299800       0.986880
    12828.736400       0.986057
    12845.215200       0.985213
    12861.736300       0.984349
    12878.300100       0.983464
    12894.906500       0.982560
    12911.555800       0.981637
    12928.248200       0.980694
    12944.983800       0.979734
    12961.762800       0.978755
    12978.585300       0.977759
    12995.451600       0.976745
    13012.361700       0.975715
    13029.316000       0.974669
    13046.314400       0.973606
    13063.357300       0.972529
    13080.444700       0.971436
    13097.576900       0.970329
    13114.754100       0.969207
    13131.976400       0.968072
    13149.243900       0.966924
    13166.556900       0.965763
    13183.915600       0.964590
    13201.320100       0.963405
    13218.770700       0.962208
    13236.267400       0.961000
    13253.810500       0.959782
    13271.400100       0.958553
    13289.036500       0.957315
    13306.719900       0.956068
    13324.450400       0.954812
    13342.228200       0.953548
    13360.053400       0.952276
    13377.926400       0.950996
    13395.847300       0.949710
    13413.816200       0.948417
    13431.833400       0.947118
    13449.899100       0.945813
    13468.013500       0.944503
    13486.176700       0.943189
    13504.388900       0.941870
    13522.650400       0.940548
    13540.961400       0.939222
    13559.322000       0.937893
    13577.732500       0.936562
    13596.193100       0.935229
    13614.703900       0.933894
    13633.265200       0.932558
    13651.877100       0.931221
    13670.540000       0.929885
    13689.253900       0.928548
    13708.019200       0.927212
    13726.836000       0.925877
    13745.704500       0.924544
    13764.624900       0.923212
    13783.597500       0.921883
    13802.622500       0.920557
    13821.700100       0.919234
    13840.830400       0.917914
    13860.013900       0.916598
    13879.250500       0.915287
    13898.540700       0.913981
    13917.884500       0.912680
    13937.282200       0.911385
    13956.734100       0.910096
    13976.240400       0.908813
    13995.801300       0.907537
    14015.417000       0.906268
    14035.087700       0.905007
    14054.813800       0.903754
    14074.595400       0.902510
    14094.432700       0.901274
    14114.326000       0.900047
    14134.275600       0.898830
    14154.281700       0.897623
    14174.344400       0.896426
    14194.464200       0.895239
    14214.641100       0.894064
    14234.875400       0.892900
    14255.167500       0.891747
    14275.517500       0.890607
    14295.925700       0.889478
    14316.392300       0.888362
    14336.917600       0.887260
    14357.501800       0.886170
    14378.145200       0.885094
    14398.848100       0.884032
    14419.610700       0.882984
    14440.433200       0.881950
    14461.316000       0.880931
    14482.259200       0.879928
    14503.263200       0.878939
    14524.328200       0.877966
    14545.454500       0.877009
    14566.642400       0.876068
    14587.892000       0.875143
    14609.203800       0.874234
    14630.577900       0.873343
    14652.014700       0.872468
    14673.514300       0.871611
    14695.077100       0.870771
    14716.703500       0.869948
    14738.393500       0.869144
    14760.147600       0.868358
    14781.966000       0.867589
    14803.849000       0.866839
    14825.796900       0.866108
    14847.809900       0.865396
    14869.888500       0.864702
    14892.032800       0.864027
    14914.243100       0.863372
    14936.519800       0.862735
    14958.863100       0.862119
    14981.273400       0.861521
    15003.750900       0.860944
    15026.296000       0.860386
    15048.909000       0.859847
    15071.590100       0.859329
    15094.339600       0.858831
    15117.158000       0.858353
    15140.045400       0.857894
    15163.002300       0.857456
    15186.028900       0.857039
    15209.125500       0.856641
    15232.292500       0.856263
    15255.530100       0.855906
    15278.838800       0.855569
    15302.218800       0.855252
    15325.670500       0.854956
    15349.194200       0.854680
    15372.790200       0.854423
    15396.458800       0.854187
    15420.200500       0.853971
    15444.015400       0.853775
    15467.904100       0.853599
    15491.866800       0.853443
    15515.903800       0.853306
    15540.015500       0.853189
    15564.202300       0.853092
    15588.464500       0.853014
    15612.802500       0.852955
    15637.216600       0.852915
    15661.707100       0.852895
    15686.274500       0.852893
    15710.919100       0.852910
    15735.641200       0.852946
    15760.441300       0.852999
    15785.319700       0.853071
    15810.276700       0.853161
    15835.312700       0.853268
    15860.428200       0.853393
    15885.623500       0.853535
    15910.899000       0.853694
    15936.255000       0.853870
    15961.691900       0.854062
    15987.210200       0.854270
    16012.810200       0.854495
    16038.492400       0.854734
    16064.257000       0.854989
    16090.104600       0.855259
    16116.035500       0.855544
    16142.050000       0.855843
    16168.148700       0.856155
    16194.332000       0.856482
    16220.600200       0.856821
    16246.953700       0.857173
    16273.393000       0.857538
    16299.918500       0.857915
    16326.530600       0.858303
    16353.229800       0.858703
    16380.016400       0.859113
    16406.890900       0.859534
    16433.853700       0.859964
    16460.905300       0.860404
    16488.046200       0.860853
    16515.276600       0.861310
    16542.597200       0.861776
    16570.008300       0.862248
    16597.510400       0.862728
    16625.103900       0.863214
    16652.789300       0.863707
    16680.567100       0.864204
    16708.437800       0.864707
    16736.401700       0.865213
    16764.459300       0.865724
    16792.611300       0.866237
    16820.857900       0.866753
    16849.199700       0.867271
    16877.637100       0.867791
    16906.170800       0.868311
    16934.801000       0.868831
    16963.528400       0.869351
    16992.353400       0.869870
    17021.276600       0.870387
    17050.298400       0.870902
    17079.419300       0.871413
    17108.639900       0.871921
    17137.960600       0.872424
    17167.382000       0.872922
    17196.904600       0.873415
    17226.528900       0.873901
    17256.255400       0.874379
    17286.084700       0.874850
    17316.017300       0.875312
    17346.053800       0.875765
    17376.194600       0.876207
    17406.440400       0.876639
    17436.791600       0.877059
    17467.248900       0.877467
    17497.812800       0.877861
    17528.483800       0.878241
    17559.262500       0.878607
    17590.149500       0.878957
    17621.145400       0.879291
    17652.250700       0.879608
    17683.466000       0.879907
