44,   44, MVIRI VIS channel from srf_MET5_1996258_1996259_1801-Release_S10EL_10.dat
Number of data points:
806
Wavenumber (cm-1)   Filter response
     8350.730700       0.000000
     8357.710000       0.000000
     8364.701000       0.000000
     8371.703600       0.000002
     8378.718100       0.000004
     8385.744200       0.000009
     8392.782200       0.000016
     8399.832000       0.000027
     8406.893700       0.000041
     8413.967200       0.000059
     8421.052600       0.000082
     8428.150000       0.000110
     8435.259400       0.000143
     8442.380800       0.000183
     8449.514200       0.000229
     8456.659600       0.000281
     8463.817200       0.000341
     8470.986900       0.000408
     8478.168700       0.000484
     8485.362700       0.000567
     8492.569000       0.000659
     8499.787500       0.000761
     8507.018300       0.000871
     8514.261400       0.000991
     8521.516800       0.001121
     8528.784600       0.001261
     8536.064900       0.001411
     8543.357500       0.001572
     8550.662700       0.001744
     8557.980300       0.001927
     8565.310500       0.002122
     8572.653200       0.002328
     8580.008600       0.002547
     8587.376600       0.002777
     8594.757200       0.003020
     8602.150500       0.003275
     8609.556600       0.003543
     8616.975400       0.003824
     8624.407100       0.004118
     8631.851500       0.004426
     8639.308900       0.004747
     8646.779100       0.005082
     8654.262200       0.005430
     8661.758300       0.005793
     8669.267400       0.006170
     8676.789600       0.006561
     8684.324800       0.006966
     8691.873100       0.007387
     8699.434500       0.007822
     8707.009100       0.008272
     8714.596900       0.008737
     8722.198000       0.009217
     8729.812300       0.009713
     8737.439900       0.010224
     8745.080900       0.010751
     8752.735200       0.011294
     8760.403000       0.011852
     8768.084200       0.012427
     8775.778900       0.013018
     8783.487000       0.013624
     8791.208800       0.014248
     8798.944100       0.014888
     8806.693100       0.015544
     8814.455700       0.016217
     8822.232000       0.016907
     8830.022100       0.017614
     8837.825900       0.018338
     8845.643500       0.019079
     8853.475000       0.019838
     8861.320300       0.020614
     8869.179600       0.021407
     8877.052800       0.022218
     8884.940000       0.023047
     8892.841300       0.023894
     8900.756600       0.024758
     8908.686000       0.025641
     8916.629500       0.026542
     8924.587200       0.027461
     8932.559200       0.028398
     8940.545400       0.029354
     8948.545900       0.030329
     8956.560700       0.031322
     8964.589900       0.032334
     8972.633500       0.033364
     8980.691500       0.034414
     8988.764000       0.035483
     8996.851100       0.036571
     9004.952700       0.037679
     9013.068900       0.038805
     9021.199800       0.039952
     9029.345400       0.041117
     9037.505600       0.042303
     9045.680700       0.043508
     9053.870500       0.044733
     9062.075200       0.045978
     9070.294800       0.047244
     9078.529300       0.048529
     9086.778700       0.049835
     9095.043200       0.051161
     9103.322700       0.052507
     9111.617300       0.053875
     9119.927000       0.055262
     9128.251900       0.056671
     9136.592100       0.058100
     9144.947400       0.059551
     9153.318100       0.061022
     9161.704100       0.062515
     9170.105500       0.064028
     9178.522300       0.065563
     9186.954500       0.067120
     9195.402300       0.068698
     9203.865600       0.070297
     9212.344500       0.071918
     9220.839100       0.073561
     9229.349300       0.075226
     9237.875300       0.076912
     9246.417000       0.078621
     9254.974500       0.080351
     9263.547900       0.082104
     9272.137200       0.083879
     9280.742500       0.085676
     9289.363700       0.087496
     9298.000900       0.089338
     9306.654300       0.091203
     9315.323700       0.093090
     9324.009300       0.094999
     9332.711200       0.096932
     9341.429200       0.098887
     9350.163600       0.100865
     9358.914400       0.102866
     9367.681500       0.104890
     9376.465100       0.106937
     9385.265100       0.109007
     9394.081700       0.111100
     9402.914900       0.113216
     9411.764700       0.115355
     9420.631200       0.117518
     9429.514400       0.119704
     9438.414300       0.121913
     9447.331100       0.124146
     9456.264800       0.126402
     9465.215300       0.128681
     9474.182900       0.130984
     9483.167400       0.133311
     9492.169000       0.135660
     9501.187600       0.138034
     9510.223500       0.140431
     9519.276500       0.142851
     9528.346800       0.145295
     9537.434400       0.147763
     9546.539400       0.150254
     9555.661700       0.152769
     9564.801500       0.155307
     9573.958800       0.157870
     9583.133700       0.160455
     9592.326100       0.163064
     9601.536200       0.165697
     9610.764100       0.168353
     9620.009600       0.171033
     9629.273000       0.173736
     9638.554200       0.176463
     9647.853400       0.179213
     9657.170400       0.181987
     9666.505600       0.184784
     9675.858700       0.187604
     9685.230000       0.190447
     9694.619500       0.193314
     9704.027200       0.196204
     9713.453100       0.199117
     9722.897400       0.202053
     9732.360100       0.205012
     9741.841200       0.207994
     9751.340800       0.210999
     9760.859000       0.214027
     9770.395700       0.217077
     9779.951100       0.220150
     9789.525200       0.223245
     9799.118100       0.226363
     9808.729800       0.229503
     9818.360300       0.232666
     9828.009800       0.235850
     9837.678300       0.239057
     9847.365800       0.242286
     9857.072400       0.245536
     9866.798200       0.248808
     9876.543200       0.252101
     9886.307500       0.255416
     9896.091000       0.258753
     9905.894000       0.262110
     9915.716400       0.265488
     9925.558300       0.268887
     9935.419800       0.272308
     9945.300800       0.275748
     9955.201600       0.279209
     9965.122100       0.282690
     9975.062300       0.286191
     9985.022500       0.289712
     9995.002500       0.293253
    10005.002500       0.296814
    10015.022500       0.300394
    10025.062700       0.303992
    10035.122900       0.307610
    10045.203400       0.311247
    10055.304200       0.314902
    10065.425300       0.318576
    10075.566800       0.322268
    10085.728700       0.325977
    10095.911200       0.329705
    10106.114200       0.333450
    10116.337900       0.337212
    10126.582300       0.340992
    10136.847400       0.344788
    10147.133400       0.348601
    10157.440300       0.352430
    10167.768200       0.356275
    10178.117000       0.360136
    10188.487000       0.364013
    10198.878100       0.367905
    10209.290500       0.371812
    10219.724100       0.375734
    10230.179000       0.379671
    10240.655400       0.383622
    10251.153300       0.387587
    10261.672700       0.391565
    10272.213700       0.395557
    10282.776300       0.399563
    10293.360800       0.403581
    10303.967000       0.407611
    10314.595200       0.411654
    10325.245200       0.415709
    10335.917300       0.419776
    10346.611500       0.423854
    10357.327800       0.427943
    10368.066400       0.432042
    10378.827200       0.436153
    10389.610400       0.440273
    10400.416000       0.444403
    10411.244100       0.448543
    10422.094800       0.452691
    10432.968200       0.456848
    10443.864200       0.461014
    10454.783100       0.465188
    10465.724800       0.469370
    10476.689400       0.473559
    10487.677000       0.477756
    10498.687700       0.481959
    10509.721500       0.486168
    10520.778500       0.490383
    10531.858900       0.494604
    10542.962600       0.498831
    10554.089700       0.503062
    10565.240400       0.507298
    10576.414600       0.511538
    10587.612500       0.515782
    10598.834100       0.520029
    10610.079600       0.524280
    10621.348900       0.528533
    10632.642200       0.532788
    10643.959600       0.537046
    10655.301000       0.541305
    10666.666700       0.545566
    10678.056600       0.549827
    10689.470900       0.554088
    10700.909600       0.558350
    10712.372800       0.562611
    10723.860600       0.566872
    10735.373100       0.571131
    10746.910300       0.575389
    10758.472300       0.579645
    10770.059200       0.583899
    10781.671200       0.588150
    10793.308100       0.592397
    10804.970300       0.596642
    10816.657700       0.600882
    10828.370300       0.605119
    10840.108400       0.609350
    10851.871900       0.613576
    10863.661100       0.617798
    10875.475800       0.622013
    10887.316300       0.626221
    10899.182600       0.630423
    10911.074700       0.634618
    10922.992900       0.638806
    10934.937100       0.642985
    10946.907500       0.647157
    10958.904100       0.651319
    10970.927000       0.655473
    10982.976400       0.659617
    10995.052200       0.663750
    11007.154700       0.667874
    11019.283700       0.671987
    11031.439600       0.676089
    11043.622300       0.680180
    11055.832000       0.684258
    11068.068600       0.688324
    11080.332400       0.692378
    11092.623400       0.696418
    11104.941700       0.700445
    11117.287400       0.704458
    11129.660500       0.708457
    11142.061300       0.712441
    11154.489700       0.716410
    11166.945800       0.720364
    11179.429800       0.724302
    11191.941800       0.728223
    11204.481800       0.732129
    11217.049900       0.736017
    11229.646300       0.739887
    11242.270900       0.743740
    11254.924000       0.747575
    11267.605600       0.751392
    11280.315800       0.755190
    11293.054800       0.758968
    11305.822500       0.762727
    11318.619100       0.766466
    11331.444800       0.770185
    11344.299500       0.773883
    11357.183400       0.777560
    11370.096600       0.781216
    11383.039300       0.784850
    11396.011400       0.788462
    11409.013100       0.792051
    11422.044500       0.795618
    11435.105800       0.799162
    11448.196900       0.802682
    11461.318100       0.806179
    11474.469300       0.809652
    11487.650800       0.813100
    11500.862600       0.816523
    11514.104800       0.819922
    11527.377500       0.823295
    11540.680900       0.826643
    11554.015000       0.829964
    11567.380000       0.833260
    11580.775900       0.836528
    11594.202900       0.839770
    11607.661100       0.842985
    11621.150500       0.846173
    11634.671300       0.849332
    11648.223600       0.852464
    11661.807600       0.855568
    11675.423200       0.858643
    11689.070700       0.861689
    11702.750100       0.864706
    11716.461600       0.867694
    11730.205300       0.870652
    11743.981200       0.873581
    11757.789500       0.876479
    11771.630400       0.879347
    11785.503800       0.882185
    11799.410000       0.884992
    11813.349100       0.887768
    11827.321100       0.890513
    11841.326200       0.893226
    11855.364600       0.895908
    11869.436200       0.898558
    11883.541300       0.901176
    11897.680000       0.903762
    11911.852300       0.906315
    11926.058400       0.908836
    11940.298500       0.911324
    11954.572600       0.913779
    11968.880900       0.916202
    11983.223500       0.918590
    11997.600500       0.920946
    12012.012000       0.923268
    12026.458200       0.925556
    12040.939200       0.927811
    12055.455100       0.930031
    12070.006000       0.932218
    12084.592100       0.934370
    12099.213600       0.936488
    12113.870400       0.938572
    12128.562800       0.940620
    12143.290800       0.942635
    12158.054700       0.944615
    12172.854500       0.946559
    12187.690400       0.948469
    12202.562500       0.950344
    12217.471000       0.952184
    12232.415900       0.953989
    12247.397400       0.955759
    12262.415700       0.957493
    12277.470800       0.959193
    12292.563000       0.960856
    12307.692300       0.962485
    12322.858900       0.964078
    12338.062900       0.965636
    12353.304500       0.967159
    12368.583800       0.968646
    12383.900900       0.970098
    12399.256000       0.971514
    12414.649300       0.972895
    12430.080800       0.974241
    12445.550700       0.975551
    12461.059200       0.976826
    12476.606400       0.978066
    12492.192400       0.979270
    12507.817400       0.980440
    12523.481500       0.981574
    12539.185000       0.982673
    12554.927800       0.983737
    12570.710200       0.984766
    12586.532400       0.985760
    12602.394500       0.986720
    12618.296500       0.987645
    12634.238800       0.988535
    12650.221400       0.989391
    12666.244500       0.990212
    12682.308200       0.990999
    12698.412700       0.991752
    12714.558200       0.992470
    12730.744700       0.993155
    12746.972600       0.993807
    12763.241900       0.994424
    12779.552700       0.995008
    12795.905300       0.995559
    12812.299800       0.996076
    12828.736400       0.996561
    12845.215200       0.997013
    12861.736300       0.997432
    12878.300100       0.997818
    12894.906500       0.998173
    12911.555800       0.998495
    12928.248200       0.998785
    12944.983800       0.999044
    12961.762800       0.999271
    12978.585300       0.999467
    12995.451600       0.999632
    13012.361700       0.999767
    13029.316000       0.999870
    13046.314400       0.999943
    13063.357300       0.999987
    13080.444700       1.000000
    13097.576900       0.999984
    13114.754100       0.999938
    13131.976400       0.999864
    13149.243900       0.999760
    13166.556900       0.999628
    13183.915600       0.999468
    13201.320100       0.999280
    13218.770700       0.999064
    13236.267400       0.998821
    13253.810500       0.998550
    13271.400100       0.998253
    13289.036500       0.997930
    13306.719900       0.997580
    13324.450400       0.997204
    13342.228200       0.996803
    13360.053400       0.996377
    13377.926400       0.995925
    13395.847300       0.995449
    13413.816200       0.994949
    13431.833400       0.994425
    13449.899100       0.993878
    13468.013500       0.993307
    13486.176700       0.992713
    13504.388900       0.992097
    13522.650400       0.991459
    13540.961400       0.990799
    13559.322000       0.990117
    13577.732500       0.989415
    13596.193100       0.988692
    13614.703900       0.987948
    13633.265200       0.987185
    13651.877100       0.986402
    13670.540000       0.985599
    13689.253900       0.984778
    13708.019200       0.983939
    13726.836000       0.983081
    13745.704500       0.982206
    13764.624900       0.981314
    13783.597500       0.980405
    13802.622500       0.979479
    13821.700100       0.978538
    13840.830400       0.977580
    13860.013900       0.976608
    13879.250500       0.975620
    13898.540700       0.974619
    13917.884500       0.973603
    13937.282200       0.972573
    13956.734100       0.971531
    13976.240400       0.970475
    13995.801300       0.969408
    14015.417000       0.968328
    14035.087700       0.967237
    14054.813800       0.966134
    14074.595400       0.965021
    14094.432700       0.963898
    14114.326000       0.962765
    14134.275600       0.961622
    14154.281700       0.960470
    14174.344400       0.959310
    14194.464200       0.958142
    14214.641100       0.956965
    14234.875400       0.955782
    14255.167500       0.954591
    14275.517500       0.953394
    14295.925700       0.952191
    14316.392300       0.950982
    14336.917600       0.949768
    14357.501800       0.948549
    14378.145200       0.947326
    14398.848100       0.946098
    14419.610700       0.944867
    14440.433200       0.943633
    14461.316000       0.942396
    14482.259200       0.941156
    14503.263200       0.939915
    14524.328200       0.938672
    14545.454500       0.937428
    14566.642400       0.936183
    14587.892000       0.934938
    14609.203800       0.933692
    14630.577900       0.932448
    14652.014700       0.931203
    14673.514300       0.929961
    14695.077100       0.928719
    14716.703500       0.927480
    14738.393500       0.926243
    14760.147600       0.925009
    14781.966000       0.923777
    14803.849000       0.922550
    14825.796900       0.921326
    14847.809900       0.920106
    14869.888500       0.918891
    14892.032800       0.917680
    14914.243100       0.916475
    14936.519800       0.915276
    14958.863100       0.914082
    14981.273400       0.912895
    15003.750900       0.911714
    15026.296000       0.910540
    15048.909000       0.909374
    15071.590100       0.908215
    15094.339600       0.907064
    15117.158000       0.905921
    15140.045400       0.904786
    15163.002300       0.903661
    15186.028900       0.902544
    15209.125500       0.901437
    15232.292500       0.900340
    15255.530100       0.899252
    15278.838800       0.898175
    15302.218800       0.897108
    15325.670500       0.896052
    15349.194200       0.895007
    15372.790200       0.893973
    15396.458800       0.892951
    15420.200500       0.891940
    15444.015400       0.890941
    15467.904100       0.889954
    15491.866800       0.888980
    15515.903800       0.888019
    15540.015500       0.887070
    15564.202300       0.886134
    15588.464500       0.885211
    15612.802500       0.884301
    15637.216600       0.883405
    15661.707100       0.882523
    15686.274500       0.881654
    15710.919100       0.880799
    15735.641200       0.879959
    15760.441300       0.879133
    15785.319700       0.878321
    15810.276700       0.877523
    15835.312700       0.876740
    15860.428200       0.875972
    15885.623500       0.875218
    15910.899000       0.874479
    15936.255000       0.873755
    15961.691900       0.873047
    15987.210200       0.872353
    16012.810200       0.871674
    16038.492400       0.871010
    16064.257000       0.870362
    16090.104600       0.869728
    16116.035500       0.869110
    16142.050000       0.868507
    16168.148700       0.867919
    16194.332000       0.867346
    16220.600200       0.866788
    16246.953700       0.866246
    16273.393000       0.865718
    16299.918500       0.865205
    16326.530600       0.864707
    16353.229800       0.864224
    16380.016400       0.863756
    16406.890900       0.863303
    16433.853700       0.862864
    16460.905300       0.862439
    16488.046200       0.862029
    16515.276600       0.861632
    16542.597200       0.861250
    16570.008300       0.860882
    16597.510400       0.860527
    16625.103900       0.860186
    16652.789300       0.859858
    16680.567100       0.859543
    16708.437800       0.859242
    16736.401700       0.858953
    16764.459300       0.858676
    16792.611300       0.858412
    16820.857900       0.858159
    16849.199700       0.857919
    16877.637100       0.857689
    16906.170800       0.857471
    16934.801000       0.857264
    16963.528400       0.857067
    16992.353400       0.856881
    17021.276600       0.856705
    17050.298400       0.856538
    17079.419300       0.856380
    17108.639900       0.856232
    17137.960600       0.856091
    17167.382000       0.855960
    17196.904600       0.855835
    17226.528900       0.855718
    17256.255400       0.855609
    17286.084700       0.855505
