32,   32, MVIRI VIS channel from srf_MET7_2001213_2001214_1801-Release_S10EE_10.dat
Number of data points:
793
Wavenumber (cm-1)   Filter response
     8442.380800       0.000000
     8449.514200       0.000000
     8456.659600       0.000004
     8463.817200       0.000053
     8470.986900       0.000158
     8478.168700       0.000315
     8485.362700       0.000525
     8492.569000       0.000785
     8499.787500       0.001094
     8507.018300       0.001450
     8514.261400       0.001853
     8521.516800       0.002300
     8528.784600       0.002791
     8536.064900       0.003325
     8543.357500       0.003899
     8550.662700       0.004514
     8557.980300       0.005167
     8565.310500       0.005859
     8572.653200       0.006587
     8580.008600       0.007352
     8587.376600       0.008151
     8594.757200       0.008985
     8602.150500       0.009852
     8609.556600       0.010752
     8616.975400       0.011683
     8624.407100       0.012645
     8631.851500       0.013637
     8639.308900       0.014659
     8646.779100       0.015710
     8654.262200       0.016789
     8661.758300       0.017897
     8669.267400       0.019031
     8676.789600       0.020191
     8684.324800       0.021378
     8691.873100       0.022591
     8699.434500       0.023828
     8707.009100       0.025091
     8714.596900       0.026378
     8722.198000       0.027689
     8729.812300       0.029023
     8737.439900       0.030380
     8745.080900       0.031761
     8752.735200       0.033164
     8760.403000       0.034590
     8768.084200       0.036038
     8775.778900       0.037507
     8783.487000       0.038998
     8791.208800       0.040511
     8798.944100       0.042045
     8806.693100       0.043600
     8814.455700       0.045176
     8822.232000       0.046773
     8830.022100       0.048391
     8837.825900       0.050029
     8845.643500       0.051687
     8853.475000       0.053366
     8861.320300       0.055066
     8869.179600       0.056785
     8877.052800       0.058525
     8884.940000       0.060285
     8892.841300       0.062065
     8900.756600       0.063866
     8908.686000       0.065686
     8916.629500       0.067527
     8924.587200       0.069387
     8932.559200       0.071268
     8940.545400       0.073169
     8948.545900       0.075090
     8956.560700       0.077032
     8964.589900       0.078993
     8972.633500       0.080975
     8980.691500       0.082978
     8988.764000       0.085001
     8996.851100       0.087044
     9004.952700       0.089108
     9013.068900       0.091193
     9021.199800       0.093298
     9029.345400       0.095425
     9037.505600       0.097572
     9045.680700       0.099740
     9053.870500       0.101929
     9062.075200       0.104139
     9070.294800       0.106371
     9078.529300       0.108624
     9086.778700       0.110898
     9095.043200       0.113194
     9103.322700       0.115512
     9111.617300       0.117851
     9119.927000       0.120212
     9128.251900       0.122595
     9136.592100       0.125000
     9144.947400       0.127427
     9153.318100       0.129876
     9161.704100       0.132347
     9170.105500       0.134841
     9178.522300       0.137358
     9186.954500       0.139896
     9195.402300       0.142458
     9203.865600       0.145042
     9212.344500       0.147649
     9220.839100       0.150279
     9229.349300       0.152931
     9237.875300       0.155607
     9246.417000       0.158306
     9254.974500       0.161028
     9263.547900       0.163773
     9272.137200       0.166541
     9280.742500       0.169332
     9289.363700       0.172147
     9298.000900       0.174985
     9306.654300       0.177847
     9315.323700       0.180732
     9324.009300       0.183641
     9332.711200       0.186573
     9341.429200       0.189528
     9350.163600       0.192507
     9358.914400       0.195510
     9367.681500       0.198536
     9376.465100       0.201586
     9385.265100       0.204659
     9394.081700       0.207755
     9402.914900       0.210875
     9411.764700       0.214019
     9420.631200       0.217186
     9429.514400       0.220377
     9438.414300       0.223591
     9447.331100       0.226828
     9456.264800       0.230088
     9465.215300       0.233372
     9474.182900       0.236679
     9483.167400       0.240009
     9492.169000       0.243362
     9501.187600       0.246738
     9510.223500       0.250137
     9519.276500       0.253558
     9528.346800       0.257002
     9537.434400       0.260469
     9546.539400       0.263958
     9555.661700       0.267470
     9564.801500       0.271003
     9573.958800       0.274559
     9583.133700       0.278136
     9592.326100       0.281736
     9601.536200       0.285357
     9610.764100       0.288999
     9620.009600       0.292663
     9629.273000       0.296348
     9638.554200       0.300053
     9647.853400       0.303780
     9657.170400       0.307527
     9666.505600       0.311294
     9675.858700       0.315082
     9685.230000       0.318889
     9694.619500       0.322717
     9704.027200       0.326564
     9713.453100       0.330430
     9722.897400       0.334316
     9732.360100       0.338220
     9741.841200       0.342143
     9751.340800       0.346084
     9760.859000       0.350043
     9770.395700       0.354020
     9779.951100       0.358015
     9789.525200       0.362027
     9799.118100       0.366056
     9808.729800       0.370102
     9818.360300       0.374164
     9828.009800       0.378243
     9837.678300       0.382337
     9847.365800       0.386447
     9857.072400       0.390572
     9866.798200       0.394713
     9876.543200       0.398867
     9886.307500       0.403036
     9896.091000       0.407220
     9905.894000       0.411416
     9915.716400       0.415626
     9925.558300       0.419849
     9935.419800       0.424085
     9945.300800       0.428333
     9955.201600       0.432592
     9965.122100       0.436863
     9975.062300       0.441145
     9985.022500       0.445439
     9995.002500       0.449743
    10005.002500       0.454056
    10015.022500       0.458380
    10025.062700       0.462712
    10035.122900       0.467054
    10045.203400       0.471404
    10055.304200       0.475762
    10065.425300       0.480128
    10075.566800       0.484501
    10085.728700       0.488880
    10095.911200       0.493267
    10106.114200       0.497660
    10116.337900       0.502058
    10126.582300       0.506461
    10136.847400       0.510869
    10147.133400       0.515282
    10157.440300       0.519698
    10167.768200       0.524118
    10178.117000       0.528541
    10188.487000       0.532967
    10198.878100       0.537395
    10209.290500       0.541824
    10219.724100       0.546255
    10230.179000       0.550687
    10240.655400       0.555120
    10251.153300       0.559552
    10261.672700       0.563984
    10272.213700       0.568415
    10282.776300       0.572844
    10293.360800       0.577272
    10303.967000       0.581698
    10314.595200       0.586120
    10325.245200       0.590540
    10335.917300       0.594956
    10346.611500       0.599368
    10357.327800       0.603775
    10368.066400       0.608178
    10378.827200       0.612574
    10389.610400       0.616965
    10400.416000       0.621350
    10411.244100       0.625728
    10422.094800       0.630098
    10432.968200       0.634461
    10443.864200       0.638815
    10454.783100       0.643161
    10465.724800       0.647497
    10476.689400       0.651824
    10487.677000       0.656142
    10498.687700       0.660448
    10509.721500       0.664743
    10520.778500       0.669027
    10531.858900       0.673299
    10542.962600       0.677559
    10554.089700       0.681806
    10565.240400       0.686040
    10576.414600       0.690260
    10587.612500       0.694466
    10598.834100       0.698658
    10610.079600       0.702834
    10621.348900       0.706995
    10632.642200       0.711140
    10643.959600       0.715269
    10655.301000       0.719381
    10666.666700       0.723476
    10678.056600       0.727553
    10689.470900       0.731612
    10700.909600       0.735652
    10712.372800       0.739674
    10723.860600       0.743676
    10735.373100       0.747658
    10746.910300       0.751621
    10758.472300       0.755563
    10770.059200       0.759483
    10781.671200       0.763383
    10793.308100       0.767260
    10804.970300       0.771116
    10816.657700       0.774948
    10828.370300       0.778758
    10840.108400       0.782544
    10851.871900       0.786307
    10863.661100       0.790046
    10875.475800       0.793760
    10887.316300       0.797449
    10899.182600       0.801112
    10911.074700       0.804751
    10922.992900       0.808363
    10934.937100       0.811948
    10946.907500       0.815507
    10958.904100       0.819039
    10970.927000       0.822544
    10982.976400       0.826021
    10995.052200       0.829470
    11007.154700       0.832890
    11019.283700       0.836281
    11031.439600       0.839644
    11043.622300       0.842977
    11055.832000       0.846281
    11068.068600       0.849554
    11080.332400       0.852798
    11092.623400       0.856010
    11104.941700       0.859192
    11117.287400       0.862343
    11129.660500       0.865462
    11142.061300       0.868549
    11154.489700       0.871605
    11166.945800       0.874628
    11179.429800       0.877619
    11191.941800       0.880577
    11204.481800       0.883501
    11217.049900       0.886393
    11229.646300       0.889251
    11242.270900       0.892076
    11254.924000       0.894866
    11267.605600       0.897623
    11280.315800       0.900344
    11293.054800       0.903032
    11305.822500       0.905684
    11318.619100       0.908302
    11331.444800       0.910884
    11344.299500       0.913431
    11357.183400       0.915943
    11370.096600       0.918419
    11383.039300       0.920859
    11396.011400       0.923263
    11409.013100       0.925631
    11422.044500       0.927962
    11435.105800       0.930257
    11448.196900       0.932516
    11461.318100       0.934737
    11474.469300       0.936922
    11487.650800       0.939070
    11500.862600       0.941181
    11514.104800       0.943255
    11527.377500       0.945292
    11540.680900       0.947291
    11554.015000       0.949253
    11567.380000       0.951177
    11580.775900       0.953064
    11594.202900       0.954913
    11607.661100       0.956724
    11621.150500       0.958498
    11634.671300       0.960234
    11648.223600       0.961932
    11661.807600       0.963592
    11675.423200       0.965215
    11689.070700       0.966800
    11702.750100       0.968346
    11716.461600       0.969855
    11730.205300       0.971326
    11743.981200       0.972760
    11757.789500       0.974155
    11771.630400       0.975513
    11785.503800       0.976833
    11799.410000       0.978115
    11813.349100       0.979359
    11827.321100       0.980566
    11841.326200       0.981735
    11855.364600       0.982867
    11869.436200       0.983961
    11883.541300       0.985018
    11897.680000       0.986038
    11911.852300       0.987020
    11926.058400       0.987966
    11940.298500       0.988874
    11954.572600       0.989745
    11968.880900       0.990580
    11983.223500       0.991378
    11997.600500       0.992140
    12012.012000       0.992865
    12026.458200       0.993554
    12040.939200       0.994207
    12055.455100       0.994824
    12070.006000       0.995405
    12084.592100       0.995951
    12099.213600       0.996461
    12113.870400       0.996936
    12128.562800       0.997376
    12143.290800       0.997781
    12158.054700       0.998152
    12172.854500       0.998487
    12187.690400       0.998789
    12202.562500       0.999057
    12217.471000       0.999291
    12232.415900       0.999491
    12247.397400       0.999658
    12262.415700       0.999791
    12277.470800       0.999892
    12292.563000       0.999960
    12307.692300       0.999996
    12322.858900       1.000000
    12338.062900       0.999972
    12353.304500       0.999912
    12368.583800       0.999821
    12383.900900       0.999699
    12399.256000       0.999546
    12414.649300       0.999363
    12430.080800       0.999150
    12445.550700       0.998907
    12461.059200       0.998634
    12476.606400       0.998332
    12492.192400       0.998001
    12507.817400       0.997642
    12523.481500       0.997254
    12539.185000       0.996838
    12554.927800       0.996395
    12570.710200       0.995924
    12586.532400       0.995427
    12602.394500       0.994903
    12618.296500       0.994353
    12634.238800       0.993777
    12650.221400       0.993175
    12666.244500       0.992548
    12682.308200       0.991897
    12698.412700       0.991221
    12714.558200       0.990521
    12730.744700       0.989798
    12746.972600       0.989051
    12763.241900       0.988281
    12779.552700       0.987489
    12795.905300       0.986675
    12812.299800       0.985839
    12828.736400       0.984982
    12845.215200       0.984104
    12861.736300       0.983205
    12878.300100       0.982287
    12894.906500       0.981348
    12911.555800       0.980391
    12928.248200       0.979415
    12944.983800       0.978420
    12961.762800       0.977407
    12978.585300       0.976377
    12995.451600       0.975329
    13012.361700       0.974265
    13029.316000       0.973185
    13046.314400       0.972089
    13063.357300       0.970977
    13080.444700       0.969850
    13097.576900       0.968709
    13114.754100       0.967554
    13131.976400       0.966385
    13149.243900       0.965203
    13166.556900       0.964008
    13183.915600       0.962801
    13201.320100       0.961582
    13218.770700       0.960352
    13236.267400       0.959110
    13253.810500       0.957858
    13271.400100       0.956596
    13289.036500       0.955325
    13306.719900       0.954044
    13324.450400       0.952754
    13342.228200       0.951456
    13360.053400       0.950151
    13377.926400       0.948838
    13395.847300       0.947518
    13413.816200       0.946191
    13431.833400       0.944859
    13449.899100       0.943521
    13468.013500       0.942178
    13486.176700       0.940830
    13504.388900       0.939478
    13522.650400       0.938122
    13540.961400       0.936763
    13559.322000       0.935402
    13577.732500       0.934037
    13596.193100       0.932671
    13614.703900       0.931303
    13633.265200       0.929934
    13651.877100       0.928564
    13670.540000       0.927195
    13689.253900       0.925825
    13708.019200       0.924456
    13726.836000       0.923088
    13745.704500       0.921722
    13764.624900       0.920357
    13783.597500       0.918995
    13802.622500       0.917636
    13821.700100       0.916280
    13840.830400       0.914927
    13860.013900       0.913579
    13879.250500       0.912235
    13898.540700       0.910896
    13917.884500       0.909562
    13937.282200       0.908234
    13956.734100       0.906912
    13976.240400       0.905596
    13995.801300       0.904287
    14015.417000       0.902986
    14035.087700       0.901692
    14054.813800       0.900406
    14074.595400       0.899128
    14094.432700       0.897860
    14114.326000       0.896600
    14134.275600       0.895350
    14154.281700       0.894110
    14174.344400       0.892880
    14194.464200       0.891660
    14214.641100       0.890451
    14234.875400       0.889254
    14255.167500       0.888068
    14275.517500       0.886895
    14295.925700       0.885733
    14316.392300       0.884584
    14336.917600       0.883448
    14357.501800       0.882325
    14378.145200       0.881215
    14398.848100       0.880120
    14419.610700       0.879038
    14440.433200       0.877971
    14461.316000       0.876918
    14482.259200       0.875881
    14503.263200       0.874858
    14524.328200       0.873851
    14545.454500       0.872860
    14566.642400       0.871885
    14587.892000       0.870926
    14609.203800       0.869983
    14630.577900       0.869057
    14652.014700       0.868148
    14673.514300       0.867257
    14695.077100       0.866382
    14716.703500       0.865525
    14738.393500       0.864686
    14760.147600       0.863864
    14781.966000       0.863061
    14803.849000       0.862276
    14825.796900       0.861509
    14847.809900       0.860761
    14869.888500       0.860032
    14892.032800       0.859322
    14914.243100       0.858630
    14936.519800       0.857958
    14958.863100       0.857305
    14981.273400       0.856672
    15003.750900       0.856058
    15026.296000       0.855463
    15048.909000       0.854888
    15071.590100       0.854333
    15094.339600       0.853798
    15117.158000       0.853283
    15140.045400       0.852787
    15163.002300       0.852311
    15186.028900       0.851856
    15209.125500       0.851420
    15232.292500       0.851005
    15255.530100       0.850609
    15278.838800       0.850234
    15302.218800       0.849879
    15325.670500       0.849543
    15349.194200       0.849228
    15372.790200       0.848933
    15396.458800       0.848657
    15420.200500       0.848401
    15444.015400       0.848166
    15467.904100       0.847949
    15491.866800       0.847753
    15515.903800       0.847576
    15540.015500       0.847418
    15564.202300       0.847280
    15588.464500       0.847161
    15612.802500       0.847061
    15637.216600       0.846980
    15661.707100       0.846918
    15686.274500       0.846874
    15710.919100       0.846849
    15735.641200       0.846842
    15760.441300       0.846853
    15785.319700       0.846882
    15810.276700       0.846929
    15835.312700       0.846993
    15860.428200       0.847074
    15885.623500       0.847172
    15910.899000       0.847287
    15936.255000       0.847418
    15961.691900       0.847566
    15987.210200       0.847730
    16012.810200       0.847909
    16038.492400       0.848103
    16064.257000       0.848313
    16090.104600       0.848537
    16116.035500       0.848775
    16142.050000       0.849028
    16168.148700       0.849294
    16194.332000       0.849574
    16220.600200       0.849866
    16246.953700       0.850171
    16273.393000       0.850489
    16299.918500       0.850818
    16326.530600       0.851158
    16353.229800       0.851509
    16380.016400       0.851871
    16406.890900       0.852243
    16433.853700       0.852625
    16460.905300       0.853016
    16488.046200       0.853415
    16515.276600       0.853823
    16542.597200       0.854238
    16570.008300       0.854661
    16597.510400       0.855091
    16625.103900       0.855526
    16652.789300       0.855968
    16680.567100       0.856415
    16708.437800       0.856866
    16736.401700       0.857321
    16764.459300       0.857780
    16792.611300       0.858242
    16820.857900       0.858706
    16849.199700       0.859172
    16877.637100       0.859640
    16906.170800       0.860108
    16934.801000       0.860575
    16963.528400       0.861043
    16992.353400       0.861508
    17021.276600       0.861973
    17050.298400       0.862434
    17079.419300       0.862892
    17108.639900       0.863346
    17137.960600       0.863796
    17167.382000       0.864241
    17196.904600       0.864679
    17226.528900       0.865111
    17256.255400       0.865536
    17286.084700       0.865953
    17316.017300       0.866361
    17346.053800       0.866759
    17376.194600       0.867147
    17406.440400       0.867525
    17436.791600       0.867890
    17467.248900       0.868244
    17497.812800       0.868583
    17528.483800       0.868910
    17559.262500       0.869221
    17590.149500       0.869517
    17621.145400       0.869796
    17652.250700       0.870058
    17683.466000       0.870303
