          23  , Jan 12th 2012 http://fy3.satellite.cma.gov.cn/ArssEn/Download/FY3A_calibration_info_params.rar
Number of data points:
122
Wavenumber (cm-1)   Filter response
     9950.249000       0.000223
     9960.160000       0.001724
     9970.090000       0.001251
     9980.040000       0.000688
     9990.010000       0.000867
    10000.000000       0.000305
    10010.010000       0.000090
    10020.040000       0.000502
    10030.090000       0.000226
    10040.160000       0.001846
    10050.250000       0.002878
    10060.360000       0.002095
    10070.490000       0.001083
    10080.650000       0.001648
    10090.820000       0.001344
    10101.010000       0.001792
    10111.220000       0.002316
    10121.460000       0.002753
    10131.710000       0.005756
    10141.990000       0.005824
    10152.280000       0.005554
    10162.600000       0.006788
    10172.940000       0.008462
    10183.300000       0.010603
    10193.680000       0.013674
    10204.080000       0.016510
    10214.500000       0.021518
    10224.950000       0.027716
    10235.420000       0.036037
    10245.900000       0.047792
    10256.410000       0.063619
    10266.940000       0.085485
    10277.490000       0.112085
    10288.070000       0.150575
    10298.660000       0.195930
    10309.280000       0.258893
    10319.920000       0.325760
    10330.580000       0.407264
    10341.260000       0.487331
    10351.970000       0.581956
    10362.690000       0.660796
    10373.440000       0.739294
    10384.220000       0.802699
    10395.010000       0.860584
    10405.830000       0.901466
    10416.670000       0.937543
    10427.530000       0.960595
    10438.410000       0.979068
    10449.320000       0.990953
    10460.250000       0.995850
    10471.200000       1.000000
    10482.180000       0.999011
    10493.180000       0.993945
    10504.200000       0.989638
    10515.250000       0.985401
    10526.320000       0.974157
    10537.410000       0.964029
    10548.520000       0.956935
    10559.660000       0.950998
    10570.830000       0.945035
    10582.010000       0.940616
    10593.220000       0.939240
    10604.450000       0.941603
    10615.710000       0.950495
    10626.990000       0.951544
    10638.300000       0.953960
    10649.630000       0.940766
    10660.980000       0.935246
    10672.360000       0.930092
    10683.760000       0.917056
    10695.190000       0.898509
    10706.640000       0.877355
    10718.110000       0.851240
    10729.610000       0.821527
    10741.140000       0.804807
    10752.690000       0.790528
    10764.260000       0.780202
    10775.860000       0.767904
    10787.490000       0.767672
    10799.140000       0.771116
    10810.810000       0.764778
    10822.510000       0.742380
    10834.240000       0.710011
    10845.990000       0.666340
    10857.760000       0.611453
    10869.570000       0.547121
    10881.390000       0.473574
    10893.250000       0.397579
    10905.130000       0.325042
    10917.030000       0.257768
    10928.960000       0.200610
    10940.920000       0.147687
    10952.900000       0.108440
    10964.910000       0.078604
    10976.950000       0.056897
    10989.010000       0.040243
    11001.100000       0.029636
    11013.220000       0.021969
    11025.360000       0.016367
    11037.530000       0.012900
    11049.720000       0.009690
    11061.950000       0.008005
    11074.200000       0.006149
    11086.470000       0.005076
    11098.780000       0.004227
    11111.110000       0.003774
    11123.470000       0.003064
    11135.860000       0.002324
    11148.270000       0.002069
    11160.710000       0.001537
    11173.180000       0.001440
    11185.680000       0.001095
    11198.210000       0.000963
    11210.760000       0.000827
    11223.340000       0.000260
    11235.960000       0.000592
    11248.590000       0.000986
    11261.260000       0.000989
    11273.960000       0.000680
    11286.680000       0.000292
    11299.440000       0.000255
    11312.220000       0.000137
