   2  ,noaa_07_hirs_02.flt
Number of data points:
67
Wavenumber (cm-1)   Filter response
      658.110000       0.000000
      660.560000       0.001388
      662.220000       0.004288
      664.060000       0.007842
      665.560000       0.010453
      666.150000       0.017815
      666.970000       0.027945
      667.820000       0.054276
      668.610000       0.085374
      668.950000       0.105840
      669.540000       0.148090
      669.860000       0.182400
      670.540000       0.261190
      670.890000       0.320690
      671.320000       0.383240
      671.540000       0.448270
      672.110000       0.533220
      672.320000       0.564710
      672.480000       0.594980
      673.120000       0.674960
      673.750000       0.732970
      674.050000       0.756650
      674.630000       0.786900
      675.430000       0.829000
      676.030000       0.853870
      676.260000       0.863690
      677.070000       0.902100
      677.670000       0.928270
      677.890000       0.935530
      678.240000       0.949130
      679.000000       0.966380
      679.430000       0.976550
      679.910000       0.979550
      680.340000       0.986860
      680.810000       0.997320
      681.180000       1.000000
      681.870000       0.998200
      682.320000       0.991620
      682.650000       0.982530
      682.860000       0.965920
      683.310000       0.910180
      683.540000       0.869920
      683.870000       0.825500
      684.020000       0.781290
      684.480000       0.670400
      684.730000       0.619540
      684.960000       0.567200
      685.460000       0.431130
      685.850000       0.369330
      686.180000       0.298430
      686.600000       0.233920
      686.940000       0.181360
      687.330000       0.145270
      687.830000       0.111300
      688.720000       0.060965
      689.390000       0.042336
      690.130000       0.036279
      691.700000       0.022195
      692.330000       0.020269
      694.240000       0.018262
      695.050000       0.016043
      696.220000       0.011843
      697.170000       0.009496
      698.010000       0.010561
      699.040000       0.005928
      699.960000       0.002202
      702.390000       0.000000
