 6    ,AATSR Flight Model FPA #2 0.659um channel (AuSpace measuremets).
Number of data points:
255
Wavenumber (cm-1)   Filter response
    14383.356700       0.000570
    14388.737600       0.000600
    14394.101900       0.000620
    14399.490800       0.000820
    14404.883800       0.000850
    14410.260100       0.000820
    14415.661200       0.000930
    14421.066300       0.001020
    14426.454700       0.001150
    14431.867900       0.001270
    14437.285200       0.001340
    14442.685600       0.001490
    14448.111100       0.001610
    14453.540500       0.001690
    14458.953200       0.001870
    14464.390800       0.002030
    14469.832600       0.002130
    14475.278400       0.002240
    14480.707400       0.002320
    14486.161400       0.002400
    14491.619500       0.002590
    14497.060700       0.002740
    14502.527100       0.003120
    14507.997500       0.003260
    14513.451100       0.003410
    14518.929800       0.003550
    14524.412600       0.003910
    14529.878500       0.004070
    14535.369600       0.004270
    14540.864900       0.004540
    14546.343200       0.004730
    14551.846800       0.004890
    14557.354500       0.005280
    14562.845200       0.005620
    14568.361300       0.005710
    14573.881600       0.006160
    14579.384700       0.006530
    14584.913400       0.006850
    14590.446200       0.007090
    14595.961900       0.007500
    14601.503100       0.007980
    14607.048500       0.008410
    14612.598100       0.008840
    14618.130600       0.009410
    14623.688600       0.009950
    14629.250900       0.010340
    14634.796000       0.010910
    14640.366700       0.011480
    14645.941700       0.012130
    14651.499400       0.012760
    14657.082900       0.013510
    14662.670600       0.014370
    14668.241100       0.015200
    14673.837300       0.015890
    14679.437800       0.016950
    14685.021000       0.018060
    14690.630000       0.019140
    14696.243300       0.020240
    14701.839300       0.021560
    14707.461200       0.022950
    14713.087400       0.024260
    14718.696300       0.025700
    14724.331100       0.027320
    14729.970200       0.029100
    14735.591900       0.030840
    14741.239600       0.032970
    14746.891700       0.035370
    14752.548100       0.038120
    14758.187100       0.040820
    14763.852200       0.044070
    14769.521600       0.047490
    14775.173600       0.051050
    14780.851700       0.055190
    14786.534200       0.059640
    14792.199200       0.064530
    14797.890400       0.069410
    14803.586000       0.075360
    14809.264100       0.081620
    14814.968500       0.088840
    14820.677200       0.096840
    14826.368400       0.105600
    14832.086000       0.116220
    14837.807900       0.127340
    14843.512300       0.139970
    14849.243100       0.152680
    14854.978300       0.168660
    14860.695800       0.183870
    14866.439900       0.202710
    14872.188400       0.221560
    14877.919200       0.243800
    14883.676600       0.266390
    14889.438500       0.290870
    14895.204800       0.317460
    14900.953400       0.345960
    14906.728600       0.373810
    14912.508300       0.406280
    14918.270300       0.436850
    14924.058900       0.468680
    14929.852100       0.501150
    14935.627400       0.532940
    14941.429600       0.567040
    14947.236300       0.597680
    14953.025100       0.628910
    14958.840700       0.660600
    14964.661000       0.689780
    14970.463300       0.719190
    14976.292500       0.745920
    14982.126300       0.766570
    14987.942200       0.788360
    14993.785100       0.808130
    14999.632500       0.824340
    15005.462000       0.839070
    15011.318500       0.853020
    15017.179700       0.864640
    15023.022800       0.873850
    15028.893000       0.883680
    15034.767900       0.890280
    15040.647300       0.899330
    15046.508800       0.907030
    15052.397400       0.911740
    15058.290600       0.919270
    15064.165800       0.922750
    15070.068300       0.929550
    15075.975400       0.931080
    15081.864400       0.939970
    15087.780700       0.945080
    15093.701700       0.952650
    15099.604500       0.959490
    15105.534800       0.962180
    15111.469800       0.965090
    15117.386500       0.972700
    15123.330800       0.976360
    15129.279700       0.979420
    15135.210400       0.984510
    15141.168700       0.989590
    15147.131700       0.994220
    15153.076400       0.992320
    15159.048700       0.995430
    15165.025800       0.996280
    15170.984600       1.000000
    15176.971100       0.999810
    15182.962300       0.999610
    15188.958200       0.997310
    15194.935800       0.993490
    15200.941200       0.993260
    15206.951400       0.985600
    15212.943200       0.982200
    15218.962800       0.977110
    15224.987200       0.971590
    15230.993200       0.962410
    15237.027200       0.952320
    15243.065900       0.942870
    15249.086200       0.929430
    15255.134500       0.919310
    15261.187600       0.908630
    15267.222200       0.895680
    15273.284900       0.880130
    15279.352400       0.870560
    15285.401400       0.853120
    15291.478500       0.842140
    15297.560500       0.826890
    15303.623900       0.808250
    15309.715500       0.793920
    15315.812000       0.776150
    15321.889900       0.758140
    15327.996100       0.741280
    15334.107200       0.719820
    15340.223100       0.701400
    15346.320400       0.682460
    15352.446100       0.660950
    15358.576700       0.639260
    15364.688600       0.615120
    15370.828900       0.591970
    15376.974200       0.567660
    15383.100700       0.539910
    15389.255800       0.510870
    15395.415900       0.482260
    15401.557100       0.448470
    15407.727000       0.418320
    15413.901800       0.387160
    15420.057800       0.358950
    15426.242500       0.329210
    15432.432200       0.305960
    15438.603000       0.278310
    15444.802600       0.253700
    15451.007200       0.230450
    15457.192900       0.211880
    15463.407400       0.192080
    15469.626900       0.174320
    15475.827500       0.157550
    15482.057100       0.142750
    15488.291600       0.128130
    15494.531200       0.115810
    15500.751800       0.103920
    15507.001400       0.093150
    15513.256100       0.083950
    15519.491700       0.074890
    15525.756500       0.067070
    15532.026300       0.060260
    15538.277000       0.053930
    15544.556900       0.048350
    15550.841900       0.043130
    15557.107800       0.038640
    15563.403000       0.034700
    15569.703200       0.031340
    15575.984300       0.027930
    15582.294800       0.025180
    15588.610300       0.022930
    15594.906700       0.020770
    15601.232500       0.018620
    15607.563400       0.016870
    15613.875100       0.015470
    15620.216300       0.014000
    15626.562700       0.012720
    15632.889700       0.011680
    15639.246400       0.010660
    15645.608200       0.009800
    15651.975200       0.008900
    15658.322900       0.008120
    15664.700200       0.007500
    15671.082800       0.007010
    15677.446000       0.006530
    15683.838900       0.005960
    15690.237100       0.005630
    15696.615800       0.005150
    15703.024400       0.004680
    15709.438200       0.004420
    15715.832600       0.004120
    15722.256900       0.003680
    15728.686500       0.003440
    15735.096500       0.003170
    15741.536600       0.002700
    15747.981900       0.002570
    15754.407700       0.002330
    15760.863600       0.002230
    15767.324700       0.002050
    15773.766300       0.001910
    15780.238100       0.001790
    15786.715200       0.001600
    15793.172600       0.001300
    15799.660300       0.001160
    15806.153300       0.001120
    15812.651700       0.001010
    15819.130400       0.000890
    15825.639400       0.000720
    15832.153800       0.000580
    15838.648500       0.000670
    15845.173600       0.000510
    15851.704100       0.000420
    15858.214900       0.000340
    15864.756100       0.000210
    15871.302800       0.000090
    15877.829600       0.000030
    15884.387100       0.000010
    15890.949900       0.000000
