9, GOES 6.95um ABI FM3 SRF CWG processed March 10, 2016
Number of data points:
1545
Wavenumber (cm-1)   Filter response
     1368.700000       0.001298
     1368.800000       0.002236
     1368.900000       0.003094
     1369.000000       0.003953
     1369.100000       0.004733
     1369.200000       0.005238
     1369.300000       0.005476
     1369.400000       0.005458
     1369.500000       0.005430
     1369.600000       0.005405
     1369.700000       0.005377
     1369.800000       0.005346
     1369.900000       0.005282
     1370.000000       0.005109
     1370.100000       0.004906
     1370.200000       0.004667
     1370.300000       0.004429
     1370.400000       0.004195
     1370.500000       0.003914
     1370.600000       0.003686
     1370.700000       0.003822
     1370.800000       0.004128
     1370.900000       0.004414
     1371.000000       0.004718
     1371.100000       0.005027
     1371.200000       0.005313
     1371.300000       0.005588
     1371.400000       0.005734
     1371.500000       0.005796
     1371.600000       0.005838
     1371.700000       0.005869
     1371.800000       0.005905
     1371.900000       0.005942
     1372.000000       0.005938
     1372.100000       0.005910
     1372.200000       0.005798
     1372.300000       0.005604
     1372.400000       0.005443
     1372.500000       0.005283
     1372.600000       0.005077
     1372.700000       0.004983
     1372.800000       0.005027
     1372.900000       0.005127
     1373.000000       0.005417
     1373.100000       0.005718
     1373.200000       0.005996
     1373.300000       0.006278
     1373.400000       0.006556
     1373.500000       0.006709
     1373.600000       0.006798
     1373.700000       0.006806
     1373.800000       0.006808
     1373.900000       0.006809
     1374.000000       0.006811
     1374.100000       0.006837
     1374.200000       0.006907
     1374.300000       0.007208
     1374.400000       0.007619
     1374.500000       0.008026
     1374.600000       0.008432
     1374.700000       0.008821
     1374.800000       0.009195
     1374.900000       0.009555
     1375.000000       0.009805
     1375.100000       0.009978
     1375.200000       0.010155
     1375.300000       0.010338
     1375.400000       0.010530
     1375.500000       0.010713
     1375.600000       0.010858
     1375.700000       0.010948
     1375.800000       0.010962
     1375.900000       0.010967
     1376.000000       0.010968
     1376.100000       0.010968
     1376.200000       0.010969
     1376.300000       0.010970
     1376.400000       0.010980
     1376.500000       0.010992
     1376.600000       0.011007
     1376.700000       0.011023
     1376.800000       0.011039
     1376.900000       0.011052
     1377.000000       0.011065
     1377.100000       0.011183
     1377.200000       0.011515
     1377.300000       0.011849
     1377.400000       0.012216
     1377.500000       0.012564
     1377.600000       0.012929
     1377.700000       0.013355
     1377.800000       0.013818
     1377.900000       0.014311
     1378.000000       0.014819
     1378.100000       0.015332
     1378.200000       0.015839
     1378.300000       0.016335
     1378.400000       0.016805
     1378.500000       0.017251
     1378.600000       0.017613
     1378.700000       0.017909
     1378.800000       0.018201
     1378.900000       0.018494
     1379.000000       0.018810
     1379.100000       0.019144
     1379.200000       0.019495
     1379.300000       0.019891
     1379.400000       0.020450
     1379.500000       0.021099
     1379.600000       0.021715
     1379.700000       0.022349
     1379.800000       0.023046
     1379.900000       0.023678
     1380.000000       0.024193
     1380.100000       0.024638
     1380.200000       0.025020
     1380.300000       0.025402
     1380.400000       0.025802
     1380.500000       0.026118
     1380.600000       0.026365
     1380.700000       0.026644
     1380.800000       0.026973
     1380.900000       0.027454
     1381.000000       0.028076
     1381.100000       0.028703
     1381.200000       0.029347
     1381.300000       0.029985
     1381.400000       0.030621
     1381.500000       0.031257
     1381.600000       0.031892
     1381.700000       0.032527
     1381.800000       0.033161
     1381.900000       0.033763
     1382.000000       0.034458
     1382.100000       0.035318
     1382.200000       0.036584
     1382.300000       0.038851
     1382.400000       0.040078
     1382.500000       0.040546
     1382.600000       0.041027
     1382.700000       0.041538
     1382.800000       0.042051
     1382.900000       0.042563
     1383.000000       0.043065
     1383.100000       0.043555
     1383.200000       0.044014
     1383.300000       0.044449
     1383.400000       0.044845
     1383.500000       0.045227
     1383.600000       0.045614
     1383.700000       0.046002
     1383.800000       0.046388
     1383.900000       0.046774
     1384.000000       0.047160
     1384.100000       0.047544
     1384.200000       0.047904
     1384.300000       0.048346
     1384.400000       0.048964
     1384.500000       0.049679
     1384.600000       0.050503
     1384.700000       0.051343
     1384.800000       0.052191
     1384.900000       0.053061
     1385.000000       0.053955
     1385.100000       0.054846
     1385.200000       0.055735
     1385.300000       0.056623
     1385.400000       0.057517
     1385.500000       0.058457
     1385.600000       0.059437
     1385.700000       0.060449
     1385.800000       0.061476
     1385.900000       0.062498
     1386.000000       0.063520
     1386.100000       0.064540
     1386.200000       0.065560
     1386.300000       0.066589
     1386.400000       0.067603
     1386.500000       0.068592
     1386.600000       0.069524
     1386.700000       0.070376
     1386.800000       0.071187
     1386.900000       0.071955
     1387.000000       0.072722
     1387.100000       0.073493
     1387.200000       0.074265
     1387.300000       0.075037
     1387.400000       0.075804
     1387.500000       0.076566
     1387.600000       0.077331
     1387.700000       0.078094
     1387.800000       0.078828
     1387.900000       0.079546
     1388.000000       0.080267
     1388.100000       0.080987
     1388.200000       0.081708
     1388.300000       0.082428
     1388.400000       0.083145
     1388.500000       0.083861
     1388.600000       0.084529
     1388.700000       0.085308
     1388.800000       0.086501
     1388.900000       0.087963
     1389.000000       0.089653
     1389.100000       0.091452
     1389.200000       0.093276
     1389.300000       0.095110
     1389.400000       0.096935
     1389.500000       0.098760
     1389.600000       0.100581
     1389.700000       0.102435
     1389.800000       0.104325
     1389.900000       0.106322
     1390.000000       0.108458
     1390.100000       0.110718
     1390.200000       0.113095
     1390.300000       0.115456
     1390.400000       0.117809
     1390.500000       0.120159
     1390.600000       0.122508
     1390.700000       0.124855
     1390.800000       0.127202
     1390.900000       0.129522
     1391.000000       0.131891
     1391.100000       0.134535
     1391.200000       0.137316
     1391.300000       0.140041
     1391.400000       0.142763
     1391.500000       0.145481
     1391.600000       0.148201
     1391.700000       0.150919
     1391.800000       0.153655
     1391.900000       0.156428
     1392.000000       0.159219
     1392.100000       0.162026
     1392.200000       0.164837
     1392.300000       0.167646
     1392.400000       0.170453
     1392.500000       0.173257
     1392.600000       0.176059
     1392.700000       0.178859
     1392.800000       0.181651
     1392.900000       0.184432
     1393.000000       0.187271
     1393.100000       0.190173
     1393.200000       0.193231
     1393.300000       0.196449
     1393.400000       0.199766
     1393.500000       0.203176
     1393.600000       0.206566
     1393.700000       0.209949
     1393.800000       0.213328
     1393.900000       0.216704
     1394.000000       0.220078
     1394.100000       0.223458
     1394.200000       0.226869
     1394.300000       0.230310
     1394.400000       0.233841
     1394.500000       0.237402
     1394.600000       0.240954
     1394.700000       0.244502
     1394.800000       0.248033
     1394.900000       0.251565
     1395.000000       0.255101
     1395.100000       0.258643
     1395.200000       0.262144
     1395.300000       0.265799
     1395.400000       0.269779
     1395.500000       0.273842
     1395.600000       0.277906
     1395.700000       0.281974
     1395.800000       0.286032
     1395.900000       0.290088
     1396.000000       0.294147
     1396.100000       0.298172
     1396.200000       0.302158
     1396.300000       0.306144
     1396.400000       0.310132
     1396.500000       0.314156
     1396.600000       0.318226
     1396.700000       0.322312
     1396.800000       0.326412
     1396.900000       0.330507
     1397.000000       0.334597
     1397.100000       0.338676
     1397.200000       0.342758
     1397.300000       0.346868
     1397.400000       0.351027
     1397.500000       0.355351
     1397.600000       0.359840
     1397.700000       0.364579
     1397.800000       0.369490
     1397.900000       0.374345
     1398.000000       0.379193
     1398.100000       0.384039
     1398.200000       0.388878
     1398.300000       0.393695
     1398.400000       0.398513
     1398.500000       0.403350
     1398.600000       0.408234
     1398.700000       0.413236
     1398.800000       0.418306
     1398.900000       0.423424
     1399.000000       0.428556
     1399.100000       0.433683
     1399.200000       0.438809
     1399.300000       0.443933
     1399.400000       0.449059
     1399.500000       0.454186
     1399.600000       0.459315
     1399.700000       0.464436
     1399.800000       0.469594
     1399.900000       0.474813
     1400.000000       0.480043
     1400.100000       0.485275
     1400.200000       0.490514
     1400.300000       0.495776
     1400.400000       0.500947
     1400.500000       0.506004
     1400.600000       0.511023
     1400.700000       0.516010
     1400.800000       0.520995
     1400.900000       0.525980
     1401.000000       0.530963
     1401.100000       0.535938
     1401.200000       0.540907
     1401.300000       0.545871
     1401.400000       0.550837
     1401.500000       0.555807
     1401.600000       0.560797
     1401.700000       0.565802
     1401.800000       0.570786
     1401.900000       0.575750
     1402.000000       0.580758
     1402.100000       0.585809
     1402.200000       0.590927
     1402.300000       0.596102
     1402.400000       0.601321
     1402.500000       0.606575
     1402.600000       0.611816
     1402.700000       0.617054
     1402.800000       0.622290
     1402.900000       0.627524
     1403.000000       0.632765
     1403.100000       0.637999
     1403.200000       0.643182
     1403.300000       0.648314
     1403.400000       0.653368
     1403.500000       0.658365
     1403.600000       0.663317
     1403.700000       0.668243
     1403.800000       0.673177
     1403.900000       0.678111
     1404.000000       0.683046
     1404.100000       0.687983
     1404.200000       0.692923
     1404.300000       0.697862
     1404.400000       0.702840
     1404.500000       0.707723
     1404.600000       0.712377
     1404.700000       0.716948
     1404.800000       0.721500
     1404.900000       0.726036
     1405.000000       0.730573
     1405.100000       0.735106
     1405.200000       0.739634
     1405.300000       0.744158
     1405.400000       0.748663
     1405.500000       0.753181
     1405.600000       0.757776
     1405.700000       0.762237
     1405.800000       0.766461
     1405.900000       0.770628
     1406.000000       0.774764
     1406.100000       0.778893
     1406.200000       0.783012
     1406.300000       0.787122
     1406.400000       0.791224
     1406.500000       0.795325
     1406.600000       0.799425
     1406.700000       0.803524
     1406.800000       0.807645
     1406.900000       0.811608
     1407.000000       0.815380
     1407.100000       0.819071
     1407.200000       0.822685
     1407.300000       0.826306
     1407.400000       0.829947
     1407.500000       0.833600
     1407.600000       0.837256
     1407.700000       0.840944
     1407.800000       0.844633
     1407.900000       0.848152
     1408.000000       0.851489
     1408.100000       0.854629
     1408.200000       0.857583
     1408.300000       0.860405
     1408.400000       0.863113
     1408.500000       0.865814
     1408.600000       0.868534
     1408.700000       0.871218
     1408.800000       0.873868
     1408.900000       0.876547
     1409.000000       0.879254
     1409.100000       0.881936
     1409.200000       0.884594
     1409.300000       0.887186
     1409.400000       0.889706
     1409.500000       0.891953
     1409.600000       0.893985
     1409.700000       0.896057
     1409.800000       0.898148
     1409.900000       0.900236
     1410.000000       0.902319
     1410.100000       0.904401
     1410.200000       0.906482
     1410.300000       0.908561
     1410.400000       0.910639
     1410.500000       0.912738
     1410.600000       0.914813
     1410.700000       0.916518
     1410.800000       0.918013
     1410.900000       0.919487
     1411.000000       0.920932
     1411.100000       0.922397
     1411.200000       0.923873
     1411.300000       0.925354
     1411.400000       0.926838
     1411.500000       0.928324
     1411.600000       0.929811
     1411.700000       0.931303
     1411.800000       0.932788
     1411.900000       0.934197
     1412.000000       0.935548
     1412.100000       0.936854
     1412.200000       0.938128
     1412.300000       0.939400
     1412.400000       0.940668
     1412.500000       0.941935
     1412.600000       0.943201
     1412.700000       0.944466
     1412.800000       0.945732
     1412.900000       0.947003
     1413.000000       0.948273
     1413.100000       0.949518
     1413.200000       0.950737
     1413.300000       0.951912
     1413.400000       0.953053
     1413.500000       0.954178
     1413.600000       0.955289
     1413.700000       0.956404
     1413.800000       0.957519
     1413.900000       0.958625
     1414.000000       0.959725
     1414.100000       0.960827
     1414.200000       0.961922
     1414.300000       0.963038
     1414.400000       0.964146
     1414.500000       0.965147
     1414.600000       0.966063
     1414.700000       0.966873
     1414.800000       0.967613
     1414.900000       0.968360
     1415.000000       0.969104
     1415.100000       0.969851
     1415.200000       0.970599
     1415.300000       0.971342
     1415.400000       0.972084
     1415.500000       0.972845
     1415.600000       0.973595
     1415.700000       0.974210
     1415.800000       0.974742
     1415.900000       0.975257
     1416.000000       0.975741
     1416.100000       0.976157
     1416.200000       0.976538
     1416.300000       0.976989
     1416.400000       0.977489
     1416.500000       0.977998
     1416.600000       0.978516
     1416.700000       0.979042
     1416.800000       0.979578
     1416.900000       0.980128
     1417.000000       0.980695
     1417.100000       0.981294
     1417.200000       0.981923
     1417.300000       0.982574
     1417.400000       0.983243
     1417.500000       0.983917
     1417.600000       0.984597
     1417.700000       0.985281
     1417.800000       0.985968
     1417.900000       0.986655
     1418.000000       0.987342
     1418.100000       0.988025
     1418.200000       0.988702
     1418.300000       0.989359
     1418.400000       0.989996
     1418.500000       0.990585
     1418.600000       0.991112
     1418.700000       0.991637
     1418.800000       0.992163
     1418.900000       0.992643
     1419.000000       0.993086
     1419.100000       0.993559
     1419.200000       0.994058
     1419.300000       0.994544
     1419.400000       0.995018
     1419.500000       0.995494
     1419.600000       0.995964
     1419.700000       0.996287
     1419.800000       0.996518
     1419.900000       0.996739
     1420.000000       0.996952
     1420.100000       0.997162
     1420.200000       0.997369
     1420.300000       0.997578
     1420.400000       0.997790
     1420.500000       0.997994
     1420.600000       0.998189
     1420.700000       0.998397
     1420.800000       0.998621
     1420.900000       0.998741
     1421.000000       0.998801
     1421.100000       0.998811
     1421.200000       0.998801
     1421.300000       0.998789
     1421.400000       0.998773
     1421.500000       0.998757
     1421.600000       0.998742
     1421.700000       0.998729
     1421.800000       0.998718
     1421.900000       0.998711
     1422.000000       0.998711
     1422.100000       0.998713
     1422.200000       0.998731
     1422.300000       0.998760
     1422.400000       0.998812
     1422.500000       0.998877
     1422.600000       0.998952
     1422.700000       0.999038
     1422.800000       0.999136
     1422.900000       0.999242
     1423.000000       0.999360
     1423.100000       0.999488
     1423.200000       0.999630
     1423.300000       0.999768
     1423.400000       0.999918
     1423.500000       0.999991
     1423.600000       0.999998
     1423.700000       0.999999
     1423.800000       0.999946
     1423.900000       0.999855
     1424.000000       0.999740
     1424.100000       0.999606
     1424.200000       0.999470
     1424.300000       0.999334
     1424.400000       0.999201
     1424.500000       0.999069
     1424.600000       0.998944
     1424.700000       0.998805
     1424.800000       0.998605
     1424.900000       0.998367
     1425.000000       0.998115
     1425.100000       0.997847
     1425.200000       0.997566
     1425.300000       0.997284
     1425.400000       0.997004
     1425.500000       0.996725
     1425.600000       0.996445
     1425.700000       0.996163
     1425.800000       0.995878
     1425.900000       0.995593
     1426.000000       0.995322
     1426.100000       0.995057
     1426.200000       0.994791
     1426.300000       0.994524
     1426.400000       0.994255
     1426.500000       0.993978
     1426.600000       0.993696
     1426.700000       0.993410
     1426.800000       0.993120
     1426.900000       0.992825
     1427.000000       0.992519
     1427.100000       0.992207
     1427.200000       0.991910
     1427.300000       0.991632
     1427.400000       0.991391
     1427.500000       0.991174
     1427.600000       0.990992
     1427.700000       0.990839
     1427.800000       0.990683
     1427.900000       0.990523
     1428.000000       0.990360
     1428.100000       0.990196
     1428.200000       0.990030
     1428.300000       0.989866
     1428.400000       0.989695
     1428.500000       0.989517
     1428.600000       0.989319
     1428.700000       0.989077
     1428.800000       0.988783
     1428.900000       0.988406
     1429.000000       0.988015
     1429.100000       0.987637
     1429.200000       0.987260
     1429.300000       0.986882
     1429.400000       0.986509
     1429.500000       0.986145
     1429.600000       0.985788
     1429.700000       0.985436
     1429.800000       0.985062
     1429.900000       0.984636
     1430.000000       0.984177
     1430.100000       0.983700
     1430.200000       0.983191
     1430.300000       0.982629
     1430.400000       0.982041
     1430.500000       0.981464
     1430.600000       0.980888
     1430.700000       0.980315
