117,   117, MVIRI VIS channel from srf_MET5_2005303_2005304_1801-Release_S10EL_10.dat
Number of data points:
806
Wavenumber (cm-1)   Filter response
     8350.730700       0.000000
     8357.710000       0.000000
     8364.701000       0.000000
     8371.703600       0.000002
     8378.718100       0.000004
     8385.744200       0.000009
     8392.782200       0.000017
     8399.832000       0.000028
     8406.893700       0.000043
     8413.967200       0.000062
     8421.052600       0.000086
     8428.150000       0.000115
     8435.259400       0.000150
     8442.380800       0.000191
     8449.514200       0.000239
     8456.659600       0.000294
     8463.817200       0.000357
     8470.986900       0.000428
     8478.168700       0.000506
     8485.362700       0.000594
     8492.569000       0.000690
     8499.787500       0.000796
     8507.018300       0.000911
     8514.261400       0.001037
     8521.516800       0.001173
     8528.784600       0.001319
     8536.064900       0.001476
     8543.357500       0.001645
     8550.662700       0.001824
     8557.980300       0.002016
     8565.310500       0.002219
     8572.653200       0.002435
     8580.008600       0.002663
     8587.376600       0.002904
     8594.757200       0.003157
     8602.150500       0.003424
     8609.556600       0.003704
     8616.975400       0.003997
     8624.407100       0.004305
     8631.851500       0.004626
     8639.308900       0.004961
     8646.779100       0.005310
     8654.262200       0.005674
     8661.758300       0.006052
     8669.267400       0.006446
     8676.789600       0.006854
     8684.324800       0.007277
     8691.873100       0.007715
     8699.434500       0.008169
     8707.009100       0.008639
     8714.596900       0.009124
     8722.198000       0.009625
     8729.812300       0.010141
     8737.439900       0.010674
     8745.080900       0.011224
     8752.735200       0.011789
     8760.403000       0.012371
     8768.084200       0.012970
     8775.778900       0.013585
     8783.487000       0.014217
     8791.208800       0.014867
     8798.944100       0.015533
     8806.693100       0.016217
     8814.455700       0.016918
     8822.232000       0.017636
     8830.022100       0.018372
     8837.825900       0.019126
     8845.643500       0.019897
     8853.475000       0.020687
     8861.320300       0.021494
     8869.179600       0.022320
     8877.052800       0.023163
     8884.940000       0.024026
     8892.841300       0.024906
     8900.756600       0.025805
     8908.686000       0.026723
     8916.629500       0.027660
     8924.587200       0.028615
     8932.559200       0.029589
     8940.545400       0.030583
     8948.545900       0.031596
     8956.560700       0.032627
     8964.589900       0.033679
     8972.633500       0.034750
     8980.691500       0.035840
     8988.764000       0.036950
     8996.851100       0.038080
     9004.952700       0.039230
     9013.068900       0.040400
     9021.199800       0.041590
     9029.345400       0.042800
     9037.505600       0.044030
     9045.680700       0.045281
     9053.870500       0.046552
     9062.075200       0.047844
     9070.294800       0.049156
     9078.529300       0.050489
     9086.778700       0.051844
     9095.043200       0.053219
     9103.322700       0.054615
     9111.617300       0.056032
     9119.927000       0.057470
     9128.251900       0.058930
     9136.592100       0.060411
     9144.947400       0.061914
     9153.318100       0.063438
     9161.704100       0.064984
     9170.105500       0.066552
     9178.522300       0.068142
     9186.954500       0.069753
     9195.402300       0.071387
     9203.865600       0.073043
     9212.344500       0.074721
     9220.839100       0.076421
     9229.349300       0.078144
     9237.875300       0.079889
     9246.417000       0.081656
     9254.974500       0.083446
     9263.547900       0.085259
     9272.137200       0.087094
     9280.742500       0.088953
     9289.363700       0.090834
     9298.000900       0.092738
     9306.654300       0.094665
     9315.323700       0.096615
     9324.009300       0.098589
     9332.711200       0.100585
     9341.429200       0.102605
     9350.163600       0.104648
     9358.914400       0.106714
     9367.681500       0.108804
     9376.465100       0.110918
     9385.265100       0.113054
     9394.081700       0.115215
     9402.914900       0.117399
     9411.764700       0.119606
     9420.631200       0.121838
     9429.514400       0.124092
     9438.414300       0.126371
     9447.331100       0.128674
     9456.264800       0.131000
     9465.215300       0.133350
     9474.182900       0.135724
     9483.167400       0.138122
     9492.169000       0.140543
     9501.187600       0.142989
     9510.223500       0.145459
     9519.276500       0.147952
     9528.346800       0.150470
     9537.434400       0.153011
     9546.539400       0.155576
     9555.661700       0.158165
     9564.801500       0.160778
     9573.958800       0.163415
     9583.133700       0.166076
     9592.326100       0.168761
     9601.536200       0.171469
     9610.764100       0.174201
     9620.009600       0.176957
     9629.273000       0.179737
     9638.554200       0.182541
     9647.853400       0.185368
     9657.170400       0.188219
     9666.505600       0.191093
     9675.858700       0.193991
     9685.230000       0.196912
     9694.619500       0.199857
     9704.027200       0.202825
     9713.453100       0.205817
     9722.897400       0.208832
     9732.360100       0.211869
     9741.841200       0.214930
     9751.340800       0.218014
     9760.859000       0.221121
     9770.395700       0.224250
     9779.951100       0.227402
     9789.525200       0.230577
     9799.118100       0.233774
     9808.729800       0.236994
     9818.360300       0.240236
     9828.009800       0.243500
     9837.678300       0.246786
     9847.365800       0.250094
     9857.072400       0.253424
     9866.798200       0.256776
     9876.543200       0.260148
     9886.307500       0.263543
     9896.091000       0.266959
     9905.894000       0.270395
     9915.716400       0.273853
     9925.558300       0.277331
     9935.419800       0.280830
     9945.300800       0.284349
     9955.201600       0.287889
     9965.122100       0.291449
     9975.062300       0.295028
     9985.022500       0.298628
     9995.002500       0.302247
    10005.002500       0.305885
    10015.022500       0.309542
    10025.062700       0.313218
    10035.122900       0.316913
    10045.203400       0.320627
    10055.304200       0.324359
    10065.425300       0.328109
    10075.566800       0.331877
    10085.728700       0.335662
    10095.911200       0.339465
    10106.114200       0.343285
    10116.337900       0.347122
    10126.582300       0.350975
    10136.847400       0.354845
    10147.133400       0.358732
    10157.440300       0.362634
    10167.768200       0.366552
    10178.117000       0.370485
    10188.487000       0.374433
    10198.878100       0.378397
    10209.290500       0.382375
    10219.724100       0.386367
    10230.179000       0.390373
    10240.655400       0.394393
    10251.153300       0.398427
    10261.672700       0.402473
    10272.213700       0.406532
    10282.776300       0.410604
    10293.360800       0.414689
    10303.967000       0.418785
    10314.595200       0.422893
    10325.245200       0.427012
    10335.917300       0.431142
    10346.611500       0.435283
    10357.327800       0.439434
    10368.066400       0.443595
    10378.827200       0.447766
    10389.610400       0.451946
    10400.416000       0.456135
    10411.244100       0.460333
    10422.094800       0.464539
    10432.968200       0.468754
    10443.864200       0.472976
    10454.783100       0.477205
    10465.724800       0.481441
    10476.689400       0.485683
    10487.677000       0.489932
    10498.687700       0.494187
    10509.721500       0.498447
    10520.778500       0.502712
    10531.858900       0.506982
    10542.962600       0.511256
    10554.089700       0.515534
    10565.240400       0.519816
    10576.414600       0.524101
    10587.612500       0.528389
    10598.834100       0.532680
    10610.079600       0.536972
    10621.348900       0.541266
    10632.642200       0.545561
    10643.959600       0.549858
    10655.301000       0.554155
    10666.666700       0.558451
    10678.056600       0.562748
    10689.470900       0.567044
    10700.909600       0.571339
    10712.372800       0.575632
    10723.860600       0.579924
    10735.373100       0.584213
    10746.910300       0.588499
    10758.472300       0.592783
    10770.059200       0.597062
    10781.671200       0.601338
    10793.308100       0.605610
    10804.970300       0.609877
    10816.657700       0.614139
    10828.370300       0.618395
    10840.108400       0.622645
    10851.871900       0.626889
    10863.661100       0.631126
    10875.475800       0.635356
    10887.316300       0.639578
    10899.182600       0.643793
    10911.074700       0.647999
    10922.992900       0.652196
    10934.937100       0.656384
    10946.907500       0.660562
    10958.904100       0.664730
    10970.927000       0.668888
    10982.976400       0.673034
    10995.052200       0.677170
    11007.154700       0.681293
    11019.283700       0.685405
    11031.439600       0.689504
    11043.622300       0.693591
    11055.832000       0.697664
    11068.068600       0.701723
    11080.332400       0.705768
    11092.623400       0.709799
    11104.941700       0.713814
    11117.287400       0.717814
    11129.660500       0.721799
    11142.061300       0.725768
    11154.489700       0.729720
    11166.945800       0.733655
    11179.429800       0.737573
    11191.941800       0.741473
    11204.481800       0.745355
    11217.049900       0.749219
    11229.646300       0.753063
    11242.270900       0.756889
    11254.924000       0.760695
    11267.605600       0.764481
    11280.315800       0.768247
    11293.054800       0.771992
    11305.822500       0.775716
    11318.619100       0.779419
    11331.444800       0.783100
    11344.299500       0.786758
    11357.183400       0.790395
    11370.096600       0.794008
    11383.039300       0.797598
    11396.011400       0.801165
    11409.013100       0.804707
    11422.044500       0.808226
    11435.105800       0.811720
    11448.196900       0.815189
    11461.318100       0.818633
    11474.469300       0.822051
    11487.650800       0.825443
    11500.862600       0.828810
    11514.104800       0.832149
    11527.377500       0.835462
    11540.680900       0.838748
    11554.015000       0.842006
    11567.380000       0.845237
    11580.775900       0.848440
    11594.202900       0.851614
    11607.661100       0.854759
    11621.150500       0.857876
    11634.671300       0.860964
    11648.223600       0.864022
    11661.807600       0.867051
    11675.423200       0.870049
    11689.070700       0.873018
    11702.750100       0.875956
    11716.461600       0.878863
    11730.205300       0.881739
    11743.981200       0.884584
    11757.789500       0.887397
    11771.630400       0.890179
    11785.503800       0.892929
    11799.410000       0.895647
    11813.349100       0.898333
    11827.321100       0.900986
    11841.326200       0.903606
    11855.364600       0.906193
    11869.436200       0.908747
    11883.541300       0.911268
    11897.680000       0.913755
    11911.852300       0.916209
    11926.058400       0.918629
    11940.298500       0.921014
    11954.572600       0.923366
    11968.880900       0.925683
    11983.223500       0.927966
    11997.600500       0.930214
    12012.012000       0.932427
    12026.458200       0.934605
    12040.939200       0.936749
    12055.455100       0.938857
    12070.006000       0.940930
    12084.592100       0.942967
    12099.213600       0.944969
    12113.870400       0.946935
    12128.562800       0.948866
    12143.290800       0.950761
    12158.054700       0.952620
    12172.854500       0.954443
    12187.690400       0.956230
    12202.562500       0.957981
    12217.471000       0.959697
    12232.415900       0.961375
    12247.397400       0.963018
    12262.415700       0.964624
    12277.470800       0.966195
    12292.563000       0.967728
    12307.692300       0.969226
    12322.858900       0.970687
    12338.062900       0.972112
    12353.304500       0.973501
    12368.583800       0.974853
    12383.900900       0.976169
    12399.256000       0.977448
    12414.649300       0.978692
    12430.080800       0.979899
    12445.550700       0.981069
    12461.059200       0.982204
    12476.606400       0.983303
    12492.192400       0.984365
    12507.817400       0.985392
    12523.481500       0.986382
    12539.185000       0.987337
    12554.927800       0.988256
    12570.710200       0.989139
    12586.532400       0.989987
    12602.394500       0.990799
    12618.296500       0.991576
    12634.238800       0.992317
    12650.221400       0.993024
    12666.244500       0.993695
    12682.308200       0.994331
    12698.412700       0.994933
    12714.558200       0.995500
    12730.744700       0.996032
    12746.972600       0.996530
    12763.241900       0.996994
    12779.552700       0.997424
    12795.905300       0.997820
    12812.299800       0.998182
    12828.736400       0.998511
    12845.215200       0.998806
    12861.736300       0.999069
    12878.300100       0.999298
    12894.906500       0.999495
    12911.555800       0.999659
    12928.248200       0.999791
    12944.983800       0.999891
    12961.762800       0.999959
    12978.585300       0.999995
    12995.451600       1.000000
    13012.361700       0.999974
    13029.316000       0.999917
    13046.314400       0.999829
    13063.357300       0.999711
    13080.444700       0.999563
    13097.576900       0.999384
    13114.754100       0.999177
    13131.976400       0.998940
    13149.243900       0.998674
    13166.556900       0.998379
    13183.915600       0.998056
    13201.320100       0.997704
    13218.770700       0.997325
    13236.267400       0.996918
    13253.810500       0.996484
    13271.400100       0.996023
    13289.036500       0.995535
    13306.719900       0.995021
    13324.450400       0.994482
    13342.228200       0.993916
    13360.053400       0.993325
    13377.926400       0.992709
    13395.847300       0.992069
    13413.816200       0.991404
    13431.833400       0.990716
    13449.899100       0.990003
    13468.013500       0.989268
    13486.176700       0.988510
    13504.388900       0.987729
    13522.650400       0.986926
    13540.961400       0.986101
    13559.322000       0.985255
    13577.732500       0.984388
    13596.193100       0.983500
    13614.703900       0.982592
    13633.265200       0.981664
    13651.877100       0.980717
    13670.540000       0.979750
    13689.253900       0.978765
    13708.019200       0.977762
    13726.836000       0.976740
    13745.704500       0.975701
    13764.624900       0.974645
    13783.597500       0.973573
    13802.622500       0.972484
    13821.700100       0.971379
    13840.830400       0.970258
    13860.013900       0.969123
    13879.250500       0.967972
    13898.540700       0.966808
    13917.884500       0.965630
    13937.282200       0.964438
    13956.734100       0.963233
    13976.240400       0.962016
    13995.801300       0.960786
    14015.417000       0.959545
    14035.087700       0.958292
    14054.813800       0.957028
    14074.595400       0.955754
    14094.432700       0.954470
    14114.326000       0.953176
    14134.275600       0.951873
    14154.281700       0.950561
    14174.344400       0.949241
    14194.464200       0.947912
    14214.641100       0.946576
    14234.875400       0.945233
    14255.167500       0.943883
    14275.517500       0.942527
    14295.925700       0.941165
    14316.392300       0.939797
    14336.917600       0.938425
    14357.501800       0.937048
    14378.145200       0.935666
    14398.848100       0.934281
    14419.610700       0.932892
    14440.433200       0.931500
    14461.316000       0.930106
    14482.259200       0.928709
    14503.263200       0.927311
    14524.328200       0.925911
    14545.454500       0.924510
    14566.642400       0.923109
    14587.892000       0.921707
    14609.203800       0.920306
    14630.577900       0.918905
    14652.014700       0.917505
    14673.514300       0.916107
    14695.077100       0.914710
    14716.703500       0.913315
    14738.393500       0.911923
    14760.147600       0.910533
    14781.966000       0.909147
    14803.849000       0.907764
    14825.796900       0.906385
    14847.809900       0.905011
    14869.888500       0.903641
    14892.032800       0.902276
    14914.243100       0.900916
    14936.519800       0.899562
    14958.863100       0.898214
    14981.273400       0.896873
    15003.750900       0.895537
    15026.296000       0.894209
    15048.909000       0.892888
    15071.590100       0.891575
    15094.339600       0.890270
    15117.158000       0.888972
    15140.045400       0.887684
    15163.002300       0.886404
    15186.028900       0.885133
    15209.125500       0.883871
    15232.292500       0.882619
    15255.530100       0.881377
    15278.838800       0.880145
    15302.218800       0.878923
    15325.670500       0.877712
    15349.194200       0.876512
    15372.790200       0.875323
    15396.458800       0.874146
    15420.200500       0.872979
    15444.015400       0.871825
    15467.904100       0.870683
    15491.866800       0.869552
    15515.903800       0.868434
    15540.015500       0.867329
    15564.202300       0.866236
    15588.464500       0.865157
    15612.802500       0.864090
    15637.216600       0.863037
    15661.707100       0.861997
    15686.274500       0.860970
    15710.919100       0.859958
    15735.641200       0.858958
    15760.441300       0.857973
    15785.319700       0.857002
    15810.276700       0.856045
    15835.312700       0.855103
    15860.428200       0.854174
    15885.623500       0.853260
    15910.899000       0.852360
    15936.255000       0.851475
    15961.691900       0.850605
    15987.210200       0.849749
    16012.810200       0.848908
    16038.492400       0.848081
    16064.257000       0.847269
    16090.104600       0.846472
    16116.035500       0.845689
    16142.050000       0.844921
    16168.148700       0.844168
    16194.332000       0.843430
    16220.600200       0.842706
    16246.953700       0.841997
    16273.393000       0.841302
    16299.918500       0.840621
    16326.530600       0.839955
    16353.229800       0.839304
    16380.016400       0.838666
    16406.890900       0.838043
    16433.853700       0.837433
    16460.905300       0.836838
    16488.046200       0.836256
    16515.276600       0.835688
    16542.597200       0.835133
    16570.008300       0.834591
    16597.510400       0.834063
    16625.103900       0.833547
    16652.789300       0.833045
    16680.567100       0.832554
    16708.437800       0.832076
    16736.401700       0.831611
    16764.459300       0.831157
    16792.611300       0.830714
    16820.857900       0.830283
    16849.199700       0.829864
    16877.637100       0.829455
    16906.170800       0.829056
    16934.801000       0.828668
    16963.528400       0.828290
    16992.353400       0.827922
    17021.276600       0.827563
    17050.298400       0.827213
    17079.419300       0.826871
    17108.639900       0.826538
    17137.960600       0.826213
    17167.382000       0.825896
    17196.904600       0.825586
    17226.528900       0.825282
    17256.255400       0.824986
    17286.084700       0.824695
