70,   70, MVIRI VIS channel from srf_MET2_1990303_1990304_1801-Release_S10EL_10.dat
Number of data points:
730
Wavenumber (cm-1)   Filter response
     8916.629500       0.000000
     8924.587200       0.000000
     8932.559200       0.000002
     8940.545400       0.000012
     8948.545900       0.000033
     8956.560700       0.000070
     8964.589900       0.000128
     8972.633500       0.000211
     8980.691500       0.000323
     8988.764000       0.000468
     8996.851100       0.000649
     9004.952700       0.000870
     9013.068900       0.001135
     9021.199800       0.001447
     9029.345400       0.001808
     9037.505600       0.002222
     9045.680700       0.002692
     9053.870500       0.003220
     9062.075200       0.003808
     9070.294800       0.004460
     9078.529300       0.005177
     9086.778700       0.005962
     9095.043200       0.006816
     9103.322700       0.007741
     9111.617300       0.008740
     9119.927000       0.009813
     9128.251900       0.010962
     9136.592100       0.012190
     9144.947400       0.013496
     9153.318100       0.014883
     9161.704100       0.016350
     9170.105500       0.017901
     9178.522300       0.019534
     9186.954500       0.021252
     9195.402300       0.023054
     9203.865600       0.024942
     9212.344500       0.026916
     9220.839100       0.028977
     9229.349300       0.031124
     9237.875300       0.033359
     9246.417000       0.035680
     9254.974500       0.038090
     9263.547900       0.040587
     9272.137200       0.043172
     9280.742500       0.045845
     9289.363700       0.048604
     9298.000900       0.051452
     9306.654300       0.054386
     9315.323700       0.057407
     9324.009300       0.060514
     9332.711200       0.063708
     9341.429200       0.066987
     9350.163600       0.070351
     9358.914400       0.073799
     9367.681500       0.077331
     9376.465100       0.080946
     9385.265100       0.084643
     9394.081700       0.088423
     9402.914900       0.092282
     9411.764700       0.096222
     9420.631200       0.100241
     9429.514400       0.104338
     9438.414300       0.108513
     9447.331100       0.112763
     9456.264800       0.117088
     9465.215300       0.121488
     9474.182900       0.125961
     9483.167400       0.130506
     9492.169000       0.135121
     9501.187600       0.139806
     9510.223500       0.144560
     9519.276500       0.149380
     9528.346800       0.154267
     9537.434400       0.159219
     9546.539400       0.164233
     9555.661700       0.169311
     9564.801500       0.174448
     9573.958800       0.179646
     9583.133700       0.184901
     9592.326100       0.190213
     9601.536200       0.195581
     9610.764100       0.201003
     9620.009600       0.206477
     9629.273000       0.212003
     9638.554200       0.217578
     9647.853400       0.223203
     9657.170400       0.228873
     9666.505600       0.234590
     9675.858700       0.240351
     9685.230000       0.246154
     9694.619500       0.251999
     9704.027200       0.257882
     9713.453100       0.263805
     9722.897400       0.269765
     9732.360100       0.275760
     9741.841200       0.281789
     9751.340800       0.287850
     9760.859000       0.293943
     9770.395700       0.300065
     9779.951100       0.306215
     9789.525200       0.312392
     9799.118100       0.318595
     9808.729800       0.324820
     9818.360300       0.331069
     9828.009800       0.337338
     9837.678300       0.343628
     9847.365800       0.349935
     9857.072400       0.356259
     9866.798200       0.362599
     9876.543200       0.368951
     9886.307500       0.375318
     9896.091000       0.381695
     9905.894000       0.388082
     9915.716400       0.394478
     9925.558300       0.400880
     9935.419800       0.407289
     9945.300800       0.413702
     9955.201600       0.420118
     9965.122100       0.426537
     9975.062300       0.432955
     9985.022500       0.439374
     9995.002500       0.445790
    10005.002500       0.452203
    10015.022500       0.458612
    10025.062700       0.465015
    10035.122900       0.471412
    10045.203400       0.477800
    10055.304200       0.484180
    10065.425300       0.490549
    10075.566800       0.496906
    10085.728700       0.503251
    10095.911200       0.509583
    10106.114200       0.515900
    10116.337900       0.522200
    10126.582300       0.528484
    10136.847400       0.534749
    10147.133400       0.540996
    10157.440300       0.547223
    10167.768200       0.553428
    10178.117000       0.559611
    10188.487000       0.565772
    10198.878100       0.571909
    10209.290500       0.578020
    10219.724100       0.584106
    10230.179000       0.590164
    10240.655400       0.596196
    10251.153300       0.602199
    10261.672700       0.608172
    10272.213700       0.614115
    10282.776300       0.620027
    10293.360800       0.625908
    10303.967000       0.631755
    10314.595200       0.637569
    10325.245200       0.643349
    10335.917300       0.649095
    10346.611500       0.654805
    10357.327800       0.660478
    10368.066400       0.666114
    10378.827200       0.671713
    10389.610400       0.677273
    10400.416000       0.682795
    10411.244100       0.688277
    10422.094800       0.693718
    10432.968200       0.699119
    10443.864200       0.704479
    10454.783100       0.709797
    10465.724800       0.715072
    10476.689400       0.720304
    10487.677000       0.725494
    10498.687700       0.730639
    10509.721500       0.735739
    10520.778500       0.740795
    10531.858900       0.745805
    10542.962600       0.750770
    10554.089700       0.755689
    10565.240400       0.760561
    10576.414600       0.765386
    10587.612500       0.770164
    10598.834100       0.774895
    10610.079600       0.779577
    10621.348900       0.784211
    10632.642200       0.788797
    10643.959600       0.793334
    10655.301000       0.797822
    10666.666700       0.802260
    10678.056600       0.806649
    10689.470900       0.810987
    10700.909600       0.815276
    10712.372800       0.819515
    10723.860600       0.823703
    10735.373100       0.827840
    10746.910300       0.831927
    10758.472300       0.835962
    10770.059200       0.839947
    10781.671200       0.843880
    10793.308100       0.847762
    10804.970300       0.851592
    10816.657700       0.855371
    10828.370300       0.859098
    10840.108400       0.862774
    10851.871900       0.866398
    10863.661100       0.869970
    10875.475800       0.873490
    10887.316300       0.876959
    10899.182600       0.880376
    10911.074700       0.883741
    10922.992900       0.887054
    10934.937100       0.890315
    10946.907500       0.893525
    10958.904100       0.896682
    10970.927000       0.899789
    10982.976400       0.902843
    10995.052200       0.905846
    11007.154700       0.908798
    11019.283700       0.911698
    11031.439600       0.914548
    11043.622300       0.917346
    11055.832000       0.920092
    11068.068600       0.922788
    11080.332400       0.925434
    11092.623400       0.928029
    11104.941700       0.930573
    11117.287400       0.933067
    11129.660500       0.935511
    11142.061300       0.937905
    11154.489700       0.940249
    11166.945800       0.942543
    11179.429800       0.944788
    11191.941800       0.946984
    11204.481800       0.949131
    11217.049900       0.951229
    11229.646300       0.953279
    11242.270900       0.955280
    11254.924000       0.957234
    11267.605600       0.959139
    11280.315800       0.960997
    11293.054800       0.962807
    11305.822500       0.964570
    11318.619100       0.966287
    11331.444800       0.967957
    11344.299500       0.969580
    11357.183400       0.971158
    11370.096600       0.972689
    11383.039300       0.974175
    11396.011400       0.975616
    11409.013100       0.977012
    11422.044500       0.978364
    11435.105800       0.979671
    11448.196900       0.980934
    11461.318100       0.982153
    11474.469300       0.983329
    11487.650800       0.984462
    11500.862600       0.985552
    11514.104800       0.986599
    11527.377500       0.987604
    11540.680900       0.988568
    11554.015000       0.989489
    11567.380000       0.990370
    11580.775900       0.991209
    11594.202900       0.992009
    11607.661100       0.992767
    11621.150500       0.993486
    11634.671300       0.994165
    11648.223600       0.994805
    11661.807600       0.995406
    11675.423200       0.995969
    11689.070700       0.996493
    11702.750100       0.996979
    11716.461600       0.997428
    11730.205300       0.997839
    11743.981200       0.998214
    11757.789500       0.998551
    11771.630400       0.998853
    11785.503800       0.999119
    11799.410000       0.999349
    11813.349100       0.999543
    11827.321100       0.999703
    11841.326200       0.999828
    11855.364600       0.999919
    11869.436200       0.999977
    11883.541300       1.000000
    11897.680000       0.999990
    11911.852300       0.999948
    11926.058400       0.999872
    11940.298500       0.999765
    11954.572600       0.999625
    11968.880900       0.999454
    11983.223500       0.999252
    11997.600500       0.999018
    12012.012000       0.998754
    12026.458200       0.998460
    12040.939200       0.998136
    12055.455100       0.997782
    12070.006000       0.997398
    12084.592100       0.996986
    12099.213600       0.996545
    12113.870400       0.996075
    12128.562800       0.995577
    12143.290800       0.995052
    12158.054700       0.994499
    12172.854500       0.993918
    12187.690400       0.993311
    12202.562500       0.992677
    12217.471000       0.992017
    12232.415900       0.991331
    12247.397400       0.990619
    12262.415700       0.989882
    12277.470800       0.989119
    12292.563000       0.988332
    12307.692300       0.987520
    12322.858900       0.986684
    12338.062900       0.985823
    12353.304500       0.984939
    12368.583800       0.984031
    12383.900900       0.983101
    12399.256000       0.982147
    12414.649300       0.981170
    12430.080800       0.980171
    12445.550700       0.979150
    12461.059200       0.978106
    12476.606400       0.977041
    12492.192400       0.975955
    12507.817400       0.974847
    12523.481500       0.973719
    12539.185000       0.972569
    12554.927800       0.971399
    12570.710200       0.970209
    12586.532400       0.968999
    12602.394500       0.967769
    12618.296500       0.966519
    12634.238800       0.965250
    12650.221400       0.963962
    12666.244500       0.962655
    12682.308200       0.961329
    12698.412700       0.959984
    12714.558200       0.958621
    12730.744700       0.957240
    12746.972600       0.955842
    12763.241900       0.954425
    12779.552700       0.952991
    12795.905300       0.951539
    12812.299800       0.950071
    12828.736400       0.948585
    12845.215200       0.947082
    12861.736300       0.945563
    12878.300100       0.944028
    12894.906500       0.942476
    12911.555800       0.940908
    12928.248200       0.939324
    12944.983800       0.937724
    12961.762800       0.936109
    12978.585300       0.934478
    12995.451600       0.932832
    13012.361700       0.931170
    13029.316000       0.929494
    13046.314400       0.927803
    13063.357300       0.926097
    13080.444700       0.924377
    13097.576900       0.922642
    13114.754100       0.920892
    13131.976400       0.919129
    13149.243900       0.917352
    13166.556900       0.915560
    13183.915600       0.913755
    13201.320100       0.911936
    13218.770700       0.910104
    13236.267400       0.908259
    13253.810500       0.906400
    13271.400100       0.904527
    13289.036500       0.902642
    13306.719900       0.900744
    13324.450400       0.898833
    13342.228200       0.896909
    13360.053400       0.894973
    13377.926400       0.893024
    13395.847300       0.891063
    13413.816200       0.889090
    13431.833400       0.887104
    13449.899100       0.885106
    13468.013500       0.883096
    13486.176700       0.881074
    13504.388900       0.879040
    13522.650400       0.876995
    13540.961400       0.874938
    13559.322000       0.872869
    13577.732500       0.870789
    13596.193100       0.868698
    13614.703900       0.866595
    13633.265200       0.864481
    13651.877100       0.862356
    13670.540000       0.860219
    13689.253900       0.858072
    13708.019200       0.855914
    13726.836000       0.853745
    13745.704500       0.851565
    13764.624900       0.849375
    13783.597500       0.847174
    13802.622500       0.844962
    13821.700100       0.842740
    13840.830400       0.840508
    13860.013900       0.838265
    13879.250500       0.836012
    13898.540700       0.833749
    13917.884500       0.831476
    13937.282200       0.829192
    13956.734100       0.826899
    13976.240400       0.824596
    13995.801300       0.822283
    14015.417000       0.819960
    14035.087700       0.817628
    14054.813800       0.815286
    14074.595400       0.812934
    14094.432700       0.810573
    14114.326000       0.808203
    14134.275600       0.805823
    14154.281700       0.803434
    14174.344400       0.801035
    14194.464200       0.798628
    14214.641100       0.796211
    14234.875400       0.793786
    14255.167500       0.791351
    14275.517500       0.788908
    14295.925700       0.786456
    14316.392300       0.783995
    14336.917600       0.781525
    14357.501800       0.779047
    14378.145200       0.776560
    14398.848100       0.774065
    14419.610700       0.771561
    14440.433200       0.769049
    14461.316000       0.766529
    14482.259200       0.764001
    14503.263200       0.761464
    14524.328200       0.758920
    14545.454500       0.756367
    14566.642400       0.753807
    14587.892000       0.751239
    14609.203800       0.748663
    14630.577900       0.746080
    14652.014700       0.743489
    14673.514300       0.740891
    14695.077100       0.738285
    14716.703500       0.735672
    14738.393500       0.733052
    14760.147600       0.730424
    14781.966000       0.727790
    14803.849000       0.725148
    14825.796900       0.722500
    14847.809900       0.719845
    14869.888500       0.717183
    14892.032800       0.714515
    14914.243100       0.711840
    14936.519800       0.709158
    14958.863100       0.706471
    14981.273400       0.703777
    15003.750900       0.701077
    15026.296000       0.698371
    15048.909000       0.695659
    15071.590100       0.692941
    15094.339600       0.690218
    15117.158000       0.687489
    15140.045400       0.684754
    15163.002300       0.682014
    15186.028900       0.679269
    15209.125500       0.676519
    15232.292500       0.673763
    15255.530100       0.671002
    15278.838800       0.668237
    15302.218800       0.665467
    15325.670500       0.662692
    15349.194200       0.659913
    15372.790200       0.657129
    15396.458800       0.654341
    15420.200500       0.651549
    15444.015400       0.648753
    15467.904100       0.645953
    15491.866800       0.643149
    15515.903800       0.640342
    15540.015500       0.637531
    15564.202300       0.634717
    15588.464500       0.631899
    15612.802500       0.629078
    15637.216600       0.626254
    15661.707100       0.623428
    15686.274500       0.620598
    15710.919100       0.617766
    15735.641200       0.614932
    15760.441300       0.612095
    15785.319700       0.609256
    15810.276700       0.606414
    15835.312700       0.603571
    15860.428200       0.600726
    15885.623500       0.597880
    15910.899000       0.595032
    15936.255000       0.592182
    15961.691900       0.589332
    15987.210200       0.586480
    16012.810200       0.583627
    16038.492400       0.580774
    16064.257000       0.577920
    16090.104600       0.575065
    16116.035500       0.572210
    16142.050000       0.569355
    16168.148700       0.566500
    16194.332000       0.563645
    16220.600200       0.560790
    16246.953700       0.557935
    16273.393000       0.555081
    16299.918500       0.552228
    16326.530600       0.549376
    16353.229800       0.546524
    16380.016400       0.543674
    16406.890900       0.540825
    16433.853700       0.537977
    16460.905300       0.535131
    16488.046200       0.532287
    16515.276600       0.529445
    16542.597200       0.526604
    16570.008300       0.523766
    16597.510400       0.520931
    16625.103900       0.518097
    16652.789300       0.515267
    16680.567100       0.512439
    16708.437800       0.509614
    16736.401700       0.506792
    16764.459300       0.503973
    16792.611300       0.501158
    16820.857900       0.498346
    16849.199700       0.495538
    16877.637100       0.492734
    16906.170800       0.489933
    16934.801000       0.487137
    16963.528400       0.484345
    16992.353400       0.481557
    17021.276600       0.478774
    17050.298400       0.475996
    17079.419300       0.473222
    17108.639900       0.470453
    17137.960600       0.467689
    17167.382000       0.464931
    17196.904600       0.462177
    17226.528900       0.459429
    17256.255400       0.456687
    17286.084700       0.453950
    17316.017300       0.451220
    17346.053800       0.448495
    17376.194600       0.445776
    17406.440400       0.443063
    17436.791600       0.440357
    17467.248900       0.437657
    17497.812800       0.434963
    17528.483800       0.432276
    17559.262500       0.429596
    17590.149500       0.426923
    17621.145400       0.424257
    17652.250700       0.421597
    17683.466000       0.418945
    17714.791900       0.416300
    17746.228900       0.413662
    17777.777800       0.411032
    17809.439000       0.408409
    17841.213200       0.405794
    17873.101000       0.403186
    17905.103000       0.400587
    17937.219700       0.397995
    17969.451900       0.395411
    18001.800200       0.392834
    18034.265100       0.390266
    18066.847300       0.387706
    18099.547500       0.385154
    18132.366300       0.382611
    18165.304300       0.380075
    18198.362100       0.377548
    18231.540600       0.375029
    18264.840200       0.372519
    18298.261700       0.370017
    18331.805700       0.367524
    18365.472900       0.365039
    18399.264000       0.362562
    18433.179700       0.360094
    18467.220700       0.357635
    18501.387600       0.355184
    18535.681200       0.352742
    18570.102100       0.350309
    18604.651200       0.347884
    18639.329000       0.345468
    18674.136300       0.343061
    18709.073900       0.340662
    18744.142500       0.338271
    18779.342700       0.335890
    18814.675400       0.333517
    18850.141400       0.331152
    18885.741300       0.328796
    18921.475900       0.326449
    18957.346000       0.324110
    18993.352300       0.321780
    19029.495700       0.319458
    19065.776900       0.317144
    19102.196800       0.314839
    19138.756000       0.312542
    19175.455400       0.310253
    19212.295900       0.307972
    19249.278200       0.305700
    19286.403100       0.303435
    19323.671500       0.301178
    19361.084200       0.298930
    19398.642100       0.296689
    19436.346000       0.294456
    19474.196700       0.292230
    19512.195100       0.290012
    19550.342100       0.287801
    19588.638600       0.285598
    19627.085400       0.283402
    19665.683400       0.281213
    19704.433500       0.279031
    19743.336600       0.276856
    19782.393700       0.274688
    19821.605600       0.272526
    19860.973200       0.270371
    19900.497500       0.268223
