37,   37, MVIRI VIS channel from srf_MET4_1994033_1994034_1801-Release_S10EL_10.dat
Number of data points:
752
Wavenumber (cm-1)   Filter response
     8745.080900       0.000000
     8752.735200       0.000000
     8760.403000       0.000001
     8768.084200       0.000060
     8775.778900       0.000202
     8783.487000       0.000426
     8791.208800       0.000729
     8798.944100       0.001109
     8806.693100       0.001562
     8814.455700       0.002088
     8822.232000       0.002684
     8830.022100       0.003348
     8837.825900       0.004077
     8845.643500       0.004870
     8853.475000       0.005725
     8861.320300       0.006640
     8869.179600       0.007613
     8877.052800       0.008642
     8884.940000       0.009726
     8892.841300       0.010863
     8900.756600       0.012051
     8908.686000       0.013290
     8916.629500       0.014576
     8924.587200       0.015910
     8932.559200       0.017289
     8940.545400       0.018712
     8948.545900       0.020178
     8956.560700       0.021686
     8964.589900       0.023235
     8972.633500       0.024822
     8980.691500       0.026448
     8988.764000       0.028111
     8996.851100       0.029809
     9004.952700       0.031543
     9013.068900       0.033311
     9021.199800       0.035111
     9029.345400       0.036945
     9037.505600       0.038809
     9045.680700       0.040704
     9053.870500       0.042628
     9062.075200       0.044582
     9070.294800       0.046564
     9078.529300       0.048573
     9086.778700       0.050609
     9095.043200       0.052672
     9103.322700       0.054760
     9111.617300       0.056873
     9119.927000       0.059010
     9128.251900       0.061172
     9136.592100       0.063357
     9144.947400       0.065565
     9153.318100       0.067795
     9161.704100       0.070048
     9170.105500       0.072322
     9178.522300       0.074617
     9186.954500       0.076934
     9195.402300       0.079270
     9203.865600       0.081627
     9212.344500       0.084004
     9220.839100       0.086401
     9229.349300       0.088817
     9237.875300       0.091252
     9246.417000       0.093706
     9254.974500       0.096178
     9263.547900       0.098669
     9272.137200       0.101178
     9280.742500       0.103705
     9289.363700       0.106250
     9298.000900       0.108812
     9306.654300       0.111392
     9315.323700       0.113990
     9324.009300       0.116604
     9332.711200       0.119236
     9341.429200       0.121885
     9350.163600       0.124551
     9358.914400       0.127234
     9367.681500       0.129934
     9376.465100       0.132650
     9385.265100       0.135383
     9394.081700       0.138133
     9402.914900       0.140899
     9411.764700       0.143682
     9420.631200       0.146482
     9429.514400       0.149298
     9438.414300       0.152130
     9447.331100       0.154979
     9456.264800       0.157844
     9465.215300       0.160726
     9474.182900       0.163625
     9483.167400       0.166540
     9492.169000       0.169471
     9501.187600       0.172419
     9510.223500       0.175383
     9519.276500       0.178364
     9528.346800       0.181361
     9537.434400       0.184375
     9546.539400       0.187405
     9555.661700       0.190453
     9564.801500       0.193516
     9573.958800       0.196597
     9583.133700       0.199694
     9592.326100       0.202807
     9601.536200       0.205937
     9610.764100       0.209084
     9620.009600       0.212248
     9629.273000       0.215429
     9638.554200       0.218626
     9647.853400       0.221840
     9657.170400       0.225071
     9666.505600       0.228319
     9675.858700       0.231584
     9685.230000       0.234865
     9694.619500       0.238163
     9704.027200       0.241478
     9713.453100       0.244810
     9722.897400       0.248159
     9732.360100       0.251525
     9741.841200       0.254908
     9751.340800       0.258307
     9760.859000       0.261723
     9770.395700       0.265157
     9779.951100       0.268606
     9789.525200       0.272073
     9799.118100       0.275556
     9808.729800       0.279056
     9818.360300       0.282573
     9828.009800       0.286106
     9837.678300       0.289656
     9847.365800       0.293223
     9857.072400       0.296805
     9866.798200       0.300405
     9876.543200       0.304020
     9886.307500       0.307652
     9896.091000       0.311301
     9905.894000       0.314965
     9915.716400       0.318645
     9925.558300       0.322341
     9935.419800       0.326053
     9945.300800       0.329781
     9955.201600       0.333524
     9965.122100       0.337283
     9975.062300       0.341057
     9985.022500       0.344847
     9995.002500       0.348652
    10005.002500       0.352472
    10015.022500       0.356307
    10025.062700       0.360156
    10035.122900       0.364020
    10045.203400       0.367899
    10055.304200       0.371792
    10065.425300       0.375699
    10075.566800       0.379619
    10085.728700       0.383554
    10095.911200       0.387502
    10106.114200       0.391464
    10116.337900       0.395439
    10126.582300       0.399427
    10136.847400       0.403427
    10147.133400       0.407441
    10157.440300       0.411466
    10167.768200       0.415504
    10178.117000       0.419553
    10188.487000       0.423615
    10198.878100       0.427688
    10209.290500       0.431772
    10219.724100       0.435867
    10230.179000       0.439972
    10240.655400       0.444089
    10251.153300       0.448215
    10261.672700       0.452351
    10272.213700       0.456497
    10282.776300       0.460652
    10293.360800       0.464817
    10303.967000       0.468990
    10314.595200       0.473171
    10325.245200       0.477361
    10335.917300       0.481559
    10346.611500       0.485764
    10357.327800       0.489977
    10368.066400       0.494196
    10378.827200       0.498422
    10389.610400       0.502655
    10400.416000       0.506893
    10411.244100       0.511137
    10422.094800       0.515387
    10432.968200       0.519641
    10443.864200       0.523900
    10454.783100       0.528164
    10465.724800       0.532431
    10476.689400       0.536701
    10487.677000       0.540976
    10498.687700       0.545252
    10509.721500       0.549531
    10520.778500       0.553813
    10531.858900       0.558096
    10542.962600       0.562380
    10554.089700       0.566666
    10565.240400       0.570951
    10576.414600       0.575237
    10587.612500       0.579523
    10598.834100       0.583809
    10610.079600       0.588093
    10621.348900       0.592376
    10632.642200       0.596657
    10643.959600       0.600936
    10655.301000       0.605212
    10666.666700       0.609485
    10678.056600       0.613755
    10689.470900       0.618020
    10700.909600       0.622282
    10712.372800       0.626539
    10723.860600       0.630791
    10735.373100       0.635037
    10746.910300       0.639278
    10758.472300       0.643512
    10770.059200       0.647739
    10781.671200       0.651959
    10793.308100       0.656172
    10804.970300       0.660376
    10816.657700       0.664572
    10828.370300       0.668759
    10840.108400       0.672937
    10851.871900       0.677105
    10863.661100       0.681263
    10875.475800       0.685410
    10887.316300       0.689546
    10899.182600       0.693670
    10911.074700       0.697783
    10922.992900       0.701883
    10934.937100       0.705970
    10946.907500       0.710045
    10958.904100       0.714105
    10970.927000       0.718152
    10982.976400       0.722184
    10995.052200       0.726201
    11007.154700       0.730203
    11019.283700       0.734188
    11031.439600       0.738158
    11043.622300       0.742111
    11055.832000       0.746047
    11068.068600       0.749966
    11080.332400       0.753867
    11092.623400       0.757749
    11104.941700       0.761613
    11117.287400       0.765457
    11129.660500       0.769282
    11142.061300       0.773087
    11154.489700       0.776872
    11166.945800       0.780635
    11179.429800       0.784378
    11191.941800       0.788099
    11204.481800       0.791798
    11217.049900       0.795474
    11229.646300       0.799128
    11242.270900       0.802759
    11254.924000       0.806366
    11267.605600       0.809949
    11280.315800       0.813507
    11293.054800       0.817041
    11305.822500       0.820550
    11318.619100       0.824033
    11331.444800       0.827491
    11344.299500       0.830922
    11357.183400       0.834326
    11370.096600       0.837704
    11383.039300       0.841055
    11396.011400       0.844377
    11409.013100       0.847672
    11422.044500       0.850938
    11435.105800       0.854176
    11448.196900       0.857384
    11461.318100       0.860563
    11474.469300       0.863713
    11487.650800       0.866832
    11500.862600       0.869921
    11514.104800       0.872980
    11527.377500       0.876007
    11540.680900       0.879003
    11554.015000       0.881967
    11567.380000       0.884900
    11580.775900       0.887800
    11594.202900       0.890668
    11607.661100       0.893503
    11621.150500       0.896305
    11634.671300       0.899074
    11648.223600       0.901809
    11661.807600       0.904510
    11675.423200       0.907177
    11689.070700       0.909810
    11702.750100       0.912408
    11716.461600       0.914971
    11730.205300       0.917500
    11743.981200       0.919992
    11757.789500       0.922450
    11771.630400       0.924871
    11785.503800       0.927257
    11799.410000       0.929606
    11813.349100       0.931919
    11827.321100       0.934195
    11841.326200       0.936434
    11855.364600       0.938637
    11869.436200       0.940802
    11883.541300       0.942930
    11897.680000       0.945020
    11911.852300       0.947073
    11926.058400       0.949088
    11940.298500       0.951065
    11954.572600       0.953003
    11968.880900       0.954904
    11983.223500       0.956766
    11997.600500       0.958589
    12012.012000       0.960374
    12026.458200       0.962121
    12040.939200       0.963828
    12055.455100       0.965496
    12070.006000       0.967125
    12084.592100       0.968715
    12099.213600       0.970266
    12113.870400       0.971778
    12128.562800       0.973250
    12143.290800       0.974683
    12158.054700       0.976076
    12172.854500       0.977429
    12187.690400       0.978744
    12202.562500       0.980018
    12217.471000       0.981253
    12232.415900       0.982448
    12247.397400       0.983603
    12262.415700       0.984719
    12277.470800       0.985795
    12292.563000       0.986831
    12307.692300       0.987828
    12322.858900       0.988785
    12338.062900       0.989702
    12353.304500       0.990580
    12368.583800       0.991418
    12383.900900       0.992216
    12399.256000       0.992975
    12414.649300       0.993694
    12430.080800       0.994375
    12445.550700       0.995015
    12461.059200       0.995617
    12476.606400       0.996179
    12492.192400       0.996703
    12507.817400       0.997187
    12523.481500       0.997632
    12539.185000       0.998039
    12554.927800       0.998407
    12570.710200       0.998736
    12586.532400       0.999027
    12602.394500       0.999280
    12618.296500       0.999494
    12634.238800       0.999671
    12650.221400       0.999810
    12666.244500       0.999911
    12682.308200       0.999974
    12698.412700       1.000000
    12714.558200       0.999989
    12730.744700       0.999941
    12746.972600       0.999856
    12763.241900       0.999734
    12779.552700       0.999576
    12795.905300       0.999382
    12812.299800       0.999151
    12828.736400       0.998885
    12845.215200       0.998584
    12861.736300       0.998247
    12878.300100       0.997874
    12894.906500       0.997467
    12911.555800       0.997026
    12928.248200       0.996550
    12944.983800       0.996039
    12961.762800       0.995495
    12978.585300       0.994918
    12995.451600       0.994307
    13012.361700       0.993662
    13029.316000       0.992986
    13046.314400       0.992276
    13063.357300       0.991535
    13080.444700       0.990761
    13097.576900       0.989956
    13114.754100       0.989120
    13131.976400       0.988253
    13149.243900       0.987355
    13166.556900       0.986427
    13183.915600       0.985468
    13201.320100       0.984480
    13218.770700       0.983463
    13236.267400       0.982417
    13253.810500       0.981342
    13271.400100       0.980239
    13289.036500       0.979107
    13306.719900       0.977949
    13324.450400       0.976762
    13342.228200       0.975549
    13360.053400       0.974310
    13377.926400       0.973044
    13395.847300       0.971753
    13413.816200       0.970436
    13431.833400       0.969095
    13449.899100       0.967728
    13468.013500       0.966338
    13486.176700       0.964923
    13504.388900       0.963486
    13522.650400       0.962025
    13540.961400       0.960541
    13559.322000       0.959036
    13577.732500       0.957508
    13596.193100       0.955959
    13614.703900       0.954389
    13633.265200       0.952799
    13651.877100       0.951188
    13670.540000       0.949558
    13689.253900       0.947908
    13708.019200       0.946240
    13726.836000       0.944553
    13745.704500       0.942848
    13764.624900       0.941125
    13783.597500       0.939385
    13802.622500       0.937629
    13821.700100       0.935856
    13840.830400       0.934068
    13860.013900       0.932264
    13879.250500       0.930445
    13898.540700       0.928611
    13917.884500       0.926764
    13937.282200       0.924903
    13956.734100       0.923029
    13976.240400       0.921142
    13995.801300       0.919242
    14015.417000       0.917331
    14035.087700       0.915409
    14054.813800       0.913475
    14074.595400       0.911531
    14094.432700       0.909577
    14114.326000       0.907614
    14134.275600       0.905641
    14154.281700       0.903660
    14174.344400       0.901670
    14194.464200       0.899673
    14214.641100       0.897668
    14234.875400       0.895657
    14255.167500       0.893639
    14275.517500       0.891615
    14295.925700       0.889586
    14316.392300       0.887551
    14336.917600       0.885512
    14357.501800       0.883469
    14378.145200       0.881421
    14398.848100       0.879371
    14419.610700       0.877318
    14440.433200       0.875262
    14461.316000       0.873204
    14482.259200       0.871145
    14503.263200       0.869085
    14524.328200       0.867024
    14545.454500       0.864962
    14566.642400       0.862901
    14587.892000       0.860841
    14609.203800       0.858781
    14630.577900       0.856723
    14652.014700       0.854667
    14673.514300       0.852613
    14695.077100       0.850562
    14716.703500       0.848514
    14738.393500       0.846469
    14760.147600       0.844428
    14781.966000       0.842392
    14803.849000       0.840360
    14825.796900       0.838333
    14847.809900       0.836312
    14869.888500       0.834297
    14892.032800       0.832287
    14914.243100       0.830285
    14936.519800       0.828289
    14958.863100       0.826301
    14981.273400       0.824321
    15003.750900       0.822348
    15026.296000       0.820385
    15048.909000       0.818430
    15071.590100       0.816484
    15094.339600       0.814547
    15117.158000       0.812621
    15140.045400       0.810704
    15163.002300       0.808798
    15186.028900       0.806903
    15209.125500       0.805019
    15232.292500       0.803146
    15255.530100       0.801286
    15278.838800       0.799437
    15302.218800       0.797600
    15325.670500       0.795776
    15349.194200       0.793966
    15372.790200       0.792168
    15396.458800       0.790384
    15420.200500       0.788613
    15444.015400       0.786857
    15467.904100       0.785114
    15491.866800       0.783387
    15515.903800       0.781674
    15540.015500       0.779975
    15564.202300       0.778293
    15588.464500       0.776625
    15612.802500       0.774973
    15637.216600       0.773337
    15661.707100       0.771717
    15686.274500       0.770114
    15710.919100       0.768526
    15735.641200       0.766956
    15760.441300       0.765402
    15785.319700       0.763865
    15810.276700       0.762345
    15835.312700       0.760842
    15860.428200       0.759357
    15885.623500       0.757889
    15910.899000       0.756439
    15936.255000       0.755007
    15961.691900       0.753592
    15987.210200       0.752196
    16012.810200       0.750817
    16038.492400       0.749457
    16064.257000       0.748115
    16090.104600       0.746791
    16116.035500       0.745486
    16142.050000       0.744198
    16168.148700       0.742930
    16194.332000       0.741680
    16220.600200       0.740448
    16246.953700       0.739235
    16273.393000       0.738041
    16299.918500       0.736865
    16326.530600       0.735708
    16353.229800       0.734569
    16380.016400       0.733449
    16406.890900       0.732347
    16433.853700       0.731264
    16460.905300       0.730199
    16488.046200       0.729152
    16515.276600       0.728124
    16542.597200       0.727114
    16570.008300       0.726122
    16597.510400       0.725148
    16625.103900       0.724191
    16652.789300       0.723253
    16680.567100       0.722332
    16708.437800       0.721429
    16736.401700       0.720543
    16764.459300       0.719675
    16792.611300       0.718823
    16820.857900       0.717989
    16849.199700       0.717171
    16877.637100       0.716370
    16906.170800       0.715585
    16934.801000       0.714816
    16963.528400       0.714063
    16992.353400       0.713326
    17021.276600       0.712605
    17050.298400       0.711898
    17079.419300       0.711207
    17108.639900       0.710530
    17137.960600       0.709868
    17167.382000       0.709220
    17196.904600       0.708585
    17226.528900       0.707965
    17256.255400       0.707357
    17286.084700       0.706763
    17316.017300       0.706181
    17346.053800       0.705612
    17376.194600       0.705054
    17406.440400       0.704508
    17436.791600       0.703973
    17467.248900       0.703449
    17497.812800       0.702936
    17528.483800       0.702433
    17559.262500       0.701939
    17590.149500       0.701454
    17621.145400       0.700979
    17652.250700       0.700512
    17683.466000       0.700053
    17714.791900       0.699601
    17746.228900       0.699157
    17777.777800       0.698719
    17809.439000       0.698288
    17841.213200       0.697862
    17873.101000       0.697441
    17905.103000       0.697025
    17937.219700       0.696614
    17969.451900       0.696206
    18001.800200       0.695801
    18034.265100       0.695399
    18066.847300       0.694999
    18099.547500       0.694601
    18132.366300       0.694204
    18165.304300       0.693807
    18198.362100       0.693410
    18231.540600       0.693013
    18264.840200       0.692614
    18298.261700       0.692214
    18331.805700       0.691811
    18365.472900       0.691405
    18399.264000       0.690996
    18433.179700       0.690583
    18467.220700       0.690164
    18501.387600       0.689741
    18535.681200       0.689311
    18570.102100       0.688874
    18604.651200       0.688431
    18639.329000       0.687979
    18674.136300       0.687518
    18709.073900       0.687049
    18744.142500       0.686569
    18779.342700       0.686079
    18814.675400       0.685577
    18850.141400       0.685063
    18885.741300       0.684537
    18921.475900       0.683997
    18957.346000       0.683444
    18993.352300       0.682875
    19029.495700       0.682291
    19065.776900       0.681691
