   8, extracted from file vas_g05.srf.nc
Number of data points:
2268
Wavenumber (cm-1)   Filter response
      790.600000       0.001126
      790.700000       0.001202
      790.800000       0.001276
      790.900000       0.001351
      791.000000       0.001425
      791.100000       0.001500
      791.200000       0.001574
      791.300000       0.001649
      791.400000       0.001723
      791.500000       0.001798
      791.600000       0.001872
      791.700000       0.001947
      791.800000       0.002021
      791.900000       0.002096
      792.000000       0.002170
      792.100000       0.002245
      792.200000       0.002319
      792.300000       0.002394
      792.400000       0.002468
      792.500000       0.002540
      792.600000       0.002609
      792.700000       0.002678
      792.800000       0.002746
      792.900000       0.002815
      793.000000       0.002884
      793.100000       0.002953
      793.200000       0.003022
      793.300000       0.003091
      793.400000       0.003160
      793.500000       0.003228
      793.600000       0.003297
      793.700000       0.003366
      793.800000       0.003435
      793.900000       0.003504
      794.000000       0.003573
      794.100000       0.003642
      794.200000       0.003710
      794.300000       0.003779
      794.400000       0.003851
      794.500000       0.003925
      794.600000       0.003999
      794.700000       0.004073
      794.800000       0.004146
      794.900000       0.004220
      795.000000       0.004294
      795.100000       0.004368
      795.200000       0.004442
      795.300000       0.004515
      795.400000       0.004589
      795.500000       0.004663
      795.600000       0.004737
      795.700000       0.004811
      795.800000       0.004884
      795.900000       0.004958
      796.000000       0.005032
      796.100000       0.005106
      796.200000       0.005179
      796.300000       0.005253
      796.400000       0.005327
      796.500000       0.005400
      796.600000       0.005473
      796.700000       0.005547
      796.800000       0.005620
      796.900000       0.005694
      797.000000       0.005767
      797.100000       0.005841
      797.200000       0.005914
      797.300000       0.005988
      797.400000       0.006061
      797.500000       0.006135
      797.600000       0.006208
      797.700000       0.006281
      797.800000       0.006355
      797.900000       0.006428
      798.000000       0.006502
      798.100000       0.006575
      798.200000       0.006646
      798.300000       0.006713
      798.400000       0.006780
      798.500000       0.006848
      798.600000       0.006916
      798.700000       0.006984
      798.800000       0.007052
      798.900000       0.007120
      799.000000       0.007188
      799.100000       0.007256
      799.200000       0.007323
      799.300000       0.007391
      799.400000       0.007459
      799.500000       0.007527
      799.600000       0.007595
      799.700000       0.007663
      799.800000       0.007731
      799.900000       0.007799
      800.000000       0.007866
      800.100000       0.007934
      800.200000       0.008002
      800.300000       0.008069
      800.400000       0.008137
      800.500000       0.008205
      800.600000       0.008272
      800.700000       0.008340
      800.800000       0.008407
      800.900000       0.008475
      801.000000       0.008542
      801.100000       0.008610
      801.200000       0.008677
      801.300000       0.008745
      801.400000       0.008812
      801.500000       0.008880
      801.600000       0.008947
      801.700000       0.009015
      801.800000       0.009083
      801.900000       0.009150
      802.000000       0.009218
      802.100000       0.009285
      802.200000       0.009352
      802.300000       0.009419
      802.400000       0.009487
      802.500000       0.009554
      802.600000       0.009621
      802.700000       0.009688
      802.800000       0.009756
      802.900000       0.009823
      803.000000       0.009890
      803.100000       0.009957
      803.200000       0.010025
      803.300000       0.010092
      803.400000       0.010159
      803.500000       0.010226
      803.600000       0.010293
      803.700000       0.010361
      803.800000       0.010426
      803.900000       0.010506
      804.000000       0.010630
      804.100000       0.010777
      804.200000       0.010921
      804.300000       0.011065
      804.400000       0.011209
      804.500000       0.011353
      804.600000       0.011497
      804.700000       0.011641
      804.800000       0.011785
      804.900000       0.011929
      805.000000       0.012073
      805.100000       0.012217
      805.200000       0.012361
      805.300000       0.012506
      805.400000       0.012651
      805.500000       0.012794
      805.600000       0.012938
      805.700000       0.013082
      805.800000       0.013218
      805.900000       0.013427
      806.000000       0.013711
      806.100000       0.013987
      806.200000       0.014264
      806.300000       0.014541
      806.400000       0.014817
      806.500000       0.015094
      806.600000       0.015370
      806.700000       0.015647
      806.800000       0.015923
      806.900000       0.016200
      807.000000       0.016477
      807.100000       0.016753
      807.200000       0.017030
      807.300000       0.017306
      807.400000       0.017583
      807.500000       0.017860
      807.600000       0.018136
      807.700000       0.018411
      807.800000       0.018698
      807.900000       0.019016
      808.000000       0.019349
      808.100000       0.019681
      808.200000       0.020012
      808.300000       0.020343
      808.400000       0.020675
      808.500000       0.021006
      808.600000       0.021337
      808.700000       0.021668
      808.800000       0.022000
      808.900000       0.022331
      809.000000       0.022662
      809.100000       0.022994
      809.200000       0.023325
      809.300000       0.023656
      809.400000       0.023988
      809.500000       0.024319
      809.600000       0.024650
      809.700000       0.024977
      809.800000       0.025346
      809.900000       0.025769
      810.000000       0.026196
      810.100000       0.026622
      810.200000       0.027048
      810.300000       0.027474
      810.400000       0.027901
      810.500000       0.028327
      810.600000       0.028753
      810.700000       0.029178
      810.800000       0.029604
      810.900000       0.030031
      811.000000       0.030457
      811.100000       0.030883
      811.200000       0.031309
      811.300000       0.031735
      811.400000       0.032162
      811.500000       0.032588
      811.600000       0.033013
      811.700000       0.033439
      811.800000       0.033858
      811.900000       0.034272
      812.000000       0.034686
      812.100000       0.035100
      812.200000       0.035514
      812.300000       0.035927
      812.400000       0.036342
      812.500000       0.036756
      812.600000       0.037169
      812.700000       0.037583
      812.800000       0.037997
      812.900000       0.038412
      813.000000       0.038825
      813.100000       0.039239
      813.200000       0.039653
      813.300000       0.040066
      813.400000       0.040481
      813.500000       0.040895
      813.600000       0.041288
      813.700000       0.041818
      813.800000       0.042950
      813.900000       0.044479
      814.000000       0.045961
      814.100000       0.047442
      814.200000       0.048923
      814.300000       0.050404
      814.400000       0.051888
      814.500000       0.053369
      814.600000       0.054851
      814.700000       0.056332
      814.800000       0.057812
      814.900000       0.059296
      815.000000       0.060777
      815.100000       0.062258
      815.200000       0.063739
      815.300000       0.065221
      815.400000       0.066704
      815.500000       0.068185
      815.600000       0.069662
      815.700000       0.071170
      815.800000       0.072776
      815.900000       0.074439
      816.000000       0.076093
      816.100000       0.077747
      816.200000       0.079402
      816.300000       0.081056
      816.400000       0.082712
      816.500000       0.084366
      816.600000       0.086020
      816.700000       0.087674
      816.800000       0.089328
      816.900000       0.090985
      817.000000       0.092638
      817.100000       0.094292
      817.200000       0.095946
      817.300000       0.097600
      817.400000       0.099257
      817.500000       0.100911
      817.600000       0.102530
      817.700000       0.104408
      817.800000       0.107101
      817.900000       0.110264
      818.000000       0.113367
      818.100000       0.116469
      818.200000       0.119572
      818.300000       0.122675
      818.400000       0.125782
      818.500000       0.128884
      818.600000       0.131987
      818.700000       0.135089
      818.800000       0.138192
      818.900000       0.141300
      819.000000       0.144402
      819.100000       0.147504
      819.200000       0.150612
      819.300000       0.153714
      819.400000       0.156817
      819.500000       0.159919
      819.600000       0.162972
      819.700000       0.166353
      819.800000       0.171338
      819.900000       0.177435
      820.000000       0.183403
      820.100000       0.189369
      820.200000       0.195346
      820.300000       0.201313
      820.400000       0.207281
      820.500000       0.213249
      820.600000       0.219216
      820.700000       0.225192
      820.800000       0.231159
      820.900000       0.237126
      821.000000       0.243094
      821.100000       0.249061
      821.200000       0.255037
      821.300000       0.261005
      821.400000       0.266973
      821.500000       0.272940
      821.600000       0.278907
      821.700000       0.284888
      821.800000       0.290767
      821.900000       0.296563
      822.000000       0.302368
      822.100000       0.308172
      822.200000       0.313987
      822.300000       0.319792
      822.400000       0.325597
      822.500000       0.331402
      822.600000       0.337206
      822.700000       0.343021
      822.800000       0.348826
      822.900000       0.354631
      823.000000       0.360436
      823.100000       0.366240
      823.200000       0.372054
      823.300000       0.377858
      823.400000       0.383664
      823.500000       0.389470
      823.600000       0.395274
      823.700000       0.401168
      823.800000       0.406360
      823.900000       0.410620
      824.000000       0.414746
      824.100000       0.418896
      824.200000       0.423052
      824.300000       0.427202
      824.400000       0.431352
      824.500000       0.435502
      824.600000       0.439652
      824.700000       0.443808
      824.800000       0.447958
      824.900000       0.452108
      825.000000       0.456258
      825.100000       0.460407
      825.200000       0.464564
      825.300000       0.468713
      825.400000       0.472863
      825.500000       0.477014
      825.600000       0.481163
      825.700000       0.485324
      825.800000       0.489448
      825.900000       0.493474
      826.000000       0.497440
      826.100000       0.501413
      826.200000       0.505393
      826.300000       0.509365
      826.400000       0.513338
      826.500000       0.517312
      826.600000       0.521285
      826.700000       0.525265
      826.800000       0.529237
      826.900000       0.533210
      827.000000       0.537184
      827.100000       0.541157
      827.200000       0.545136
      827.300000       0.549109
      827.400000       0.553082
      827.500000       0.557055
      827.600000       0.561029
      827.700000       0.565008
      827.800000       0.569055
      827.900000       0.572442
      828.000000       0.575044
      828.100000       0.577607
      828.200000       0.580187
      828.300000       0.582762
      828.400000       0.585338
      828.500000       0.587914
      828.600000       0.590489
      828.700000       0.593069
      828.800000       0.595645
      828.900000       0.598221
      829.000000       0.600797
      829.100000       0.603373
      829.200000       0.605953
      829.300000       0.608528
      829.400000       0.611103
      829.500000       0.613680
      829.600000       0.616255
      829.700000       0.618835
      829.800000       0.621438
      829.900000       0.623877
      830.000000       0.625309
      830.100000       0.626006
      830.200000       0.626789
      830.300000       0.627571
      830.400000       0.628353
      830.500000       0.629135
      830.600000       0.629917
      830.700000       0.630700
      830.800000       0.631482
      830.900000       0.632264
      831.000000       0.633046
      831.100000       0.633829
      831.200000       0.634612
      831.300000       0.635394
      831.400000       0.636176
      831.500000       0.636958
      831.600000       0.637740
      831.700000       0.638524
      831.800000       0.639305
      831.900000       0.640079
      832.000000       0.640922
      832.100000       0.641908
      832.200000       0.642955
      832.300000       0.643992
      832.400000       0.645029
      832.500000       0.646066
      832.600000       0.647104
      832.700000       0.648143
      832.800000       0.649180
      832.900000       0.650217
      833.000000       0.651254
      833.100000       0.652292
      833.200000       0.653331
      833.300000       0.654369
      833.400000       0.655405
      833.500000       0.656442
      833.600000       0.657480
      833.700000       0.658519
      833.800000       0.659557
      833.900000       0.660594
      834.000000       0.661608
      834.100000       0.662817
      834.200000       0.664310
      834.300000       0.665857
      834.400000       0.667396
      834.500000       0.668934
      834.600000       0.670473
      834.700000       0.672015
      834.800000       0.673554
      834.900000       0.675092
      835.000000       0.676631
      835.100000       0.678169
      835.200000       0.679711
      835.300000       0.681250
      835.400000       0.682789
      835.500000       0.684327
      835.600000       0.685866
      835.700000       0.687407
      835.800000       0.688946
      835.900000       0.690485
      836.000000       0.692024
      836.100000       0.693626
      836.200000       0.694677
      836.300000       0.695013
      836.400000       0.695268
      836.500000       0.695539
      836.600000       0.695810
      836.700000       0.696082
      836.800000       0.696352
      836.900000       0.696623
      837.000000       0.696894
      837.100000       0.697165
      837.200000       0.697437
      837.300000       0.697708
      837.400000       0.697979
      837.500000       0.698251
      837.600000       0.698522
      837.700000       0.698793
      837.800000       0.699063
      837.900000       0.699334
      838.000000       0.699606
      838.100000       0.699877
      838.200000       0.700148
      838.300000       0.700419
      838.400000       0.700688
      838.500000       0.700958
      838.600000       0.701228
      838.700000       0.701498
      838.800000       0.701768
      838.900000       0.702037
      839.000000       0.702307
      839.100000       0.702577
      839.200000       0.702847
      839.300000       0.703117
      839.400000       0.703386
      839.500000       0.703656
      839.600000       0.703925
      839.700000       0.704196
      839.800000       0.704466
      839.900000       0.704735
      840.000000       0.705005
      840.100000       0.705274
      840.200000       0.705544
      840.300000       0.705814
      840.400000       0.706085
      840.500000       0.706358
      840.600000       0.706631
      840.700000       0.706904
      840.800000       0.707177
      840.900000       0.707450
      841.000000       0.707723
      841.100000       0.707996
      841.200000       0.708269
      841.300000       0.708542
      841.400000       0.708815
      841.500000       0.709088
      841.600000       0.709361
      841.700000       0.709635
      841.800000       0.709908
      841.900000       0.710181
      842.000000       0.710454
      842.100000       0.710727
      842.200000       0.711000
      842.300000       0.711273
      842.400000       0.711541
      842.500000       0.711846
      842.600000       0.712265
      842.700000       0.712746
      842.800000       0.713219
      842.900000       0.713693
      843.000000       0.714166
      843.100000       0.714638
      843.200000       0.715112
      843.300000       0.715585
      843.400000       0.716059
      843.500000       0.716532
      843.600000       0.717005
      843.700000       0.717478
      843.800000       0.717951
      843.900000       0.718424
      844.000000       0.718897
      844.100000       0.719371
      844.200000       0.719844
      844.300000       0.720317
      844.400000       0.720790
      844.500000       0.721261
      844.600000       0.721718
      844.700000       0.722483
      844.800000       0.723535
      844.900000       0.724556
      845.000000       0.725576
      845.100000       0.726597
      845.200000       0.727619
      845.300000       0.728640
      845.400000       0.729660
      845.500000       0.730681
      845.600000       0.731701
      845.700000       0.732723
      845.800000       0.733744
      845.900000       0.734764
      846.000000       0.735785
      846.100000       0.736805
      846.200000       0.737828
      846.300000       0.738848
      846.400000       0.739869
      846.500000       0.740889
      846.600000       0.741909
      846.700000       0.742930
      846.800000       0.743957
      846.900000       0.744997
      847.000000       0.746041
      847.100000       0.747084
      847.200000       0.748128
      847.300000       0.749172
      847.400000       0.750215
      847.500000       0.751258
      847.600000       0.752301
      847.700000       0.753346
      847.800000       0.754389
      847.900000       0.755433
      848.000000       0.756476
      848.100000       0.757519
      848.200000       0.758564
      848.300000       0.759607
      848.400000       0.760651
      848.500000       0.761694
      848.600000       0.762737
      848.700000       0.763782
      848.800000       0.764826
      848.900000       0.765868
      849.000000       0.766915
      849.100000       0.767968
      849.200000       0.769021
      849.300000       0.770073
      849.400000       0.771124
      849.500000       0.772176
      849.600000       0.773227
      849.700000       0.774280
      849.800000       0.775332
      849.900000       0.776384
      850.000000       0.777436
      850.100000       0.778487
      850.200000       0.779540
      850.300000       0.780593
      850.400000       0.781645
      850.500000       0.782696
      850.600000       0.783747
      850.700000       0.784801
      850.800000       0.785852
      850.900000       0.786904
      851.000000       0.787955
      851.100000       0.789010
      851.200000       0.790075
      851.300000       0.791145
      851.400000       0.792214
      851.500000       0.793283
      851.600000       0.794353
      851.700000       0.795424
      851.800000       0.796494
      851.900000       0.797563
      852.000000       0.798632
      852.100000       0.799701
      852.200000       0.800772
      852.300000       0.801842
      852.400000       0.802911
      852.500000       0.803980
      852.600000       0.805049
