40,   40, MVIRI VIS channel from srf_MET7_2002213_2002214_1801-Release_S10EE_10.dat
Number of data points:
793
Wavenumber (cm-1)   Filter response
     8442.380800       0.000000
     8449.514200       0.000000
     8456.659600       0.000004
     8463.817200       0.000054
     8470.986900       0.000159
     8478.168700       0.000318
     8485.362700       0.000530
     8492.569000       0.000792
     8499.787500       0.001103
     8507.018300       0.001463
     8514.261400       0.001868
     8521.516800       0.002320
     8528.784600       0.002815
     8536.064900       0.003352
     8543.357500       0.003932
     8550.662700       0.004551
     8557.980300       0.005210
     8565.310500       0.005907
     8572.653200       0.006642
     8580.008600       0.007412
     8587.376600       0.008218
     8594.757200       0.009059
     8602.150500       0.009933
     8609.556600       0.010840
     8616.975400       0.011778
     8624.407100       0.012748
     8631.851500       0.013748
     8639.308900       0.014778
     8646.779100       0.015838
     8654.262200       0.016925
     8661.758300       0.018041
     8669.267400       0.019184
     8676.789600       0.020354
     8684.324800       0.021550
     8691.873100       0.022772
     8699.434500       0.024019
     8707.009100       0.025291
     8714.596900       0.026588
     8722.198000       0.027909
     8729.812300       0.029253
     8737.439900       0.030621
     8745.080900       0.032012
     8752.735200       0.033426
     8760.403000       0.034862
     8768.084200       0.036321
     8775.778900       0.037801
     8783.487000       0.039304
     8791.208800       0.040827
     8798.944100       0.042373
     8806.693100       0.043939
     8814.455700       0.045527
     8822.232000       0.047135
     8830.022100       0.048765
     8837.825900       0.050415
     8845.643500       0.052085
     8853.475000       0.053776
     8861.320300       0.055488
     8869.179600       0.057219
     8877.052800       0.058972
     8884.940000       0.060744
     8892.841300       0.062537
     8900.756600       0.064350
     8908.686000       0.066183
     8916.629500       0.068036
     8924.587200       0.069910
     8932.559200       0.071804
     8940.545400       0.073718
     8948.545900       0.075652
     8956.560700       0.077607
     8964.589900       0.079582
     8972.633500       0.081577
     8980.691500       0.083593
     8988.764000       0.085630
     8996.851100       0.087687
     9004.952700       0.089764
     9013.068900       0.091863
     9021.199800       0.093982
     9029.345400       0.096122
     9037.505600       0.098283
     9045.680700       0.100466
     9053.870500       0.102669
     9062.075200       0.104894
     9070.294800       0.107140
     9078.529300       0.109407
     9086.778700       0.111696
     9095.043200       0.114006
     9103.322700       0.116338
     9111.617300       0.118692
     9119.927000       0.121068
     9128.251900       0.123465
     9136.592100       0.125885
     9144.947400       0.128327
     9153.318100       0.130792
     9161.704100       0.133278
     9170.105500       0.135787
     9178.522300       0.138319
     9186.954500       0.140872
     9195.402300       0.143449
     9203.865600       0.146049
     9212.344500       0.148671
     9220.839100       0.151316
     9229.349300       0.153984
     9237.875300       0.156676
     9246.417000       0.159390
     9254.974500       0.162128
     9263.547900       0.164888
     9272.137200       0.167672
     9280.742500       0.170480
     9289.363700       0.173310
     9298.000900       0.176165
     9306.654300       0.179042
     9315.323700       0.181943
     9324.009300       0.184868
     9332.711200       0.187816
     9341.429200       0.190787
     9350.163600       0.193783
     9358.914400       0.196801
     9367.681500       0.199844
     9376.465100       0.202910
     9385.265100       0.205999
     9394.081700       0.209112
     9402.914900       0.212249
     9411.764700       0.215409
     9420.631200       0.218593
     9429.514400       0.221799
     9438.414300       0.225030
     9447.331100       0.228283
     9456.264800       0.231560
     9465.215300       0.234861
     9474.182900       0.238184
     9483.167400       0.241531
     9492.169000       0.244900
     9501.187600       0.248292
     9510.223500       0.251708
     9519.276500       0.255146
     9528.346800       0.258606
     9537.434400       0.262090
     9546.539400       0.265595
     9555.661700       0.269123
     9564.801500       0.272673
     9573.958800       0.276245
     9583.133700       0.279839
     9592.326100       0.283455
     9601.536200       0.287092
     9610.764100       0.290751
     9620.009600       0.294431
     9629.273000       0.298132
     9638.554200       0.301854
     9647.853400       0.305597
     9657.170400       0.309360
     9666.505600       0.313143
     9675.858700       0.316947
     9685.230000       0.320771
     9694.619500       0.324614
     9704.027200       0.328477
     9713.453100       0.332359
     9722.897400       0.336260
     9732.360100       0.340180
     9741.841200       0.344119
     9751.340800       0.348075
     9760.859000       0.352050
     9770.395700       0.356043
     9779.951100       0.360052
     9789.525200       0.364080
     9799.118100       0.368124
     9808.729800       0.372185
     9818.360300       0.376262
     9828.009800       0.380355
     9837.678300       0.384465
     9847.365800       0.388589
     9857.072400       0.392729
     9866.798200       0.396884
     9876.543200       0.401052
     9886.307500       0.405236
     9896.091000       0.409433
     9905.894000       0.413643
     9915.716400       0.417867
     9925.558300       0.422104
     9935.419800       0.426353
     9945.300800       0.430614
     9955.201600       0.434887
     9965.122100       0.439171
     9975.062300       0.443466
     9985.022500       0.447773
     9995.002500       0.452089
    10005.002500       0.456415
    10015.022500       0.460751
    10025.062700       0.465095
    10035.122900       0.469449
    10045.203400       0.473810
    10055.304200       0.478180
    10065.425300       0.482557
    10075.566800       0.486942
    10085.728700       0.491333
    10095.911200       0.495730
    10106.114200       0.500133
    10116.337900       0.504542
    10126.582300       0.508955
    10136.847400       0.513373
    10147.133400       0.517796
    10157.440300       0.522222
    10167.768200       0.526651
    10178.117000       0.531084
    10188.487000       0.535518
    10198.878100       0.539955
    10209.290500       0.544393
    10219.724100       0.548833
    10230.179000       0.553272
    10240.655400       0.557713
    10251.153300       0.562153
    10261.672700       0.566592
    10272.213700       0.571030
    10282.776300       0.575466
    10293.360800       0.579901
    10303.967000       0.584333
    10314.595200       0.588762
    10325.245200       0.593187
    10335.917300       0.597609
    10346.611500       0.602026
    10357.327800       0.606438
    10368.066400       0.610845
    10378.827200       0.615247
    10389.610400       0.619642
    10400.416000       0.624031
    10411.244100       0.628412
    10422.094800       0.632786
    10432.968200       0.637152
    10443.864200       0.641509
    10454.783100       0.645857
    10465.724800       0.650196
    10476.689400       0.654525
    10487.677000       0.658844
    10498.687700       0.663152
    10509.721500       0.667448
    10520.778500       0.671733
    10531.858900       0.676006
    10542.962600       0.680266
    10554.089700       0.684513
    10565.240400       0.688746
    10576.414600       0.692966
    10587.612500       0.697171
    10598.834100       0.701361
    10610.079600       0.705536
    10621.348900       0.709695
    10632.642200       0.713837
    10643.959600       0.717964
    10655.301000       0.722073
    10666.666700       0.726164
    10678.056600       0.730238
    10689.470900       0.734293
    10700.909600       0.738330
    10712.372800       0.742347
    10723.860600       0.746344
    10735.373100       0.750322
    10746.910300       0.754279
    10758.472300       0.758215
    10770.059200       0.762129
    10781.671200       0.766022
    10793.308100       0.769893
    10804.970300       0.773741
    10816.657700       0.777567
    10828.370300       0.781369
    10840.108400       0.785147
    10851.871900       0.788901
    10863.661100       0.792631
    10875.475800       0.796336
    10887.316300       0.800016
    10899.182600       0.803670
    10911.074700       0.807298
    10922.992900       0.810900
    10934.937100       0.814475
    10946.907500       0.818023
    10958.904100       0.821544
    10970.927000       0.825037
    10982.976400       0.828502
    10995.052200       0.831938
    11007.154700       0.835346
    11019.283700       0.838724
    11031.439600       0.842074
    11043.622300       0.845393
    11055.832000       0.848683
    11068.068600       0.851942
    11080.332400       0.855171
    11092.623400       0.858369
    11104.941700       0.861535
    11117.287400       0.864670
    11129.660500       0.867774
    11142.061300       0.870845
    11154.489700       0.873884
    11166.945800       0.876891
    11179.429800       0.879864
    11191.941800       0.882805
    11204.481800       0.885712
    11217.049900       0.888586
    11229.646300       0.891426
    11242.270900       0.894231
    11254.924000       0.897003
    11267.605600       0.899740
    11280.315800       0.902443
    11293.054800       0.905110
    11305.822500       0.907743
    11318.619100       0.910340
    11331.444800       0.912902
    11344.299500       0.915428
    11357.183400       0.917918
    11370.096600       0.920372
    11383.039300       0.922791
    11396.011400       0.925172
    11409.013100       0.927518
    11422.044500       0.929827
    11435.105800       0.932099
    11448.196900       0.934334
    11461.318100       0.936532
    11474.469300       0.938693
    11487.650800       0.940817
    11500.862600       0.942904
    11514.104800       0.944953
    11527.377500       0.946965
    11540.680900       0.948939
    11554.015000       0.950876
    11567.380000       0.952775
    11580.775900       0.954636
    11594.202900       0.956459
    11607.661100       0.958244
    11621.150500       0.959991
    11634.671300       0.961700
    11648.223600       0.963372
    11661.807600       0.965005
    11675.423200       0.966600
    11689.070700       0.968157
    11702.750100       0.969676
    11716.461600       0.971157
    11730.205300       0.972600
    11743.981200       0.974004
    11757.789500       0.975371
    11771.630400       0.976700
    11785.503800       0.977991
    11799.410000       0.979243
    11813.349100       0.980458
    11827.321100       0.981636
    11841.326200       0.982775
    11855.364600       0.983876
    11869.436200       0.984941
    11883.541300       0.985967
    11897.680000       0.986956
    11911.852300       0.987908
    11926.058400       0.988822
    11940.298500       0.989699
    11954.572600       0.990540
    11968.880900       0.991343
    11983.223500       0.992109
    11997.600500       0.992839
    12012.012000       0.993533
    12026.458200       0.994190
    12040.939200       0.994810
    12055.455100       0.995395
    12070.006000       0.995944
    12084.592100       0.996457
    12099.213600       0.996935
    12113.870400       0.997377
    12128.562800       0.997784
    12143.290800       0.998156
    12158.054700       0.998493
    12172.854500       0.998795
    12187.690400       0.999064
    12202.562500       0.999298
    12217.471000       0.999498
    12232.415900       0.999665
    12247.397400       0.999798
    12262.415700       0.999897
    12277.470800       0.999964
    12292.563000       0.999998
    12307.692300       1.000000
    12322.858900       0.999969
    12338.062900       0.999907
    12353.304500       0.999813
    12368.583800       0.999687
    12383.900900       0.999531
    12399.256000       0.999343
    12414.649300       0.999126
    12430.080800       0.998878
    12445.550700       0.998600
    12461.059200       0.998292
    12476.606400       0.997955
    12492.192400       0.997589
    12507.817400       0.997195
    12523.481500       0.996772
    12539.185000       0.996321
    12554.927800       0.995843
    12570.710200       0.995337
    12586.532400       0.994805
    12602.394500       0.994246
    12618.296500       0.993660
    12634.238800       0.993049
    12650.221400       0.992412
    12666.244500       0.991750
    12682.308200       0.991063
    12698.412700       0.990352
    12714.558200       0.989617
    12730.744700       0.988858
    12746.972600       0.988076
    12763.241900       0.987271
    12779.552700       0.986443
    12795.905300       0.985594
    12812.299800       0.984722
    12828.736400       0.983830
    12845.215200       0.982917
    12861.736300       0.981983
    12878.300100       0.981029
    12894.906500       0.980055
    12911.555800       0.979062
    12928.248200       0.978051
    12944.983800       0.977021
    12961.762800       0.975973
    12978.585300       0.974907
    12995.451600       0.973824
    13012.361700       0.972725
    13029.316000       0.971609
    13046.314400       0.970478
    13063.357300       0.969331
    13080.444700       0.968170
    13097.576900       0.966993
    13114.754100       0.965803
    13131.976400       0.964599
    13149.243900       0.963382
    13166.556900       0.962152
    13183.915600       0.960910
    13201.320100       0.959656
    13218.770700       0.958391
    13236.267400       0.957114
    13253.810500       0.955828
    13271.400100       0.954531
    13289.036500       0.953224
    13306.719900       0.951909
    13324.450400       0.950585
    13342.228200       0.949252
    13360.053400       0.947912
    13377.926400       0.946564
    13395.847300       0.945210
    13413.816200       0.943849
    13431.833400       0.942482
    13449.899100       0.941110
    13468.013500       0.939732
    13486.176700       0.938350
    13504.388900       0.936964
    13522.650400       0.935574
    13540.961400       0.934180
    13559.322000       0.932784
    13577.732500       0.931386
    13596.193100       0.929985
    13614.703900       0.928583
    13633.265200       0.927180
    13651.877100       0.925776
    13670.540000       0.924372
    13689.253900       0.922969
    13708.019200       0.921566
    13726.836000       0.920164
    13745.704500       0.918763
    13764.624900       0.917365
    13783.597500       0.915969
    13802.622500       0.914576
    13821.700100       0.913185
    13840.830400       0.911799
    13860.013900       0.910417
    13879.250500       0.909039
    13898.540700       0.907666
    13917.884500       0.906298
    13937.282200       0.904936
    13956.734100       0.903580
    13976.240400       0.902231
    13995.801300       0.900888
    14015.417000       0.899552
    14035.087700       0.898225
    14054.813800       0.896905
    14074.595400       0.895593
    14094.432700       0.894291
    14114.326000       0.892997
    14134.275600       0.891713
    14154.281700       0.890439
    14174.344400       0.889175
    14194.464200       0.887921
    14214.641100       0.886678
    14234.875400       0.885447
    14255.167500       0.884227
    14275.517500       0.883019
    14295.925700       0.881823
    14316.392300       0.880640
    14336.917600       0.879470
    14357.501800       0.878312
    14378.145200       0.877168
    14398.848100       0.876038
    14419.610700       0.874922
    14440.433200       0.873820
    14461.316000       0.872733
    14482.259200       0.871661
    14503.263200       0.870604
    14524.328200       0.869562
    14545.454500       0.868536
    14566.642400       0.867525
    14587.892000       0.866531
    14609.203800       0.865553
    14630.577900       0.864592
    14652.014700       0.863648
    14673.514300       0.862721
    14695.077100       0.861810
    14716.703500       0.860918
    14738.393500       0.860043
    14760.147600       0.859185
    14781.966000       0.858346
    14803.849000       0.857525
    14825.796900       0.856722
    14847.809900       0.855938
    14869.888500       0.855172
    14892.032800       0.854425
    14914.243100       0.853697
    14936.519800       0.852988
    14958.863100       0.852298
    14981.273400       0.851627
    15003.750900       0.850975
    15026.296000       0.850343
    15048.909000       0.849731
    15071.590100       0.849138
    15094.339600       0.848565
    15117.158000       0.848011
    15140.045400       0.847477
    15163.002300       0.846963
    15186.028900       0.846469
    15209.125500       0.845995
    15232.292500       0.845540
    15255.530100       0.845105
    15278.838800       0.844691
    15302.218800       0.844296
    15325.670500       0.843921
    15349.194200       0.843565
    15372.790200       0.843230
    15396.458800       0.842914
    15420.200500       0.842618
    15444.015400       0.842341
    15467.904100       0.842084
    15491.866800       0.841846
    15515.903800       0.841628
    15540.015500       0.841428
    15564.202300       0.841248
    15588.464500       0.841087
    15612.802500       0.840945
    15637.216600       0.840821
    15661.707100       0.840716
    15686.274500       0.840629
    15710.919100       0.840561
    15735.641200       0.840510
    15760.441300       0.840478
    15785.319700       0.840463
    15810.276700       0.840465
    15835.312700       0.840485
    15860.428200       0.840522
    15885.623500       0.840575
    15910.899000       0.840645
    15936.255000       0.840731
    15961.691900       0.840833
    15987.210200       0.840950
    16012.810200       0.841083
    16038.492400       0.841231
    16064.257000       0.841394
    16090.104600       0.841571
    16116.035500       0.841763
    16142.050000       0.841968
    16168.148700       0.842187
    16194.332000       0.842418
    16220.600200       0.842663
    16246.953700       0.842920
    16273.393000       0.843188
    16299.918500       0.843468
    16326.530600       0.843760
    16353.229800       0.844062
    16380.016400       0.844374
    16406.890900       0.844696
    16433.853700       0.845028
    16460.905300       0.845369
    16488.046200       0.845718
    16515.276600       0.846075
    16542.597200       0.846439
    16570.008300       0.846811
    16597.510400       0.847189
    16625.103900       0.847573
    16652.789300       0.847963
    16680.567100       0.848358
    16708.437800       0.848757
    16736.401700       0.849160
    16764.459300       0.849566
    16792.611300       0.849975
    16820.857900       0.850387
    16849.199700       0.850799
    16877.637100       0.851213
    16906.170800       0.851628
    16934.801000       0.852042
    16963.528400       0.852455
    16992.353400       0.852867
    17021.276600       0.853277
    17050.298400       0.853684
    17079.419300       0.854088
    17108.639900       0.854488
    17137.960600       0.854883
    17167.382000       0.855273
    17196.904600       0.855657
    17226.528900       0.856034
    17256.255400       0.856403
    17286.084700       0.856765
    17316.017300       0.857118
    17346.053800       0.857461
    17376.194600       0.857794
    17406.440400       0.858116
    17436.791600       0.858426
    17467.248900       0.858724
    17497.812800       0.859008
    17528.483800       0.859279
    17559.262500       0.859535
    17590.149500       0.859775
    17621.145400       0.859999
    17652.250700       0.860206
    17683.466000       0.860396
