123,   123, MVIRI VIS channel from srf_MET5_2006213_2006214_1801-Release_S10EL_10.dat
Number of data points:
806
Wavenumber (cm-1)   Filter response
     8350.730700       0.000000
     8357.710000       0.000000
     8364.701000       0.000000
     8371.703600       0.000002
     8378.718100       0.000004
     8385.744200       0.000009
     8392.782200       0.000017
     8399.832000       0.000028
     8406.893700       0.000043
     8413.967200       0.000062
     8421.052600       0.000086
     8428.150000       0.000115
     8435.259400       0.000151
     8442.380800       0.000192
     8449.514200       0.000240
     8456.659600       0.000296
     8463.817200       0.000358
     8470.986900       0.000429
     8478.168700       0.000508
     8485.362700       0.000596
     8492.569000       0.000693
     8499.787500       0.000799
     8507.018300       0.000915
     8514.261400       0.001041
     8521.516800       0.001177
     8528.784600       0.001324
     8536.064900       0.001482
     8543.357500       0.001651
     8550.662700       0.001831
     8557.980300       0.002023
     8565.310500       0.002227
     8572.653200       0.002444
     8580.008600       0.002673
     8587.376600       0.002914
     8594.757200       0.003169
     8602.150500       0.003436
     8609.556600       0.003717
     8616.975400       0.004012
     8624.407100       0.004320
     8631.851500       0.004642
     8639.308900       0.004979
     8646.779100       0.005329
     8654.262200       0.005694
     8661.758300       0.006074
     8669.267400       0.006469
     8676.789600       0.006878
     8684.324800       0.007303
     8691.873100       0.007743
     8699.434500       0.008198
     8707.009100       0.008669
     8714.596900       0.009156
     8722.198000       0.009659
     8729.812300       0.010177
     8737.439900       0.010712
     8745.080900       0.011263
     8752.735200       0.011830
     8760.403000       0.012415
     8768.084200       0.013015
     8775.778900       0.013633
     8783.487000       0.014267
     8791.208800       0.014918
     8798.944100       0.015587
     8806.693100       0.016273
     8814.455700       0.016976
     8822.232000       0.017697
     8830.022100       0.018435
     8837.825900       0.019192
     8845.643500       0.019966
     8853.475000       0.020758
     8861.320300       0.021567
     8869.179600       0.022396
     8877.052800       0.023242
     8884.940000       0.024107
     8892.841300       0.024990
     8900.756600       0.025892
     8908.686000       0.026813
     8916.629500       0.027753
     8924.587200       0.028711
     8932.559200       0.029689
     8940.545400       0.030685
     8948.545900       0.031701
     8956.560700       0.032736
     8964.589900       0.033791
     8972.633500       0.034865
     8980.691500       0.035959
     8988.764000       0.037073
     8996.851100       0.038206
     9004.952700       0.039359
     9013.068900       0.040532
     9021.199800       0.041726
     9029.345400       0.042940
     9037.505600       0.044174
     9045.680700       0.045428
     9053.870500       0.046703
     9062.075200       0.047999
     9070.294800       0.049315
     9078.529300       0.050653
     9086.778700       0.052011
     9095.043200       0.053390
     9103.322700       0.054790
     9111.617300       0.056211
     9119.927000       0.057654
     9128.251900       0.059118
     9136.592100       0.060604
     9144.947400       0.062111
     9153.318100       0.063640
     9161.704100       0.065190
     9170.105500       0.066762
     9178.522300       0.068357
     9186.954500       0.069973
     9195.402300       0.071611
     9203.865600       0.073271
     9212.344500       0.074954
     9220.839100       0.076659
     9229.349300       0.078386
     9237.875300       0.080136
     9246.417000       0.081908
     9254.974500       0.083704
     9263.547900       0.085521
     9272.137200       0.087362
     9280.742500       0.089225
     9289.363700       0.091111
     9298.000900       0.093021
     9306.654300       0.094953
     9315.323700       0.096908
     9324.009300       0.098887
     9332.711200       0.100889
     9341.429200       0.102914
     9350.163600       0.104962
     9358.914400       0.107034
     9367.681500       0.109129
     9376.465100       0.111248
     9385.265100       0.113390
     9394.081700       0.115557
     9402.914900       0.117746
     9411.764700       0.119959
     9420.631200       0.122196
     9429.514400       0.124457
     9438.414300       0.126741
     9447.331100       0.129049
     9456.264800       0.131382
     9465.215300       0.133738
     9474.182900       0.136117
     9483.167400       0.138521
     9492.169000       0.140949
     9501.187600       0.143400
     9510.223500       0.145876
     9519.276500       0.148375
     9528.346800       0.150899
     9537.434400       0.153446
     9546.539400       0.156017
     9555.661700       0.158613
     9564.801500       0.161232
     9573.958800       0.163875
     9583.133700       0.166542
     9592.326100       0.169233
     9601.536200       0.171948
     9610.764100       0.174686
     9620.009600       0.177448
     9629.273000       0.180235
     9638.554200       0.183044
     9647.853400       0.185878
     9657.170400       0.188735
     9666.505600       0.191616
     9675.858700       0.194520
     9685.230000       0.197448
     9694.619500       0.200399
     9704.027200       0.203374
     9713.453100       0.206372
     9722.897400       0.209393
     9732.360100       0.212437
     9741.841200       0.215504
     9751.340800       0.218594
     9760.859000       0.221708
     9770.395700       0.224844
     9779.951100       0.228002
     9789.525200       0.231184
     9799.118100       0.234388
     9808.729800       0.237614
     9818.360300       0.240862
     9828.009800       0.244132
     9837.678300       0.247425
     9847.365800       0.250740
     9857.072400       0.254076
     9866.798200       0.257434
     9876.543200       0.260813
     9886.307500       0.264215
     9896.091000       0.267637
     9905.894000       0.271080
     9915.716400       0.274544
     9925.558300       0.278028
     9935.419800       0.281534
     9945.300800       0.285060
     9955.201600       0.288606
     9965.122100       0.292172
     9975.062300       0.295758
     9985.022500       0.299364
     9995.002500       0.302989
    10005.002500       0.306634
    10015.022500       0.310297
    10025.062700       0.313980
    10035.122900       0.317681
    10045.203400       0.321401
    10055.304200       0.325139
    10065.425300       0.328895
    10075.566800       0.332669
    10085.728700       0.336461
    10095.911200       0.340270
    10106.114200       0.344096
    10116.337900       0.347939
    10126.582300       0.351799
    10136.847400       0.355675
    10147.133400       0.359567
    10157.440300       0.363475
    10167.768200       0.367399
    10178.117000       0.371338
    10188.487000       0.375292
    10198.878100       0.379261
    10209.290500       0.383245
    10219.724100       0.387242
    10230.179000       0.391254
    10240.655400       0.395280
    10251.153300       0.399319
    10261.672700       0.403371
    10272.213700       0.407436
    10282.776300       0.411513
    10293.360800       0.415603
    10303.967000       0.419704
    10314.595200       0.423817
    10325.245200       0.427941
    10335.917300       0.432077
    10346.611500       0.436223
    10357.327800       0.440379
    10368.066400       0.444545
    10378.827200       0.448720
    10389.610400       0.452906
    10400.416000       0.457100
    10411.244100       0.461302
    10422.094800       0.465513
    10432.968200       0.469732
    10443.864200       0.473958
    10454.783100       0.478191
    10465.724800       0.482432
    10476.689400       0.486678
    10487.677000       0.490932
    10498.687700       0.495190
    10509.721500       0.499454
    10520.778500       0.503723
    10531.858900       0.507997
    10542.962600       0.512275
    10554.089700       0.516557
    10565.240400       0.520843
    10576.414600       0.525131
    10587.612500       0.529423
    10598.834100       0.533716
    10610.079600       0.538012
    10621.348900       0.542309
    10632.642200       0.546608
    10643.959600       0.550907
    10655.301000       0.555207
    10666.666700       0.559507
    10678.056600       0.563806
    10689.470900       0.568104
    10700.909600       0.572402
    10712.372800       0.576698
    10723.860600       0.580991
    10735.373100       0.585283
    10746.910300       0.589572
    10758.472300       0.593857
    10770.059200       0.598139
    10781.671200       0.602416
    10793.308100       0.606690
    10804.970300       0.610959
    10816.657700       0.615222
    10828.370300       0.619479
    10840.108400       0.623731
    10851.871900       0.627976
    10863.661100       0.632214
    10875.475800       0.636445
    10887.316300       0.640668
    10899.182600       0.644884
    10911.074700       0.649090
    10922.992900       0.653288
    10934.937100       0.657476
    10946.907500       0.661655
    10958.904100       0.665823
    10970.927000       0.669981
    10982.976400       0.674128
    10995.052200       0.678263
    11007.154700       0.682386
    11019.283700       0.686498
    11031.439600       0.690597
    11043.622300       0.694682
    11055.832000       0.698754
    11068.068600       0.702813
    11080.332400       0.706857
    11092.623400       0.710887
    11104.941700       0.714901
    11117.287400       0.718900
    11129.660500       0.722883
    11142.061300       0.726850
    11154.489700       0.730801
    11166.945800       0.734734
    11179.429800       0.738650
    11191.941800       0.742548
    11204.481800       0.746428
    11217.049900       0.750289
    11229.646300       0.754132
    11242.270900       0.757955
    11254.924000       0.761759
    11267.605600       0.765542
    11280.315800       0.769305
    11293.054800       0.773047
    11305.822500       0.776768
    11318.619100       0.780467
    11331.444800       0.784145
    11344.299500       0.787800
    11357.183400       0.791432
    11370.096600       0.795042
    11383.039300       0.798628
    11396.011400       0.802191
    11409.013100       0.805730
    11422.044500       0.809244
    11435.105800       0.812734
    11448.196900       0.816198
    11461.318100       0.819637
    11474.469300       0.823051
    11487.650800       0.826438
    11500.862600       0.829800
    11514.104800       0.833134
    11527.377500       0.836442
    11540.680900       0.839722
    11554.015000       0.842975
    11567.380000       0.846200
    11580.775900       0.849397
    11594.202900       0.852566
    11607.661100       0.855705
    11621.150500       0.858816
    11634.671300       0.861898
    11648.223600       0.864949
    11661.807600       0.867972
    11675.423200       0.870964
    11689.070700       0.873925
    11702.750100       0.876856
    11716.461600       0.879757
    11730.205300       0.882626
    11743.981200       0.885464
    11757.789500       0.888270
    11771.630400       0.891045
    11785.503800       0.893787
    11799.410000       0.896497
    11813.349100       0.899175
    11827.321100       0.901820
    11841.326200       0.904433
    11855.364600       0.907012
    11869.436200       0.909558
    11883.541300       0.912071
    11897.680000       0.914550
    11911.852300       0.916995
    11926.058400       0.919406
    11940.298500       0.921783
    11954.572600       0.924126
    11968.880900       0.926434
    11983.223500       0.928708
    11997.600500       0.930947
    12012.012000       0.933151
    12026.458200       0.935320
    12040.939200       0.937454
    12055.455100       0.939552
    12070.006000       0.941616
    12084.592100       0.943644
    12099.213600       0.945636
    12113.870400       0.947592
    12128.562800       0.949513
    12143.290800       0.951398
    12158.054700       0.953247
    12172.854500       0.955060
    12187.690400       0.956837
    12202.562500       0.958577
    12217.471000       0.960282
    12232.415900       0.961950
    12247.397400       0.963582
    12262.415700       0.965178
    12277.470800       0.966737
    12292.563000       0.968260
    12307.692300       0.969747
    12322.858900       0.971197
    12338.062900       0.972611
    12353.304500       0.973988
    12368.583800       0.975329
    12383.900900       0.976633
    12399.256000       0.977902
    12414.649300       0.979134
    12430.080800       0.980329
    12445.550700       0.981488
    12461.059200       0.982611
    12476.606400       0.983698
    12492.192400       0.984749
    12507.817400       0.985763
    12523.481500       0.986742
    12539.185000       0.987685
    12554.927800       0.988592
    12570.710200       0.989463
    12586.532400       0.990298
    12602.394500       0.991098
    12618.296500       0.991863
    12634.238800       0.992592
    12650.221400       0.993286
    12666.244500       0.993945
    12682.308200       0.994568
    12698.412700       0.995157
    12714.558200       0.995712
    12730.744700       0.996231
    12746.972600       0.996717
    12763.241900       0.997168
    12779.552700       0.997585
    12795.905300       0.997968
    12812.299800       0.998318
    12828.736400       0.998633
    12845.215200       0.998916
    12861.736300       0.999165
    12878.300100       0.999382
    12894.906500       0.999565
    12911.555800       0.999717
    12928.248200       0.999835
    12944.983800       0.999922
    12961.762800       0.999977
    12978.585300       1.000000
    12995.451600       0.999992
    13012.361700       0.999952
    13029.316000       0.999882
    13046.314400       0.999781
    13063.357300       0.999650
    13080.444700       0.999488
    13097.576900       0.999296
    13114.754100       0.999075
    13131.976400       0.998825
    13149.243900       0.998546
    13166.556900       0.998237
    13183.915600       0.997901
    13201.320100       0.997536
    13218.770700       0.997143
    13236.267400       0.996723
    13253.810500       0.996275
    13271.400100       0.995801
    13289.036500       0.995300
    13306.719900       0.994772
    13324.450400       0.994219
    13342.228200       0.993640
    13360.053400       0.993036
    13377.926400       0.992406
    13395.847300       0.991752
    13413.816200       0.991074
    13431.833400       0.990372
    13449.899100       0.989646
    13468.013500       0.988897
    13486.176700       0.988125
    13504.388900       0.987331
    13522.650400       0.986515
    13540.961400       0.985677
    13559.322000       0.984817
    13577.732500       0.983936
    13596.193100       0.983035
    13614.703900       0.982114
    13633.265200       0.981172
    13651.877100       0.980212
    13670.540000       0.979232
    13689.253900       0.978233
    13708.019200       0.977216
    13726.836000       0.976181
    13745.704500       0.975129
    13764.624900       0.974060
    13783.597500       0.972974
    13802.622500       0.971871
    13821.700100       0.970753
    13840.830400       0.969619
    13860.013900       0.968470
    13879.250500       0.967307
    13898.540700       0.966129
    13917.884500       0.964937
    13937.282200       0.963732
    13956.734100       0.962514
    13976.240400       0.961284
    13995.801300       0.960041
    14015.417000       0.958787
    14035.087700       0.957521
    14054.813800       0.956244
    14074.595400       0.954957
    14094.432700       0.953659
    14114.326000       0.952352
    14134.275600       0.951036
    14154.281700       0.949711
    14174.344400       0.948378
    14194.464200       0.947036
    14214.641100       0.945687
    14234.875400       0.944331
    14255.167500       0.942969
    14275.517500       0.941600
    14295.925700       0.940225
    14316.392300       0.938844
    14336.917600       0.937459
    14357.501800       0.936069
    14378.145200       0.934674
    14398.848100       0.933276
    14419.610700       0.931875
    14440.433200       0.930470
    14461.316000       0.929063
    14482.259200       0.927654
    14503.263200       0.926243
    14524.328200       0.924830
    14545.454500       0.923417
    14566.642400       0.922003
    14587.892000       0.920589
    14609.203800       0.919175
    14630.577900       0.917761
    14652.014700       0.916349
    14673.514300       0.914938
    14695.077100       0.913528
    14716.703500       0.912121
    14738.393500       0.910716
    14760.147600       0.909314
    14781.966000       0.907915
    14803.849000       0.906520
    14825.796900       0.905129
    14847.809900       0.903742
    14869.888500       0.902359
    14892.032800       0.900982
    14914.243100       0.899610
    14936.519800       0.898243
    14958.863100       0.896883
    14981.273400       0.895529
    15003.750900       0.894181
    15026.296000       0.892841
    15048.909000       0.891507
    15071.590100       0.890182
    15094.339600       0.888864
    15117.158000       0.887554
    15140.045400       0.886253
    15163.002300       0.884961
    15186.028900       0.883677
    15209.125500       0.882403
    15232.292500       0.881139
    15255.530100       0.879884
    15278.838800       0.878640
    15302.218800       0.877406
    15325.670500       0.876182
    15349.194200       0.874970
    15372.790200       0.873768
    15396.458800       0.872578
    15420.200500       0.871399
    15444.015400       0.870233
    15467.904100       0.869078
    15491.866800       0.867935
    15515.903800       0.866805
    15540.015500       0.865687
    15564.202300       0.864581
    15588.464500       0.863489
    15612.802500       0.862410
    15637.216600       0.861344
    15661.707100       0.860291
    15686.274500       0.859252
    15710.919100       0.858227
    15735.641200       0.857215
    15760.441300       0.856217
    15785.319700       0.855234
    15810.276700       0.854264
    15835.312700       0.853308
    15860.428200       0.852367
    15885.623500       0.851440
    15910.899000       0.850528
    15936.255000       0.849630
    15961.691900       0.848746
    15987.210200       0.847878
    16012.810200       0.847023
    16038.492400       0.846184
    16064.257000       0.845359
    16090.104600       0.844548
    16116.035500       0.843753
    16142.050000       0.842972
    16168.148700       0.842206
    16194.332000       0.841454
    16220.600200       0.840717
    16246.953700       0.839994
    16273.393000       0.839286
    16299.918500       0.838592
    16326.530600       0.837913
    16353.229800       0.837248
    16380.016400       0.836597
    16406.890900       0.835960
    16433.853700       0.835337
    16460.905300       0.834728
    16488.046200       0.834132
    16515.276600       0.833550
    16542.597200       0.832981
    16570.008300       0.832426
    16597.510400       0.831884
    16625.103900       0.831355
    16652.789300       0.830838
    16680.567100       0.830334
    16708.437800       0.829842
    16736.401700       0.829362
    16764.459300       0.828894
    16792.611300       0.828437
    16820.857900       0.827992
    16849.199700       0.827558
    16877.637100       0.827135
    16906.170800       0.826722
    16934.801000       0.826320
    16963.528400       0.825928
    16992.353400       0.825545
    17021.276600       0.825171
    17050.298400       0.824807
    17079.419300       0.824451
    17108.639900       0.824103
    17137.960600       0.823764
    17167.382000       0.823431
    17196.904600       0.823106
    17226.528900       0.822788
    17256.255400       0.822477
    17286.084700       0.822171
