39,   39, MVIRI VIS channel from srf_MET7_2002168_2002169_1801-Release_S10EE_10.dat
Number of data points:
793
Wavenumber (cm-1)   Filter response
     8442.380800       0.000000
     8449.514200       0.000000
     8456.659600       0.000004
     8463.817200       0.000054
     8470.986900       0.000159
     8478.168700       0.000318
     8485.362700       0.000529
     8492.569000       0.000791
     8499.787500       0.001102
     8507.018300       0.001461
     8514.261400       0.001867
     8521.516800       0.002317
     8528.784600       0.002812
     8536.064900       0.003349
     8543.357500       0.003928
     8550.662700       0.004547
     8557.980300       0.005205
     8565.310500       0.005902
     8572.653200       0.006635
     8580.008600       0.007405
     8587.376600       0.008210
     8594.757200       0.009050
     8602.150500       0.009923
     8609.556600       0.010829
     8616.975400       0.011767
     8624.407100       0.012736
     8631.851500       0.013735
     8639.308900       0.014764
     8646.779100       0.015823
     8654.262200       0.016909
     8661.758300       0.018024
     8669.267400       0.019166
     8676.789600       0.020335
     8684.324800       0.021530
     8691.873100       0.022750
     8699.434500       0.023997
     8707.009100       0.025268
     8714.596900       0.026563
     8722.198000       0.027883
     8729.812300       0.029226
     8737.439900       0.030593
     8745.080900       0.031982
     8752.735200       0.033395
     8760.403000       0.034830
     8768.084200       0.036287
     8775.778900       0.037766
     8783.487000       0.039267
     8791.208800       0.040790
     8798.944100       0.042334
     8806.693100       0.043899
     8814.455700       0.045485
     8822.232000       0.047092
     8830.022100       0.048720
     8837.825900       0.050369
     8845.643500       0.052038
     8853.475000       0.053728
     8861.320300       0.055438
     8869.179600       0.057168
     8877.052800       0.058919
     8884.940000       0.060690
     8892.841300       0.062481
     8900.756600       0.064292
     8908.686000       0.066124
     8916.629500       0.067976
     8924.587200       0.069848
     8932.559200       0.071740
     8940.545400       0.073653
     8948.545900       0.075585
     8956.560700       0.077538
     8964.589900       0.079512
     8972.633500       0.081506
     8980.691500       0.083520
     8988.764000       0.085555
     8996.851100       0.087610
     9004.952700       0.089687
     9013.068900       0.091783
     9021.199800       0.093901
     9029.345400       0.096040
     9037.505600       0.098199
     9045.680700       0.100380
     9053.870500       0.102581
     9062.075200       0.104804
     9070.294800       0.107048
     9078.529300       0.109314
     9086.778700       0.111601
     9095.043200       0.113910
     9103.322700       0.116240
     9111.617300       0.118592
     9119.927000       0.120966
     9128.251900       0.123362
     9136.592100       0.125780
     9144.947400       0.128220
     9153.318100       0.130683
     9161.704100       0.133168
     9170.105500       0.135675
     9178.522300       0.138205
     9186.954500       0.140757
     9195.402300       0.143332
     9203.865600       0.145929
     9212.344500       0.148550
     9220.839100       0.151193
     9229.349300       0.153860
     9237.875300       0.156549
     9246.417000       0.159261
     9254.974500       0.161997
     9263.547900       0.164756
     9272.137200       0.167538
     9280.742500       0.170344
     9289.363700       0.173172
     9298.000900       0.176025
     9306.654300       0.178901
     9315.323700       0.181800
     9324.009300       0.184722
     9332.711200       0.187669
     9341.429200       0.190638
     9350.163600       0.193632
     9358.914400       0.196648
     9367.681500       0.199689
     9376.465100       0.202753
     9385.265100       0.205840
     9394.081700       0.208952
     9402.914900       0.212086
     9411.764700       0.215244
     9420.631200       0.218426
     9429.514400       0.221631
     9438.414300       0.224859
     9447.331100       0.228111
     9456.264800       0.231386
     9465.215300       0.234684
     9474.182900       0.238006
     9483.167400       0.241350
     9492.169000       0.244718
     9501.187600       0.248108
     9510.223500       0.251522
     9519.276500       0.254958
     9528.346800       0.258416
     9537.434400       0.261898
     9546.539400       0.265401
     9555.661700       0.268927
     9564.801500       0.272475
     9573.958800       0.276045
     9583.133700       0.279638
     9592.326100       0.283251
     9601.536200       0.286887
     9610.764100       0.290543
     9620.009600       0.294221
     9629.273000       0.297921
     9638.554200       0.301640
     9647.853400       0.305381
     9657.170400       0.309142
     9666.505600       0.312924
     9675.858700       0.316726
     9685.230000       0.320548
     9694.619500       0.324389
     9704.027200       0.328250
     9713.453100       0.332130
     9722.897400       0.336030
     9732.360100       0.339948
     9741.841200       0.343884
     9751.340800       0.347839
     9760.859000       0.351812
     9770.395700       0.355803
     9779.951100       0.359811
     9789.525200       0.363837
     9799.118100       0.367879
     9808.729800       0.371938
     9818.360300       0.376014
     9828.009800       0.380105
     9837.678300       0.384213
     9847.365800       0.388336
     9857.072400       0.392473
     9866.798200       0.396627
     9876.543200       0.400794
     9886.307500       0.404975
     9896.091000       0.409171
     9905.894000       0.413380
     9915.716400       0.417602
     9925.558300       0.421837
     9935.419800       0.426084
     9945.300800       0.430344
     9955.201600       0.434615
     9965.122100       0.438898
     9975.062300       0.443192
     9985.022500       0.447496
     9995.002500       0.451811
    10005.002500       0.456136
    10015.022500       0.460470
    10025.062700       0.464813
    10035.122900       0.469165
    10045.203400       0.473525
    10055.304200       0.477894
    10065.425300       0.482270
    10075.566800       0.486653
    10085.728700       0.491042
    10095.911200       0.495439
    10106.114200       0.499840
    10116.337900       0.504248
    10126.582300       0.508660
    10136.847400       0.513077
    10147.133400       0.517498
    10157.440300       0.521923
    10167.768200       0.526352
    10178.117000       0.530783
    10188.487000       0.535216
    10198.878100       0.539652
    10209.290500       0.544089
    10219.724100       0.548527
    10230.179000       0.552966
    10240.655400       0.557406
    10251.153300       0.561845
    10261.672700       0.566283
    10272.213700       0.570720
    10282.776300       0.575156
    10293.360800       0.579590
    10303.967000       0.584021
    10314.595200       0.588449
    10325.245200       0.592874
    10335.917300       0.597295
    10346.611500       0.601711
    10357.327800       0.606123
    10368.066400       0.610530
    10378.827200       0.614930
    10389.610400       0.619325
    10400.416000       0.623713
    10411.244100       0.628094
    10422.094800       0.632468
    10432.968200       0.636833
    10443.864200       0.641190
    10454.783100       0.645538
    10465.724800       0.649877
    10476.689400       0.654206
    10487.677000       0.658524
    10498.687700       0.662832
    10509.721500       0.667128
    10520.778500       0.671413
    10531.858900       0.675686
    10542.962600       0.679946
    10554.089700       0.684193
    10565.240400       0.688426
    10576.414600       0.692646
    10587.612500       0.696851
    10598.834100       0.701041
    10610.079600       0.705216
    10621.348900       0.709375
    10632.642200       0.713518
    10643.959600       0.717645
    10655.301000       0.721754
    10666.666700       0.725846
    10678.056600       0.729920
    10689.470900       0.733976
    10700.909600       0.738013
    10712.372800       0.742031
    10723.860600       0.746029
    10735.373100       0.750007
    10746.910300       0.753964
    10758.472300       0.757901
    10770.059200       0.761816
    10781.671200       0.765710
    10793.308100       0.769582
    10804.970300       0.773431
    10816.657700       0.777257
    10828.370300       0.781060
    10840.108400       0.784839
    10851.871900       0.788594
    10863.661100       0.792325
    10875.475800       0.796031
    10887.316300       0.799712
    10899.182600       0.803367
    10911.074700       0.806997
    10922.992900       0.810600
    10934.937100       0.814176
    10946.907500       0.817725
    10958.904100       0.821247
    10970.927000       0.824742
    10982.976400       0.828208
    10995.052200       0.831646
    11007.154700       0.835055
    11019.283700       0.838436
    11031.439600       0.841787
    11043.622300       0.845108
    11055.832000       0.848399
    11068.068600       0.851660
    11080.332400       0.854891
    11092.623400       0.858090
    11104.941700       0.861258
    11117.287400       0.864395
    11129.660500       0.867501
    11142.061300       0.870574
    11154.489700       0.873615
    11166.945800       0.876623
    11179.429800       0.879599
    11191.941800       0.882542
    11204.481800       0.885451
    11217.049900       0.888327
    11229.646300       0.891169
    11242.270900       0.893977
    11254.924000       0.896751
    11267.605600       0.899490
    11280.315800       0.902195
    11293.054800       0.904865
    11305.822500       0.907499
    11318.619100       0.910099
    11331.444800       0.912663
    11344.299500       0.915192
    11357.183400       0.917685
    11370.096600       0.920142
    11383.039300       0.922562
    11396.011400       0.924947
    11409.013100       0.927295
    11422.044500       0.929606
    11435.105800       0.931881
    11448.196900       0.934119
    11461.318100       0.936320
    11474.469300       0.938484
    11487.650800       0.940611
    11500.862600       0.942701
    11514.104800       0.944753
    11527.377500       0.946768
    11540.680900       0.948745
    11554.015000       0.950684
    11567.380000       0.952586
    11580.775900       0.954450
    11594.202900       0.956276
    11607.661100       0.958064
    11621.150500       0.959815
    11634.671300       0.961527
    11648.223600       0.963202
    11661.807600       0.964838
    11675.423200       0.966437
    11689.070700       0.967997
    11702.750100       0.969519
    11716.461600       0.971003
    11730.205300       0.972449
    11743.981200       0.973858
    11757.789500       0.975228
    11771.630400       0.976560
    11785.503800       0.977854
    11799.410000       0.979110
    11813.349100       0.980329
    11827.321100       0.981509
    11841.326200       0.982652
    11855.364600       0.983758
    11869.436200       0.984825
    11883.541300       0.985855
    11897.680000       0.986848
    11911.852300       0.987803
    11926.058400       0.988721
    11940.298500       0.989602
    11954.572600       0.990446
    11968.880900       0.991253
    11983.223500       0.992023
    11997.600500       0.992757
    12012.012000       0.993454
    12026.458200       0.994115
    12040.939200       0.994740
    12055.455100       0.995328
    12070.006000       0.995881
    12084.592100       0.996398
    12099.213600       0.996879
    12113.870400       0.997325
    12128.562800       0.997736
    12143.290800       0.998112
    12158.054700       0.998453
    12172.854500       0.998760
    12187.690400       0.999032
    12202.562500       0.999270
    12217.471000       0.999474
    12232.415900       0.999644
    12247.397400       0.999781
    12262.415700       0.999885
    12277.470800       0.999956
    12292.563000       0.999994
    12307.692300       1.000000
    12322.858900       0.999974
    12338.062900       0.999915
    12353.304500       0.999825
    12368.583800       0.999704
    12383.900900       0.999551
    12399.256000       0.999368
    12414.649300       0.999154
    12430.080800       0.998910
    12445.550700       0.998636
    12461.059200       0.998333
    12476.606400       0.998000
    12492.192400       0.997638
    12507.817400       0.997248
    12523.481500       0.996829
    12539.185000       0.996383
    12554.927800       0.995909
    12570.710200       0.995407
    12586.532400       0.994879
    12602.394500       0.994324
    12618.296500       0.993742
    12634.238800       0.993135
    12650.221400       0.992503
    12666.244500       0.991845
    12682.308200       0.991162
    12698.412700       0.990455
    12714.558200       0.989724
    12730.744700       0.988969
    12746.972600       0.988191
    12763.241900       0.987391
    12779.552700       0.986567
    12795.905300       0.985722
    12812.299800       0.984855
    12828.736400       0.983966
    12845.215200       0.983057
    12861.736300       0.982128
    12878.300100       0.981178
    12894.906500       0.980208
    12911.555800       0.979220
    12928.248200       0.978212
    12944.983800       0.977186
    12961.762800       0.976142
    12978.585300       0.975081
    12995.451600       0.974003
    13012.361700       0.972907
    13029.316000       0.971796
    13046.314400       0.970669
    13063.357300       0.969526
    13080.444700       0.968369
    13097.576900       0.967196
    13114.754100       0.966010
    13131.976400       0.964810
    13149.243900       0.963598
    13166.556900       0.962372
    13183.915600       0.961134
    13201.320100       0.959884
    13218.770700       0.958623
    13236.267400       0.957351
    13253.810500       0.956068
    13271.400100       0.954775
    13289.036500       0.953473
    13306.719900       0.952161
    13324.450400       0.950841
    13342.228200       0.949513
    13360.053400       0.948177
    13377.926400       0.946833
    13395.847300       0.945483
    13413.816200       0.944126
    13431.833400       0.942763
    13449.899100       0.941395
    13468.013500       0.940021
    13486.176700       0.938643
    13504.388900       0.937261
    13522.650400       0.935875
    13540.961400       0.934486
    13559.322000       0.933094
    13577.732500       0.931699
    13596.193100       0.930303
    13614.703900       0.928905
    13633.265200       0.927506
    13651.877100       0.926106
    13670.540000       0.924706
    13689.253900       0.923306
    13708.019200       0.921907
    13726.836000       0.920509
    13745.704500       0.919113
    13764.624900       0.917718
    13783.597500       0.916326
    13802.622500       0.914937
    13821.700100       0.913551
    13840.830400       0.912169
    13860.013900       0.910790
    13879.250500       0.909416
    13898.540700       0.908047
    13917.884500       0.906684
    13937.282200       0.905326
    13956.734100       0.903974
    13976.240400       0.902628
    13995.801300       0.901289
    14015.417000       0.899958
    14035.087700       0.898634
    14054.813800       0.897318
    14074.595400       0.896011
    14094.432700       0.894712
    14114.326000       0.893423
    14134.275600       0.892143
    14154.281700       0.890872
    14174.344400       0.889612
    14194.464200       0.888363
    14214.641100       0.887124
    14234.875400       0.885897
    14255.167500       0.884681
    14275.517500       0.883477
    14295.925700       0.882285
    14316.392300       0.881106
    14336.917600       0.879939
    14357.501800       0.878786
    14378.145200       0.877646
    14398.848100       0.876520
    14419.610700       0.875408
    14440.433200       0.874310
    14461.316000       0.873227
    14482.259200       0.872159
    14503.263200       0.871106
    14524.328200       0.870068
    14545.454500       0.869046
    14566.642400       0.868040
    14587.892000       0.867050
    14609.203800       0.866076
    14630.577900       0.865119
    14652.014700       0.864179
    14673.514300       0.863256
    14695.077100       0.862350
    14716.703500       0.861461
    14738.393500       0.860591
    14760.147600       0.859737
    14781.966000       0.858902
    14803.849000       0.858085
    14825.796900       0.857287
    14847.809900       0.856507
    14869.888500       0.855745
    14892.032800       0.855003
    14914.243100       0.854279
    14936.519800       0.853574
    14958.863100       0.852888
    14981.273400       0.852222
    15003.750900       0.851575
    15026.296000       0.850947
    15048.909000       0.850339
    15071.590100       0.849751
    15094.339600       0.849182
    15117.158000       0.848633
    15140.045400       0.848104
    15163.002300       0.847594
    15186.028900       0.847104
    15209.125500       0.846635
    15232.292500       0.846185
    15255.530100       0.845755
    15278.838800       0.845344
    15302.218800       0.844954
    15325.670500       0.844584
    15349.194200       0.844233
    15372.790200       0.843902
    15396.458800       0.843591
    15420.200500       0.843300
    15444.015400       0.843028
    15467.904100       0.842775
    15491.866800       0.842542
    15515.903800       0.842329
    15540.015500       0.842135
    15564.202300       0.841959
    15588.464500       0.841803
    15612.802500       0.841666
    15637.216600       0.841547
    15661.707100       0.841447
    15686.274500       0.841366
    15710.919100       0.841302
    15735.641200       0.841257
    15760.441300       0.841229
    15785.319700       0.841219
    15810.276700       0.841227
    15835.312700       0.841252
    15860.428200       0.841294
    15885.623500       0.841352
    15910.899000       0.841428
    15936.255000       0.841519
    15961.691900       0.841626
    15987.210200       0.841749
    16012.810200       0.841888
    16038.492400       0.842041
    16064.257000       0.842209
    16090.104600       0.842392
    16116.035500       0.842589
    16142.050000       0.842800
    16168.148700       0.843024
    16194.332000       0.843261
    16220.600200       0.843512
    16246.953700       0.843774
    16273.393000       0.844048
    16299.918500       0.844334
    16326.530600       0.844631
    16353.229800       0.844939
    16380.016400       0.845257
    16406.890900       0.845585
    16433.853700       0.845923
    16460.905300       0.846269
    16488.046200       0.846624
    16515.276600       0.846987
    16542.597200       0.847358
    16570.008300       0.847736
    16597.510400       0.848120
    16625.103900       0.848510
    16652.789300       0.848906
    16680.567100       0.849307
    16708.437800       0.849712
    16736.401700       0.850121
    16764.459300       0.850533
    16792.611300       0.850949
    16820.857900       0.851366
    16849.199700       0.851785
    16877.637100       0.852206
    16906.170800       0.852626
    16934.801000       0.853047
    16963.528400       0.853466
    16992.353400       0.853885
    17021.276600       0.854301
    17050.298400       0.854714
    17079.419300       0.855125
    17108.639900       0.855531
    17137.960600       0.855932
    17167.382000       0.856329
    17196.904600       0.856719
    17226.528900       0.857102
    17256.255400       0.857478
    17286.084700       0.857846
    17316.017300       0.858206
    17346.053800       0.858555
    17376.194600       0.858895
    17406.440400       0.859223
    17436.791600       0.859540
    17467.248900       0.859844
    17497.812800       0.860135
    17528.483800       0.860412
    17559.262500       0.860674
    17590.149500       0.860921
    17621.145400       0.861152
    17652.250700       0.861365
    17683.466000       0.861561
