4,   Trishna TIR channel 4 SRF from file ISRF_TIR_V3_121120.txt sent by Emilie Delogu (CNES) April 2021
Number of data points:
3631
Wavenumber (cm-1)   Filter response
      732.010800       0.000186
      732.064400       0.000187
      732.118000       0.000187
      732.171600       0.000187
      732.225200       0.000188
      732.278900       0.000188
      732.332500       0.000188
      732.386100       0.000189
      732.439800       0.000189
      732.493400       0.000189
      732.547100       0.000190
      732.600700       0.000190
      732.654400       0.000190
      732.708100       0.000191
      732.761800       0.000191
      732.815500       0.000191
      732.869200       0.000192
      732.922900       0.000192
      732.976600       0.000192
      733.030300       0.000193
      733.084100       0.000193
      733.137800       0.000193
      733.191600       0.000194
      733.245300       0.000194
      733.299100       0.000194
      733.352900       0.000195
      733.406700       0.000195
      733.460500       0.000195
      733.514300       0.000196
      733.568100       0.000196
      733.621900       0.000196
      733.675700       0.000197
      733.729500       0.000197
      733.783400       0.000197
      733.837200       0.000198
      733.891100       0.000198
      733.945000       0.000198
      733.998800       0.000199
      734.052700       0.000199
      734.106600       0.000200
      734.160500       0.000200
      734.214400       0.000200
      734.268300       0.000201
      734.322200       0.000201
      734.376100       0.000201
      734.430100       0.000202
      734.484000       0.000202
      734.538000       0.000202
      734.591900       0.000203
      734.645900       0.000203
      734.699900       0.000204
      734.753900       0.000204
      734.807800       0.000204
      734.861800       0.000205
      734.915900       0.000205
      734.969900       0.000205
      735.023900       0.000206
      735.077900       0.000206
      735.132000       0.000206
      735.186000       0.000207
      735.240100       0.000207
      735.294100       0.000208
      735.348200       0.000208
      735.402300       0.000208
      735.456400       0.000209
      735.510400       0.000209
      735.564500       0.000210
      735.618700       0.000210
      735.672800       0.000210
      735.726900       0.000211
      735.781000       0.000211
      735.835200       0.000212
      735.889300       0.000212
      735.943500       0.000212
      735.997600       0.000213
      736.051800       0.000213
      736.106000       0.000214
      736.160200       0.000214
      736.214400       0.000214
      736.268600       0.000215
      736.322800       0.000215
      736.377000       0.000216
      736.431300       0.000216
      736.485500       0.000216
      736.539700       0.000217
      736.594000       0.000217
      736.648300       0.000218
      736.702500       0.000218
      736.756800       0.000218
      736.811100       0.000219
      736.865400       0.000219
      736.919700       0.000220
      736.974000       0.000220
      737.028300       0.000221
      737.082600       0.000221
      737.137000       0.000221
      737.191300       0.000222
      737.245700       0.000222
      737.300000       0.000223
      737.354400       0.000223
      737.408700       0.000224
      737.463100       0.000224
      737.517500       0.000224
      737.571900       0.000225
      737.626300       0.000225
      737.680700       0.000226
      737.735200       0.000226
      737.789600       0.000227
      737.844000       0.000227
      737.898500       0.000227
      737.952900       0.000228
      738.007400       0.000228
      738.061800       0.000229
      738.116300       0.000229
      738.170800       0.000230
      738.225300       0.000230
      738.279800       0.000231
      738.334300       0.000231
      738.388800       0.000232
      738.443400       0.000232
      738.497900       0.000232
      738.552400       0.000233
      738.607000       0.000233
      738.661500       0.000234
      738.716100       0.000234
      738.770700       0.000235
      738.825300       0.000235
      738.879900       0.000236
      738.934500       0.000236
      738.989100       0.000237
      739.043700       0.000237
      739.098300       0.000238
      739.152900       0.000238
      739.207600       0.000239
      739.262200       0.000239
      739.316900       0.000240
      739.371500       0.000240
      739.426200       0.000241
      739.480900       0.000241
      739.535600       0.000242
      739.590300       0.000242
      739.645000       0.000243
      739.699700       0.000243
      739.754400       0.000243
      739.809100       0.000244
      739.863900       0.000244
      739.918600       0.000245
      739.973400       0.000245
      740.028100       0.000246
      740.082900       0.000246
      740.137700       0.000247
      740.192500       0.000247
      740.247200       0.000248
      740.302000       0.000249
      740.356900       0.000249
      740.411700       0.000250
      740.466500       0.000250
      740.521300       0.000251
      740.576200       0.000251
      740.631000       0.000252
      740.685900       0.000252
      740.740700       0.000253
      740.795600       0.000253
      740.850500       0.000254
      740.905400       0.000254
      740.960300       0.000255
      741.015200       0.000255
      741.070100       0.000256
      741.125000       0.000256
      741.180000       0.000257
      741.234900       0.000257
      741.289800       0.000258
      741.344800       0.000259
      741.399800       0.000259
      741.454700       0.000260
      741.509700       0.000260
      741.564700       0.000261
      741.619700       0.000261
      741.674700       0.000262
      741.729700       0.000262
      741.784700       0.000263
      741.839800       0.000264
      741.894800       0.000264
      741.949800       0.000265
      742.004900       0.000265
      742.060000       0.000266
      742.115000       0.000266
      742.170100       0.000267
      742.225200       0.000268
      742.280300       0.000268
      742.335400       0.000269
      742.390500       0.000269
      742.445600       0.000270
      742.500700       0.000271
      742.555900       0.000271
      742.611000       0.000272
      742.666200       0.000272
      742.721300       0.000273
      742.776500       0.000273
      742.831700       0.000274
      742.886900       0.000275
      742.942100       0.000275
      742.997300       0.000276
      743.052500       0.000276
      743.107700       0.000277
      743.162900       0.000278
      743.218100       0.000278
      743.273400       0.000279
      743.328600       0.000279
      743.383900       0.000280
      743.439100       0.000281
      743.494400       0.000281
      743.549700       0.000282
      743.605000       0.000283
      743.660300       0.000283
      743.715600       0.000284
      743.770900       0.000284
      743.826200       0.000285
      743.881600       0.000286
      743.936900       0.000286
      743.992300       0.000287
      744.047600       0.000288
      744.103000       0.000288
      744.158400       0.000289
      744.213700       0.000290
      744.269100       0.000290
      744.324500       0.000291
      744.379900       0.000292
      744.435300       0.000292
      744.490800       0.000293
      744.546200       0.000294
      744.601600       0.000294
      744.657100       0.000295
      744.712500       0.000296
      744.768000       0.000296
      744.823500       0.000297
      744.879000       0.000298
      744.934400       0.000298
      744.989900       0.000299
      745.045400       0.000300
      745.101000       0.000300
      745.156500       0.000301
      745.212000       0.000302
      745.267600       0.000303
      745.323100       0.000303
      745.378700       0.000304
      745.434200       0.000305
      745.489800       0.000305
      745.545400       0.000306
      745.601000       0.000307
      745.656600       0.000307
      745.712200       0.000308
      745.767800       0.000309
      745.823400       0.000310
      745.879000       0.000310
      745.934700       0.000311
      745.990300       0.000312
      746.046000       0.000313
      746.101600       0.000313
      746.157300       0.000314
      746.213000       0.000315
      746.268700       0.000315
      746.324400       0.000316
      746.380100       0.000317
      746.435800       0.000318
      746.491500       0.000318
      746.547200       0.000319
      746.603000       0.000320
      746.658700       0.000321
      746.714500       0.000322
      746.770200       0.000322
      746.826000       0.000323
      746.881800       0.000324
      746.937600       0.000325
      746.993400       0.000325
      747.049200       0.000326
      747.105000       0.000327
      747.160800       0.000328
      747.216600       0.000329
      747.272500       0.000329
      747.328300       0.000330
      747.384200       0.000331
      747.440000       0.000332
      747.495900       0.000333
      747.551800       0.000333
      747.607700       0.000334
      747.663600       0.000335
      747.719500       0.000336
      747.775400       0.000337
      747.831300       0.000337
      747.887200       0.000338
      747.943200       0.000339
      747.999100       0.000340
      748.055100       0.000341
      748.111000       0.000342
      748.167000       0.000342
      748.223000       0.000343
      748.279000       0.000344
      748.335000       0.000345
      748.391000       0.000346
      748.447000       0.000347
      748.503000       0.000348
      748.559000       0.000348
      748.615100       0.000349
      748.671100       0.000350
      748.727200       0.000351
      748.783200       0.000352
      748.839300       0.000353
      748.895400       0.000354
      748.951500       0.000354
      749.007600       0.000355
      749.063700       0.000356
      749.119800       0.000357
      749.175900       0.000358
      749.232000       0.000359
      749.288200       0.000360
      749.344300       0.000361
      749.400500       0.000362
      749.456600       0.000363
      749.512800       0.000363
      749.569000       0.000364
      749.625200       0.000365
      749.681400       0.000366
      749.737600       0.000367
      749.793800       0.000368
      749.850000       0.000369
      749.906300       0.000370
      749.962500       0.000371
      750.018800       0.000372
      750.075000       0.000373
      750.131300       0.000374
      750.187500       0.000375
      750.243800       0.000376
      750.300100       0.000377
      750.356400       0.000378
      750.412700       0.000379
      750.469000       0.000380
      750.525400       0.000381
      750.581700       0.000382
      750.638000       0.000383
      750.694400       0.000384
      750.750800       0.000385
      750.807100       0.000386
      750.863500       0.000387
      750.919900       0.000388
      750.976300       0.000389
      751.032700       0.000390
      751.089100       0.000391
      751.145500       0.000392
      751.201900       0.000393
      751.258400       0.000394
      751.314800       0.000395
      751.371300       0.000396
      751.427700       0.000397
      751.484200       0.000398
      751.540700       0.000399
      751.597100       0.000400
      751.653600       0.000401
      751.710100       0.000402
      751.766700       0.000403
      751.823200       0.000404
      751.879700       0.000405
      751.936200       0.000406
      751.992800       0.000407
      752.049300       0.000408
      752.105900       0.000410
      752.162500       0.000411
      752.219000       0.000412
      752.275600       0.000413
      752.332200       0.000414
      752.388800       0.000415
      752.445400       0.000416
      752.502100       0.000417
      752.558700       0.000418
      752.615300       0.000420
      752.672000       0.000421
      752.728600       0.000422
      752.785300       0.000423
      752.842000       0.000424
      752.898700       0.000425
      752.955300       0.000426
      753.012000       0.000428
      753.068800       0.000429
      753.125500       0.000430
      753.182200       0.000431
      753.238900       0.000432
      753.295700       0.000433
      753.352400       0.000435
      753.409200       0.000436
      753.465900       0.000437
      753.522700       0.000438
      753.579500       0.000439
      753.636300       0.000441
      753.693100       0.000442
      753.749900       0.000443
      753.806700       0.000444
      753.863600       0.000445
      753.920400       0.000447
      753.977200       0.000448
      754.034100       0.000449
      754.090900       0.000450
      754.147800       0.000452
      754.204700       0.000453
      754.261600       0.000454
      754.318500       0.000455
      754.375400       0.000457
      754.432300       0.000458
      754.489200       0.000459
      754.546100       0.000460
      754.603100       0.000462
      754.660000       0.000463
      754.717000       0.000464
      754.773900       0.000466
      754.830900       0.000467
      754.887900       0.000468
      754.944900       0.000470
      755.001900       0.000471
      755.058900       0.000472
      755.115900       0.000474
      755.172900       0.000475
      755.230000       0.000476
      755.287000       0.000478
      755.344100       0.000479
      755.401100       0.000480
      755.458200       0.000482
      755.515300       0.000483
      755.572300       0.000485
      755.629400       0.000486
      755.686500       0.000487
      755.743700       0.000489
      755.800800       0.000490
      755.857900       0.000492
      755.915000       0.000493
      755.972200       0.000494
      756.029300       0.000496
      756.086500       0.000497
      756.143700       0.000499
      756.200800       0.000500
      756.258000       0.000502
      756.315200       0.000503
      756.372400       0.000504
      756.429700       0.000506
      756.486900       0.000507
      756.544100       0.000509
      756.601300       0.000510
      756.658600       0.000512
      756.715900       0.000513
      756.773100       0.000515
      756.830400       0.000516
      756.887700       0.000518
      756.945000       0.000519
      757.002300       0.000521
      757.059600       0.000522
      757.116900       0.000524
      757.174200       0.000525
      757.231600       0.000527
      757.288900       0.000528
      757.346300       0.000530
      757.403600       0.000531
      757.461000       0.000533
      757.518400       0.000535
      757.575800       0.000536
      757.633200       0.000538
      757.690600       0.000539
      757.748000       0.000541
      757.805400       0.000543
      757.862800       0.000544
      757.920300       0.000546
      757.977700       0.000547
      758.035200       0.000549
      758.092600       0.000551
      758.150100       0.000552
      758.207600       0.000554
      758.265100       0.000556
      758.322600       0.000557
      758.380100       0.000559
      758.437600       0.000561
      758.495100       0.000562
      758.552700       0.000564
      758.610200       0.000566
      758.667800       0.000568
      758.725300       0.000569
      758.782900       0.000571
      758.840500       0.000573
      758.898100       0.000574
      758.955700       0.000576
      759.013300       0.000578
      759.070900       0.000580
      759.128500       0.000581
      759.186200       0.000583
      759.243800       0.000585
      759.301400       0.000587
      759.359100       0.000589
      759.416800       0.000590
      759.474400       0.000592
      759.532100       0.000594
      759.589800       0.000596
      759.647500       0.000598
      759.705200       0.000599
      759.763000       0.000601
      759.820700       0.000603
      759.878400       0.000605
      759.936200       0.000607
      759.993900       0.000609
      760.051700       0.000611
      760.109500       0.000612
      760.167200       0.000614
      760.225000       0.000616
      760.282800       0.000618
      760.340600       0.000620
      760.398400       0.000622
      760.456300       0.000624
      760.514100       0.000626
      760.572000       0.000628
      760.629800       0.000630
      760.687700       0.000632
      760.745500       0.000634
      760.803400       0.000636
      760.861300       0.000638
      760.919200       0.000640
      760.977100       0.000642
      761.035000       0.000644
      761.092900       0.000646
      761.150900       0.000648
      761.208800       0.000650
      761.266700       0.000652
      761.324700       0.000654
      761.382700       0.000656
      761.440600       0.000658
      761.498600       0.000660
      761.556600       0.000662
      761.614600       0.000664
      761.672600       0.000667
      761.730700       0.000669
      761.788700       0.000671
      761.846700       0.000673
      761.904800       0.000675
      761.962800       0.000677
      762.020900       0.000679
      762.079000       0.000682
      762.137000       0.000684
      762.195100       0.000686
      762.253200       0.000688
      762.311300       0.000690
      762.369400       0.000693
      762.427600       0.000695
      762.485700       0.000697
      762.543800       0.000699
      762.602000       0.000702
      762.660200       0.000704
      762.718300       0.000706
      762.776500       0.000708
      762.834700       0.000711
      762.892900       0.000713
      762.951100       0.000715
      763.009300       0.000718
      763.067500       0.000720
      763.125800       0.000722
      763.184000       0.000725
      763.242300       0.000727
      763.300500       0.000729
      763.358800       0.000732
      763.417100       0.000734
      763.475300       0.000736
      763.533600       0.000739
      763.591900       0.000741
      763.650200       0.000744
      763.708600       0.000746
      763.766900       0.000749
      763.825200       0.000751
      763.883600       0.000754
      763.941900       0.000756
      764.000300       0.000759
      764.058700       0.000761
      764.117100       0.000764
      764.175500       0.000766
      764.233900       0.000769
      764.292300       0.000772
      764.350700       0.000774
      764.409100       0.000777
      764.467500       0.000779
      764.526000       0.000782
      764.584400       0.000785
      764.642900       0.000787
      764.701400       0.000790
      764.759900       0.000792
      764.818400       0.000795
      764.876900       0.000798
      764.935400       0.000801
      764.993900       0.000803
      765.052400       0.000806
      765.110900       0.000809
      765.169500       0.000811
      765.228000       0.000814
      765.286600       0.000817
      765.345200       0.000820
      765.403800       0.000822
      765.462300       0.000825
      765.520900       0.000828
      765.579500       0.000831
      765.638200       0.000834
      765.696800       0.000836
      765.755400       0.000839
      765.814100       0.000842
      765.872700       0.000845
      765.931400       0.000848
      765.990000       0.000851
      766.048700       0.000854
      766.107400       0.000857
      766.166100       0.000859
      766.224800       0.000862
      766.283500       0.000865
      766.342200       0.000868
      766.401000       0.000871
      766.459700       0.000874
      766.518500       0.000878
      766.577200       0.000881
      766.636000       0.000884
      766.694800       0.000887
