59,   59, MVIRI VIS channel from srf_MET5_1998213_1998214_1801-Release_S10EL_10.dat
Number of data points:
806
Wavenumber (cm-1)   Filter response
     8350.730700       0.000000
     8357.710000       0.000000
     8364.701000       0.000000
     8371.703600       0.000002
     8378.718100       0.000004
     8385.744200       0.000009
     8392.782200       0.000016
     8399.832000       0.000027
     8406.893700       0.000041
     8413.967200       0.000060
     8421.052600       0.000083
     8428.150000       0.000111
     8435.259400       0.000145
     8442.380800       0.000185
     8449.514200       0.000231
     8456.659600       0.000284
     8463.817200       0.000344
     8470.986900       0.000412
     8478.168700       0.000488
     8485.362700       0.000573
     8492.569000       0.000666
     8499.787500       0.000768
     8507.018300       0.000879
     8514.261400       0.001000
     8521.516800       0.001131
     8528.784600       0.001273
     8536.064900       0.001424
     8543.357500       0.001587
     8550.662700       0.001760
     8557.980300       0.001945
     8565.310500       0.002142
     8572.653200       0.002350
     8580.008600       0.002570
     8587.376600       0.002803
     8594.757200       0.003048
     8602.150500       0.003305
     8609.556600       0.003576
     8616.975400       0.003860
     8624.407100       0.004156
     8631.851500       0.004467
     8639.308900       0.004791
     8646.779100       0.005128
     8654.262200       0.005480
     8661.758300       0.005846
     8669.267400       0.006226
     8676.789600       0.006621
     8684.324800       0.007030
     8691.873100       0.007454
     8699.434500       0.007893
     8707.009100       0.008347
     8714.596900       0.008816
     8722.198000       0.009300
     8729.812300       0.009801
     8737.439900       0.010316
     8745.080900       0.010848
     8752.735200       0.011395
     8760.403000       0.011958
     8768.084200       0.012538
     8775.778900       0.013133
     8783.487000       0.013746
     8791.208800       0.014374
     8798.944100       0.015019
     8806.693100       0.015681
     8814.455700       0.016360
     8822.232000       0.017056
     8830.022100       0.017769
     8837.825900       0.018499
     8845.643500       0.019246
     8853.475000       0.020011
     8861.320300       0.020793
     8869.179600       0.021594
     8877.052800       0.022411
     8884.940000       0.023247
     8892.841300       0.024100
     8900.756600       0.024972
     8908.686000       0.025862
     8916.629500       0.026770
     8924.587200       0.027696
     8932.559200       0.028641
     8940.545400       0.029605
     8948.545900       0.030587
     8956.560700       0.031588
     8964.589900       0.032608
     8972.633500       0.033647
     8980.691500       0.034706
     8988.764000       0.035783
     8996.851100       0.036879
     9004.952700       0.037995
     9013.068900       0.039131
     9021.199800       0.040286
     9029.345400       0.041461
     9037.505600       0.042656
     9045.680700       0.043870
     9053.870500       0.045105
     9062.075200       0.046360
     9070.294800       0.047635
     9078.529300       0.048930
     9086.778700       0.050245
     9095.043200       0.051582
     9103.322700       0.052938
     9111.617300       0.054316
     9119.927000       0.055714
     9128.251900       0.057133
     9136.592100       0.058573
     9144.947400       0.060034
     9153.318100       0.061516
     9161.704100       0.063020
     9170.105500       0.064544
     9178.522300       0.066091
     9186.954500       0.067658
     9195.402300       0.069248
     9203.865600       0.070859
     9212.344500       0.072491
     9220.839100       0.074146
     9229.349300       0.075823
     9237.875300       0.077521
     9246.417000       0.079242
     9254.974500       0.080985
     9263.547900       0.082750
     9272.137200       0.084537
     9280.742500       0.086347
     9289.363700       0.088179
     9298.000900       0.090034
     9306.654300       0.091911
     9315.323700       0.093811
     9324.009300       0.095734
     9332.711200       0.097680
     9341.429200       0.099648
     9350.163600       0.101639
     9358.914400       0.103654
     9367.681500       0.105691
     9376.465100       0.107752
     9385.265100       0.109835
     9394.081700       0.111942
     9402.914900       0.114072
     9411.764700       0.116226
     9420.631200       0.118403
     9429.514400       0.120603
     9438.414300       0.122826
     9447.331100       0.125073
     9456.264800       0.127344
     9465.215300       0.129638
     9474.182900       0.131955
     9483.167400       0.134296
     9492.169000       0.136661
     9501.187600       0.139049
     9510.223500       0.141461
     9519.276500       0.143897
     9528.346800       0.146356
     9537.434400       0.148839
     9546.539400       0.151345
     9555.661700       0.153875
     9564.801500       0.156429
     9573.958800       0.159007
     9583.133700       0.161608
     9592.326100       0.164232
     9601.536200       0.166881
     9610.764100       0.169552
     9620.009600       0.172248
     9629.273000       0.174967
     9638.554200       0.177710
     9647.853400       0.180476
     9657.170400       0.183265
     9666.505600       0.186078
     9675.858700       0.188914
     9685.230000       0.191774
     9694.619500       0.194657
     9704.027200       0.197563
     9713.453100       0.200492
     9722.897400       0.203444
     9732.360100       0.206420
     9741.841200       0.209418
     9751.340800       0.212439
     9760.859000       0.215483
     9770.395700       0.218550
     9779.951100       0.221639
     9789.525200       0.224751
     9799.118100       0.227885
     9808.729800       0.231042
     9818.360300       0.234221
     9828.009800       0.237422
     9837.678300       0.240645
     9847.365800       0.243890
     9857.072400       0.247156
     9866.798200       0.250445
     9876.543200       0.253755
     9886.307500       0.257086
     9896.091000       0.260439
     9905.894000       0.263813
     9915.716400       0.267208
     9925.558300       0.270623
     9935.419800       0.274059
     9945.300800       0.277517
     9955.201600       0.280993
     9965.122100       0.284491
     9975.062300       0.288008
     9985.022500       0.291546
     9995.002500       0.295103
    10005.002500       0.298680
    10015.022500       0.302275
    10025.062700       0.305890
    10035.122900       0.309524
    10045.203400       0.313177
    10055.304200       0.316848
    10065.425300       0.320538
    10075.566800       0.324245
    10085.728700       0.327971
    10095.911200       0.331714
    10106.114200       0.335474
    10116.337900       0.339252
    10126.582300       0.343047
    10136.847400       0.346859
    10147.133400       0.350687
    10157.440300       0.354531
    10167.768200       0.358392
    10178.117000       0.362268
    10188.487000       0.366159
    10198.878100       0.370067
    10209.290500       0.373988
    10219.724100       0.377925
    10230.179000       0.381876
    10240.655400       0.385842
    10251.153300       0.389821
    10261.672700       0.393814
    10272.213700       0.397820
    10282.776300       0.401839
    10293.360800       0.405871
    10303.967000       0.409915
    10314.595200       0.413972
    10325.245200       0.418040
    10335.917300       0.422120
    10346.611500       0.426211
    10357.327800       0.430313
    10368.066400       0.434426
    10378.827200       0.438549
    10389.610400       0.442682
    10400.416000       0.446824
    10411.244100       0.450976
    10422.094800       0.455137
    10432.968200       0.459306
    10443.864200       0.463484
    10454.783100       0.467669
    10465.724800       0.471863
    10476.689400       0.476063
    10487.677000       0.480271
    10498.687700       0.484484
    10509.721500       0.488704
    10520.778500       0.492930
    10531.858900       0.497162
    10542.962600       0.501398
    10554.089700       0.505640
    10565.240400       0.509885
    10576.414600       0.514135
    10587.612500       0.518388
    10598.834100       0.522645
    10610.079600       0.526904
    10621.348900       0.531166
    10632.642200       0.535430
    10643.959600       0.539696
    10655.301000       0.543963
    10666.666700       0.548232
    10678.056600       0.552500
    10689.470900       0.556769
    10700.909600       0.561038
    10712.372800       0.565306
    10723.860600       0.569574
    10735.373100       0.573840
    10746.910300       0.578104
    10758.472300       0.582366
    10770.059200       0.586625
    10781.671200       0.590882
    10793.308100       0.595135
    10804.970300       0.599384
    10816.657700       0.603630
    10828.370300       0.607870
    10840.108400       0.612106
    10851.871900       0.616336
    10863.661100       0.620561
    10875.475800       0.624780
    10887.316300       0.628992
    10899.182600       0.633196
    10911.074700       0.637394
    10922.992900       0.641584
    10934.937100       0.645766
    10946.907500       0.649939
    10958.904100       0.654103
    10970.927000       0.658258
    10982.976400       0.662403
    10995.052200       0.666537
    11007.154700       0.670661
    11019.283700       0.674774
    11031.439600       0.678876
    11043.622300       0.682966
    11055.832000       0.687044
    11068.068600       0.691109
    11080.332400       0.695162
    11092.623400       0.699200
    11104.941700       0.703225
    11117.287400       0.707236
    11129.660500       0.711233
    11142.061300       0.715214
    11154.489700       0.719180
    11166.945800       0.723130
    11179.429800       0.727064
    11191.941800       0.730982
    11204.481800       0.734883
    11217.049900       0.738766
    11229.646300       0.742632
    11242.270900       0.746480
    11254.924000       0.750310
    11267.605600       0.754120
    11280.315800       0.757912
    11293.054800       0.761684
    11305.822500       0.765436
    11318.619100       0.769168
    11331.444800       0.772880
    11344.299500       0.776570
    11357.183400       0.780239
    11370.096600       0.783887
    11383.039300       0.787512
    11396.011400       0.791115
    11409.013100       0.794695
    11422.044500       0.798253
    11435.105800       0.801787
    11448.196900       0.805297
    11461.318100       0.808783
    11474.469300       0.812245
    11487.650800       0.815682
    11500.862600       0.819095
    11514.104800       0.822481
    11527.377500       0.825843
    11540.680900       0.829178
    11554.015000       0.832487
    11567.380000       0.835769
    11580.775900       0.839025
    11594.202900       0.842253
    11607.661100       0.845454
    11621.150500       0.848628
    11634.671300       0.851773
    11648.223600       0.854890
    11661.807600       0.857979
    11675.423200       0.861038
    11689.070700       0.864069
    11702.750100       0.867070
    11716.461600       0.870042
    11730.205300       0.872984
    11743.981200       0.875896
    11757.789500       0.878777
    11771.630400       0.881628
    11785.503800       0.884448
    11799.410000       0.887237
    11813.349100       0.889995
    11827.321100       0.892721
    11841.326200       0.895415
    11855.364600       0.898078
    11869.436200       0.900709
    11883.541300       0.903307
    11897.680000       0.905873
    11911.852300       0.908406
    11926.058400       0.910907
    11940.298500       0.913374
    11954.572600       0.915809
    11968.880900       0.918209
    11983.223500       0.920577
    11997.600500       0.922911
    12012.012000       0.925211
    12026.458200       0.927477
    12040.939200       0.929709
    12055.455100       0.931906
    12070.006000       0.934070
    12084.592100       0.936199
    12099.213600       0.938293
    12113.870400       0.940353
    12128.562800       0.942378
    12143.290800       0.944368
    12158.054700       0.946323
    12172.854500       0.948243
    12187.690400       0.950128
    12202.562500       0.951978
    12217.471000       0.953792
    12232.415900       0.955572
    12247.397400       0.957315
    12262.415700       0.959024
    12277.470800       0.960697
    12292.563000       0.962334
    12307.692300       0.963936
    12322.858900       0.965503
    12338.062900       0.967033
    12353.304500       0.968529
    12368.583800       0.969988
    12383.900900       0.971412
    12399.256000       0.972801
    12414.649300       0.974154
    12430.080800       0.975471
    12445.550700       0.976753
    12461.059200       0.977999
    12476.606400       0.979210
    12492.192400       0.980386
    12507.817400       0.981526
    12523.481500       0.982631
    12539.185000       0.983700
    12554.927800       0.984734
    12570.710200       0.985734
    12586.532400       0.986698
    12602.394500       0.987627
    12618.296500       0.988522
    12634.238800       0.989382
    12650.221400       0.990207
    12666.244500       0.990997
    12682.308200       0.991753
    12698.412700       0.992475
    12714.558200       0.993163
    12730.744700       0.993816
    12746.972600       0.994436
    12763.241900       0.995022
    12779.552700       0.995575
    12795.905300       0.996094
    12812.299800       0.996579
    12828.736400       0.997032
    12845.215200       0.997452
    12861.736300       0.997838
    12878.300100       0.998193
    12894.906500       0.998515
    12911.555800       0.998805
    12928.248200       0.999062
    12944.983800       0.999288
    12961.762800       0.999483
    12978.585300       0.999646
    12995.451600       0.999778
    13012.361700       0.999879
    13029.316000       0.999950
    13046.314400       0.999990
    13063.357300       1.000000
    13080.444700       0.999980
    13097.576900       0.999930
    13114.754100       0.999852
    13131.976400       0.999743
    13149.243900       0.999607
    13166.556900       0.999441
    13183.915600       0.999247
    13201.320100       0.999025
    13218.770700       0.998776
    13236.267400       0.998499
    13253.810500       0.998195
    13271.400100       0.997864
    13289.036500       0.997506
    13306.719900       0.997123
    13324.450400       0.996713
    13342.228200       0.996278
    13360.053400       0.995818
    13377.926400       0.995332
    13395.847300       0.994822
    13413.816200       0.994288
    13431.833400       0.993730
    13449.899100       0.993149
    13468.013500       0.992544
    13486.176700       0.991916
    13504.388900       0.991266
    13522.650400       0.990594
    13540.961400       0.989900
    13559.322000       0.989184
    13577.732500       0.988447
    13596.193100       0.987690
    13614.703900       0.986913
    13633.265200       0.986115
    13651.877100       0.985298
    13670.540000       0.984462
    13689.253900       0.983607
    13708.019200       0.982733
    13726.836000       0.981842
    13745.704500       0.980933
    13764.624900       0.980006
    13783.597500       0.979063
    13802.622500       0.978104
    13821.700100       0.977128
    13840.830400       0.976137
    13860.013900       0.975131
    13879.250500       0.974110
    13898.540700       0.973074
    13917.884500       0.972025
    13937.282200       0.970961
    13956.734100       0.969885
    13976.240400       0.968796
    13995.801300       0.967695
    14015.417000       0.966581
    14035.087700       0.965457
    14054.813800       0.964321
    14074.595400       0.963174
    14094.432700       0.962017
    14114.326000       0.960851
    14134.275600       0.959675
    14154.281700       0.958490
    14174.344400       0.957296
    14194.464200       0.956094
    14214.641100       0.954885
    14234.875400       0.953668
    14255.167500       0.952444
    14275.517500       0.951214
    14295.925700       0.949978
    14316.392300       0.948736
    14336.917600       0.947489
    14357.501800       0.946237
    14378.145200       0.944980
    14398.848100       0.943720
    14419.610700       0.942456
    14440.433200       0.941189
    14461.316000       0.939919
    14482.259200       0.938647
    14503.263200       0.937373
    14524.328200       0.936097
    14545.454500       0.934820
    14566.642400       0.933543
    14587.892000       0.932265
    14609.203800       0.930987
    14630.577900       0.929709
    14652.014700       0.928433
    14673.514300       0.927157
    14695.077100       0.925883
    14716.703500       0.924611
    14738.393500       0.923342
    14760.147600       0.922075
    14781.966000       0.920812
    14803.849000       0.919551
    14825.796900       0.918295
    14847.809900       0.917043
    14869.888500       0.915795
    14892.032800       0.914553
    14914.243100       0.913315
    14936.519800       0.912083
    14958.863100       0.910857
    14981.273400       0.909638
    15003.750900       0.908424
    15026.296000       0.907218
    15048.909000       0.906020
    15071.590100       0.904828
    15094.339600       0.903645
    15117.158000       0.902470
    15140.045400       0.901303
    15163.002300       0.900145
    15186.028900       0.898996
    15209.125500       0.897856
    15232.292500       0.896727
    15255.530100       0.895607
    15278.838800       0.894497
    15302.218800       0.893398
    15325.670500       0.892309
    15349.194200       0.891231
    15372.790200       0.890165
    15396.458800       0.889110
    15420.200500       0.888066
    15444.015400       0.887035
    15467.904100       0.886015
    15491.866800       0.885008
    15515.903800       0.884014
    15540.015500       0.883032
    15564.202300       0.882063
    15588.464500       0.881107
    15612.802500       0.880165
    15637.216600       0.879236
    15661.707100       0.878320
    15686.274500       0.877418
    15710.919100       0.876530
    15735.641200       0.875656
    15760.441300       0.874797
    15785.319700       0.873951
    15810.276700       0.873120
    15835.312700       0.872303
    15860.428200       0.871501
    15885.623500       0.870714
    15910.899000       0.869941
    15936.255000       0.869184
    15961.691900       0.868441
    15987.210200       0.867713
    16012.810200       0.866999
    16038.492400       0.866301
    16064.257000       0.865618
    16090.104600       0.864951
    16116.035500       0.864298
    16142.050000       0.863660
    16168.148700       0.863037
    16194.332000       0.862429
    16220.600200       0.861836
    16246.953700       0.861259
    16273.393000       0.860696
    16299.918500       0.860148
    16326.530600       0.859614
    16353.229800       0.859096
    16380.016400       0.858592
    16406.890900       0.858102
    16433.853700       0.857627
    16460.905300       0.857167
    16488.046200       0.856720
    16515.276600       0.856287
    16542.597200       0.855869
    16570.008300       0.855464
    16597.510400       0.855072
    16625.103900       0.854694
    16652.789300       0.854330
    16680.567100       0.853978
    16708.437800       0.853639
    16736.401700       0.853312
    16764.459300       0.852998
    16792.611300       0.852696
    16820.857900       0.852406
    16849.199700       0.852128
    16877.637100       0.851860
    16906.170800       0.851604
    16934.801000       0.851359
    16963.528400       0.851124
    16992.353400       0.850899
    17021.276600       0.850684
    17050.298400       0.850478
    17079.419300       0.850282
    17108.639900       0.850094
    17137.960600       0.849915
    17167.382000       0.849743
    17196.904600       0.849580
    17226.528900       0.849423
    17256.255400       0.849274
    17286.084700       0.849131
