7,   channel 7 SRF from file SRF_SSH-1_Delivery_220520/SRF_DMSP-F3_SSH_Chan07.asc received June 2022 from SPASCIA
Number of data points:
1291
Wavenumber (cm-1)   Filter response
      372.700000       0.001800
      372.800000       0.001800
      372.900000       0.001800
      373.000000       0.001800
      373.100000       0.001800
      373.200000       0.001800
      373.300000       0.001800
      373.400000       0.001800
      373.500000       0.001800
      373.600000       0.001800
      373.700000       0.001800
      373.800000       0.001900
      373.900000       0.001900
      374.000000       0.001900
      374.100000       0.002000
      374.200000       0.002000
      374.300000       0.002000
      374.400000       0.002000
      374.500000       0.002000
      374.600000       0.002000
      374.700000       0.002000
      374.800000       0.002000
      374.900000       0.002000
      375.000000       0.002000
      375.100000       0.002000
      375.200000       0.002000
      375.300000       0.002000
      375.400000       0.002000
      375.500000       0.002000
      375.600000       0.002000
      375.700000       0.002000
      375.800000       0.002000
      375.900000       0.002100
      376.000000       0.002100
      376.100000       0.002100
      376.200000       0.002200
      376.300000       0.002200
      376.400000       0.002200
      376.500000       0.002200
      376.600000       0.002200
      376.700000       0.002200
      376.800000       0.002200
      376.900000       0.002200
      377.000000       0.002200
      377.100000       0.002200
      377.200000       0.002200
      377.300000       0.002200
      377.400000       0.002200
      377.500000       0.002200
      377.600000       0.002200
      377.700000       0.002200
      377.800000       0.002200
      377.900000       0.002200
      378.000000       0.002200
      378.100000       0.002200
      378.200000       0.002200
      378.300000       0.002200
      378.400000       0.002300
      378.500000       0.002300
      378.600000       0.002300
      378.700000       0.002400
      378.800000       0.002400
      378.900000       0.002400
      379.000000       0.002400
      379.100000       0.002400
      379.200000       0.002400
      379.300000       0.002400
      379.400000       0.002400
      379.500000       0.002400
      379.600000       0.002400
      379.700000       0.002400
      379.800000       0.002400
      379.900000       0.002400
      380.000000       0.002500
      380.100000       0.002500
      380.200000       0.002500
      380.300000       0.002500
      380.400000       0.002500
      380.500000       0.002500
      380.600000       0.002500
      380.700000       0.002500
      380.800000       0.002600
      380.900000       0.002600
      381.000000       0.002700
      381.100000       0.002700
      381.200000       0.002700
      381.300000       0.002700
      381.400000       0.002700
      381.500000       0.002700
      381.600000       0.002700
      381.700000       0.002700
      381.800000       0.002700
      381.900000       0.002700
      382.000000       0.002700
      382.100000       0.002700
      382.200000       0.002700
      382.300000       0.002700
      382.400000       0.002700
      382.500000       0.002700
      382.600000       0.002700
      382.700000       0.002700
      382.800000       0.002700
      382.900000       0.002700
      383.000000       0.002700
      383.100000       0.002700
      383.200000       0.002700
      383.300000       0.002700
      383.400000       0.002700
      383.500000       0.002700
      383.600000       0.002700
      383.700000       0.002700
      383.800000       0.002700
      383.900000       0.002700
      384.000000       0.002700
      384.100000       0.002700
      384.200000       0.002700
      384.300000       0.002700
      384.400000       0.002700
      384.500000       0.002700
      384.600000       0.002700
      384.700000       0.002700
      384.800000       0.002800
      384.900000       0.002800
      385.000000       0.002800
      385.100000       0.002900
      385.200000       0.002900
      385.300000       0.002900
      385.400000       0.003000
      385.500000       0.003000
      385.600000       0.003100
      385.700000       0.003100
      385.800000       0.003100
      385.900000       0.003100
      386.000000       0.003100
      386.100000       0.003100
      386.200000       0.003100
      386.300000       0.003100
      386.400000       0.003100
      386.500000       0.003100
      386.600000       0.003100
      386.700000       0.003100
      386.800000       0.003100
      386.900000       0.003200
      387.000000       0.003200
      387.100000       0.003200
      387.200000       0.003300
      387.300000       0.003300
      387.400000       0.003300
      387.500000       0.003300
      387.600000       0.003300
      387.700000       0.003300
      387.800000       0.003300
      387.900000       0.003300
      388.000000       0.003300
      388.100000       0.003300
      388.200000       0.003300
      388.300000       0.003300
      388.400000       0.003300
      388.500000       0.003400
      388.600000       0.003400
      388.700000       0.003500
      388.800000       0.003500
      388.900000       0.003500
      389.000000       0.003500
      389.100000       0.003500
      389.200000       0.003500
      389.300000       0.003500
      389.400000       0.003500
      389.500000       0.003600
      389.600000       0.003600
      389.700000       0.003600
      389.800000       0.003600
      389.900000       0.003600
      390.000000       0.003600
      390.100000       0.003600
      390.200000       0.003600
      390.300000       0.003700
      390.400000       0.003700
      390.500000       0.003700
      390.600000       0.003800
      390.700000       0.003800
      390.800000       0.003800
      390.900000       0.003800
      391.000000       0.003800
      391.100000       0.003800
      391.200000       0.003800
      391.300000       0.003900
      391.400000       0.003900
      391.500000       0.003900
      391.600000       0.004000
      391.700000       0.004000
      391.800000       0.004000
      391.900000       0.004100
      392.000000       0.004100
      392.100000       0.004100
      392.200000       0.004200
      392.300000       0.004200
      392.400000       0.004200
      392.500000       0.004200
      392.600000       0.004200
      392.700000       0.004200
      392.800000       0.004200
      392.900000       0.004300
      393.000000       0.004300
      393.100000       0.004300
      393.200000       0.004400
      393.300000       0.004400
      393.400000       0.004400
      393.500000       0.004400
      393.600000       0.004400
      393.700000       0.004400
      393.800000       0.004400
      393.900000       0.004400
      394.000000       0.004400
      394.100000       0.004400
      394.200000       0.004400
      394.300000       0.004400
      394.400000       0.004400
      394.500000       0.004500
      394.600000       0.004500
      394.700000       0.004500
      394.800000       0.004500
      394.900000       0.004500
      395.000000       0.004500
      395.100000       0.004500
      395.200000       0.004500
      395.300000       0.004600
      395.400000       0.004600
      395.500000       0.004700
      395.600000       0.004700
      395.700000       0.004700
      395.800000       0.004700
      395.900000       0.004700
      396.000000       0.004700
      396.100000       0.004700
      396.200000       0.004700
      396.300000       0.004800
      396.400000       0.004800
      396.500000       0.004800
      396.600000       0.004900
      396.700000       0.004900
      396.800000       0.004900
      396.900000       0.004900
      397.000000       0.004900
      397.100000       0.004900
      397.200000       0.004900
      397.300000       0.004900
      397.400000       0.005000
      397.500000       0.005000
      397.600000       0.005100
      397.700000       0.005100
      397.800000       0.005100
      397.900000       0.005200
      398.000000       0.005200
      398.100000       0.005200
      398.200000       0.005300
      398.300000       0.005300
      398.400000       0.005300
      398.500000       0.005400
      398.600000       0.005400
      398.700000       0.005500
      398.800000       0.005500
      398.900000       0.005500
      399.000000       0.005600
      399.100000       0.005600
      399.200000       0.005600
      399.300000       0.005700
      399.400000       0.005700
      399.500000       0.005700
      399.600000       0.005800
      399.700000       0.005800
      399.800000       0.005900
      399.900000       0.005900
      400.000000       0.005900
      400.100000       0.006000
      400.200000       0.006000
      400.300000       0.006000
      400.400000       0.006100
      400.500000       0.006100
      400.600000       0.006100
      400.700000       0.006200
      400.800000       0.006300
      400.900000       0.006300
      401.000000       0.006400
      401.100000       0.006500
      401.200000       0.006500
      401.300000       0.006600
      401.400000       0.006600
      401.500000       0.006700
      401.600000       0.006700
      401.700000       0.006700
      401.800000       0.006800
      401.900000       0.006800
      402.000000       0.006800
      402.100000       0.006900
      402.200000       0.006900
      402.300000       0.006900
      402.400000       0.007000
      402.500000       0.007000
      402.600000       0.007100
      402.700000       0.007100
      402.800000       0.007200
      402.900000       0.007200
      403.000000       0.007300
      403.100000       0.007400
      403.200000       0.007500
      403.300000       0.007500
      403.400000       0.007500
      403.500000       0.007600
      403.600000       0.007600
      403.700000       0.007600
      403.800000       0.007700
      403.900000       0.007700
      404.000000       0.007700
      404.100000       0.007800
      404.200000       0.007800
      404.300000       0.007900
      404.400000       0.007900
      404.500000       0.007900
      404.600000       0.008000
      404.700000       0.008000
      404.800000       0.008000
      404.900000       0.008100
      405.000000       0.008100
      405.100000       0.008100
      405.200000       0.008200
      405.300000       0.008200
      405.400000       0.008300
      405.500000       0.008300
      405.600000       0.008300
      405.700000       0.008400
      405.800000       0.008400
      405.900000       0.008400
      406.000000       0.008500
      406.100000       0.008500
      406.200000       0.008500
      406.300000       0.008600
      406.400000       0.008600
      406.500000       0.008700
      406.600000       0.008700
      406.700000       0.008700
      406.800000       0.008800
      406.900000       0.008900
      407.000000       0.008900
      407.100000       0.009000
      407.200000       0.009100
      407.300000       0.009200
      407.400000       0.009200
      407.500000       0.009300
      407.600000       0.009400
      407.700000       0.009500
      407.800000       0.009500
      407.900000       0.009600
      408.000000       0.009700
      408.100000       0.009700
      408.200000       0.009800
      408.300000       0.009900
      408.400000       0.009900
      408.500000       0.009900
      408.600000       0.010000
      408.700000       0.010000
      408.800000       0.010000
      408.900000       0.010100
      409.000000       0.010100
      409.100000       0.010100
      409.200000       0.010200
      409.300000       0.010300
      409.400000       0.010300
      409.500000       0.010400
      409.600000       0.010500
      409.700000       0.010500
      409.800000       0.010700
      409.900000       0.010800
      410.000000       0.011000
      410.100000       0.011100
      410.200000       0.011300
      410.300000       0.011300
      410.400000       0.011400
      410.500000       0.011500
      410.600000       0.011600
      410.700000       0.011600
      410.800000       0.011700
      410.900000       0.011800
      411.000000       0.011900
      411.100000       0.011900
      411.200000       0.012000
      411.300000       0.012100
      411.400000       0.012300
      411.500000       0.012400
      411.600000       0.012600
      411.700000       0.012700
      411.800000       0.012800
      411.900000       0.012900
      412.000000       0.013100
      412.100000       0.013200
      412.200000       0.013300
      412.300000       0.013400
      412.400000       0.013500
      412.500000       0.013600
      412.600000       0.013700
      412.700000       0.013800
      412.800000       0.014000
      412.900000       0.014300
      413.000000       0.014500
      413.100000       0.014700
      413.200000       0.014900
      413.300000       0.015100
      413.400000       0.015300
      413.500000       0.015600
      413.600000       0.015800
      413.700000       0.016000
      413.800000       0.016200
      413.900000       0.016400
      414.000000       0.016700
      414.100000       0.016900
      414.200000       0.017100
      414.300000       0.017300
      414.400000       0.017500
      414.500000       0.017700
      414.600000       0.018000
      414.700000       0.018200
      414.800000       0.018500
      414.900000       0.018900
      415.000000       0.019300
      415.100000       0.019600
      415.200000       0.020000
      415.300000       0.020200
      415.400000       0.020400
      415.500000       0.020500
      415.600000       0.020700
      415.700000       0.020900
      415.800000       0.021200
      415.900000       0.021400
      416.000000       0.021700
      416.100000       0.021900
      416.200000       0.022200
      416.300000       0.022500
      416.400000       0.022800
      416.500000       0.023100
      416.600000       0.023300
      416.700000       0.023600
      416.800000       0.024400
      416.900000       0.025100
      417.000000       0.025800
      417.100000       0.026500
      417.200000       0.027300
      417.300000       0.027600
      417.400000       0.028000
      417.500000       0.028400
      417.600000       0.028700
      417.700000       0.029100
      417.800000       0.029500
      417.900000       0.029800
      418.000000       0.030200
      418.100000       0.030500
      418.200000       0.030900
      418.300000       0.031300
      418.400000       0.031600
      418.500000       0.032000
      418.600000       0.032400
      418.700000       0.032700
      418.800000       0.033500
      418.900000       0.034200
      419.000000       0.034900
      419.100000       0.035600
      419.200000       0.036400
      419.300000       0.037100
      419.400000       0.037800
      419.500000       0.038500
      419.600000       0.039300
      419.700000       0.040000
      419.800000       0.040400
      419.900000       0.040700
      420.000000       0.041100
      420.100000       0.041500
      420.200000       0.041800
      420.300000       0.042500
      420.400000       0.043300
      420.500000       0.044000
      420.600000       0.044700
      420.700000       0.045500
      420.800000       0.046500
      420.900000       0.047600
      421.000000       0.048700
      421.100000       0.049800
      421.200000       0.050900
      421.300000       0.052000
      421.400000       0.053100
      421.500000       0.054200
      421.600000       0.055300
      421.700000       0.056400
      421.800000       0.057100
      421.900000       0.057800
      422.000000       0.058500
      422.100000       0.059300
      422.200000       0.060000
      422.300000       0.061100
      422.400000       0.062200
      422.500000       0.063300
      422.600000       0.064400
      422.700000       0.065500
      422.800000       0.067300
      422.900000       0.069100
      423.000000       0.070900
      423.100000       0.072700
      423.200000       0.074500
      423.300000       0.075600
      423.400000       0.076700
      423.500000       0.077800
      423.600000       0.078900
      423.700000       0.080000
      423.800000       0.081100
      423.900000       0.082200
      424.000000       0.083300
      424.100000       0.084400
      424.200000       0.085500
      424.300000       0.086500
      424.400000       0.087600
      424.500000       0.088700
      424.600000       0.089800
      424.700000       0.090900
      424.800000       0.092700
      424.900000       0.094500
      425.000000       0.096400
      425.100000       0.098200
      425.200000       0.100000
      425.300000       0.102500
      425.400000       0.105100
      425.500000       0.107600
      425.600000       0.110200
      425.700000       0.112700
      425.800000       0.114900
      425.900000       0.117100
      426.000000       0.119300
      426.100000       0.121500
      426.200000       0.123600
      426.300000       0.126200
      426.400000       0.128700
      426.500000       0.131300
      426.600000       0.133800
      426.700000       0.136400
      426.800000       0.140000
      426.900000       0.143600
      427.000000       0.147300
      427.100000       0.150900
      427.200000       0.154500
      427.300000       0.157800
      427.400000       0.161100
      427.500000       0.164400
      427.600000       0.167600
      427.700000       0.170900
      427.800000       0.174200
      427.900000       0.177500
      428.000000       0.180700
      428.100000       0.184000
      428.200000       0.187300
      428.300000       0.190900
      428.400000       0.194500
      428.500000       0.198200
      428.600000       0.201800
      428.700000       0.205500
      428.800000       0.209500
      428.900000       0.213500
      429.000000       0.217500
      429.100000       0.221500
      429.200000       0.225500
      429.300000       0.229500
      429.400000       0.233500
      429.500000       0.237500
      429.600000       0.241500
      429.700000       0.245500
      429.800000       0.247300
      429.900000       0.249100
      430.000000       0.250900
      430.100000       0.252700
      430.200000       0.254500
      430.300000       0.262500
      430.400000       0.270500
      430.500000       0.278500
      430.600000       0.286500
      430.700000       0.294500
      430.800000       0.299300
      430.900000       0.304000
      431.000000       0.308700
      431.100000       0.313500
      431.200000       0.318200
      431.300000       0.324400
      431.400000       0.330500
      431.500000       0.336700
      431.600000       0.342900
      431.700000       0.349100
      431.800000       0.356400
      431.900000       0.363600
      432.000000       0.370900
      432.100000       0.378200
      432.200000       0.385500
      432.300000       0.392700
      432.400000       0.400000
      432.500000       0.407300
      432.600000       0.414500
      432.700000       0.421800
      432.800000       0.428700
      432.900000       0.435600
      433.000000       0.442500
      433.100000       0.449500
      433.200000       0.456400
      433.300000       0.465500
      433.400000       0.474500
      433.500000       0.483600
      433.600000       0.492700
      433.700000       0.501800
      433.800000       0.511600
      433.900000       0.521500
      434.000000       0.531300
      434.100000       0.541100
      434.200000       0.550900
      434.300000       0.558900
      434.400000       0.566900
      434.500000       0.574900
