15,   15, MVIRI VIS channel from srf_MET7_1999168_1999169_1801-Release_S10EE_10.dat
Number of data points:
793
Wavenumber (cm-1)   Filter response
     8442.380800       0.000000
     8449.514200       0.000000
     8456.659600       0.000004
     8463.817200       0.000052
     8470.986900       0.000154
     8478.168700       0.000309
     8485.362700       0.000514
     8492.569000       0.000769
     8499.787500       0.001071
     8507.018300       0.001420
     8514.261400       0.001815
     8521.516800       0.002253
     8528.784600       0.002734
     8536.064900       0.003257
     8543.357500       0.003819
     8550.662700       0.004422
     8557.980300       0.005062
     8565.310500       0.005740
     8572.653200       0.006454
     8580.008600       0.007203
     8587.376600       0.007987
     8594.757200       0.008804
     8602.150500       0.009654
     8609.556600       0.010535
     8616.975400       0.011448
     8624.407100       0.012392
     8631.851500       0.013365
     8639.308900       0.014367
     8646.779100       0.015398
     8654.262200       0.016456
     8661.758300       0.017542
     8669.267400       0.018654
     8676.789600       0.019793
     8684.324800       0.020957
     8691.873100       0.022146
     8699.434500       0.023360
     8707.009100       0.024599
     8714.596900       0.025861
     8722.198000       0.027148
     8729.812300       0.028457
     8737.439900       0.029789
     8745.080900       0.031144
     8752.735200       0.032521
     8760.403000       0.033921
     8768.084200       0.035342
     8775.778900       0.036784
     8783.487000       0.038249
     8791.208800       0.039734
     8798.944100       0.041240
     8806.693100       0.042767
     8814.455700       0.044315
     8822.232000       0.045883
     8830.022100       0.047471
     8837.825900       0.049080
     8845.643500       0.050710
     8853.475000       0.052359
     8861.320300       0.054029
     8869.179600       0.055718
     8877.052800       0.057427
     8884.940000       0.059157
     8892.841300       0.060906
     8900.756600       0.062675
     8908.686000       0.064464
     8916.629500       0.066273
     8924.587200       0.068102
     8932.559200       0.069951
     8940.545400       0.071820
     8948.545900       0.073709
     8956.560700       0.075618
     8964.589900       0.077547
     8972.633500       0.079496
     8980.691500       0.081465
     8988.764000       0.083455
     8996.851100       0.085464
     9004.952700       0.087495
     9013.068900       0.089545
     9021.199800       0.091617
     9029.345400       0.093708
     9037.505600       0.095821
     9045.680700       0.097954
     9053.870500       0.100108
     9062.075200       0.102284
     9070.294800       0.104480
     9078.529300       0.106697
     9086.778700       0.108936
     9095.043200       0.111196
     9103.322700       0.113478
     9111.617300       0.115781
     9119.927000       0.118105
     9128.251900       0.120452
     9136.592100       0.122820
     9144.947400       0.125210
     9153.318100       0.127622
     9161.704100       0.130057
     9170.105500       0.132513
     9178.522300       0.134992
     9186.954500       0.137493
     9195.402300       0.140017
     9203.865600       0.142563
     9212.344500       0.145132
     9220.839100       0.147723
     9229.349300       0.150337
     9237.875300       0.152975
     9246.417000       0.155635
     9254.974500       0.158318
     9263.547900       0.161024
     9272.137200       0.163753
     9280.742500       0.166505
     9289.363700       0.169281
     9298.000900       0.172080
     9306.654300       0.174902
     9315.323700       0.177747
     9324.009300       0.180616
     9332.711200       0.183508
     9341.429200       0.186423
     9350.163600       0.189363
     9358.914400       0.192325
     9367.681500       0.195311
     9376.465100       0.198320
     9385.265100       0.201353
     9394.081700       0.204409
     9402.914900       0.207489
     9411.764700       0.210592
     9420.631200       0.213718
     9429.514400       0.216868
     9438.414300       0.220041
     9447.331100       0.223237
     9456.264800       0.226457
     9465.215300       0.229700
     9474.182900       0.232966
     9483.167400       0.236255
     9492.169000       0.239567
     9501.187600       0.242902
     9510.223500       0.246260
     9519.276500       0.249640
     9528.346800       0.253044
     9537.434400       0.256469
     9546.539400       0.259917
     9555.661700       0.263388
     9564.801500       0.266880
     9573.958800       0.270395
     9583.133700       0.273932
     9592.326100       0.277491
     9601.536200       0.281071
     9610.764100       0.284672
     9620.009600       0.288296
     9629.273000       0.291940
     9638.554200       0.295605
     9647.853400       0.299292
     9657.170400       0.302998
     9666.505600       0.306726
     9675.858700       0.310474
     9685.230000       0.314241
     9694.619500       0.318029
     9704.027200       0.321836
     9713.453100       0.325663
     9722.897400       0.329509
     9732.360100       0.333374
     9741.841200       0.337258
     9751.340800       0.341160
     9760.859000       0.345081
     9770.395700       0.349020
     9779.951100       0.352976
     9789.525200       0.356950
     9799.118100       0.360942
     9808.729800       0.364950
     9818.360300       0.368975
     9828.009800       0.373016
     9837.678300       0.377074
     9847.365800       0.381147
     9857.072400       0.385236
     9866.798200       0.389340
     9876.543200       0.393459
     9886.307500       0.397593
     9896.091000       0.401741
     9905.894000       0.405902
     9915.716400       0.410078
     9925.558300       0.414266
     9935.419800       0.418468
     9945.300800       0.422682
     9955.201600       0.426909
     9965.122100       0.431147
     9975.062300       0.435397
     9985.022500       0.439658
     9995.002500       0.443930
    10005.002500       0.448212
    10015.022500       0.452505
    10025.062700       0.456807
    10035.122900       0.461118
    10045.203400       0.465438
    10055.304200       0.469767
    10065.425300       0.474104
    10075.566800       0.478449
    10085.728700       0.482800
    10095.911200       0.487160
    10106.114200       0.491525
    10116.337900       0.495897
    10126.582300       0.500274
    10136.847400       0.504656
    10147.133400       0.509044
    10157.440300       0.513436
    10167.768200       0.517832
    10178.117000       0.522231
    10188.487000       0.526634
    10198.878100       0.531040
    10209.290500       0.535448
    10219.724100       0.539857
    10230.179000       0.544268
    10240.655400       0.548681
    10251.153300       0.553093
    10261.672700       0.557506
    10272.213700       0.561919
    10282.776300       0.566330
    10293.360800       0.570741
    10303.967000       0.575150
    10314.595200       0.579557
    10325.245200       0.583961
    10335.917300       0.588363
    10346.611500       0.592760
    10357.327800       0.597154
    10368.066400       0.601544
    10378.827200       0.605928
    10389.610400       0.610308
    10400.416000       0.614682
    10411.244100       0.619049
    10422.094800       0.623410
    10432.968200       0.627764
    10443.864200       0.632111
    10454.783100       0.636449
    10465.724800       0.640779
    10476.689400       0.645100
    10487.677000       0.649412
    10498.687700       0.653714
    10509.721500       0.658006
    10520.778500       0.662287
    10531.858900       0.666557
    10542.962600       0.670815
    10554.089700       0.675061
    10565.240400       0.679295
    10576.414600       0.683516
    10587.612500       0.687723
    10598.834100       0.691917
    10610.079600       0.696097
    10621.348900       0.700261
    10632.642200       0.704411
    10643.959600       0.708545
    10655.301000       0.712663
    10666.666700       0.716764
    10678.056600       0.720849
    10689.470900       0.724917
    10700.909600       0.728966
    10712.372800       0.732998
    10723.860600       0.737011
    10735.373100       0.741005
    10746.910300       0.744980
    10758.472300       0.748935
    10770.059200       0.752870
    10781.671200       0.756784
    10793.308100       0.760677
    10804.970300       0.764549
    10816.657700       0.768399
    10828.370300       0.772226
    10840.108400       0.776032
    10851.871900       0.779814
    10863.661100       0.783573
    10875.475800       0.787308
    10887.316300       0.791019
    10899.182600       0.794706
    10911.074700       0.798368
    10922.992900       0.802004
    10934.937100       0.805615
    10946.907500       0.809200
    10958.904100       0.812759
    10970.927000       0.816292
    10982.976400       0.819797
    10995.052200       0.823275
    11007.154700       0.826725
    11019.283700       0.830148
    11031.439600       0.833543
    11043.622300       0.836908
    11055.832000       0.840245
    11068.068600       0.843553
    11080.332400       0.846831
    11092.623400       0.850079
    11104.941700       0.853298
    11117.287400       0.856485
    11129.660500       0.859643
    11142.061300       0.862769
    11154.489700       0.865864
    11166.945800       0.868928
    11179.429800       0.871960
    11191.941800       0.874960
    11204.481800       0.877927
    11217.049900       0.880862
    11229.646300       0.883765
    11242.270900       0.886634
    11254.924000       0.889471
    11267.605600       0.892273
    11280.315800       0.895043
    11293.054800       0.897778
    11305.822500       0.900479
    11318.619100       0.903146
    11331.444800       0.905779
    11344.299500       0.908377
    11357.183400       0.910940
    11370.096600       0.913468
    11383.039300       0.915961
    11396.011400       0.918419
    11409.013100       0.920841
    11422.044500       0.923228
    11435.105800       0.925579
    11448.196900       0.927894
    11461.318100       0.930173
    11474.469300       0.932415
    11487.650800       0.934622
    11500.862600       0.936792
    11514.104800       0.938926
    11527.377500       0.941023
    11540.680900       0.943083
    11554.015000       0.945106
    11567.380000       0.947093
    11580.775900       0.949043
    11594.202900       0.950955
    11607.661100       0.952831
    11621.150500       0.954670
    11634.671300       0.956471
    11648.223600       0.958235
    11661.807600       0.959962
    11675.423200       0.961651
    11689.070700       0.963304
    11702.750100       0.964919
    11716.461600       0.966496
    11730.205300       0.968037
    11743.981200       0.969540
    11757.789500       0.971006
    11771.630400       0.972434
    11785.503800       0.973825
    11799.410000       0.975179
    11813.349100       0.976496
    11827.321100       0.977776
    11841.326200       0.979018
    11855.364600       0.980224
    11869.436200       0.981392
    11883.541300       0.982524
    11897.680000       0.983619
    11911.852300       0.984677
    11926.058400       0.985698
    11940.298500       0.986683
    11954.572600       0.987631
    11968.880900       0.988543
    11983.223500       0.989419
    11997.600500       0.990259
    12012.012000       0.991062
    12026.458200       0.991830
    12040.939200       0.992562
    12055.455100       0.993259
    12070.006000       0.993920
    12084.592100       0.994546
    12099.213600       0.995137
    12113.870400       0.995692
    12128.562800       0.996214
    12143.290800       0.996700
    12158.054700       0.997152
    12172.854500       0.997570
    12187.690400       0.997954
    12202.562500       0.998305
    12217.471000       0.998621
    12232.415900       0.998905
    12247.397400       0.999155
    12262.415700       0.999372
    12277.470800       0.999557
    12292.563000       0.999710
    12307.692300       0.999830
    12322.858900       0.999918
    12338.062900       0.999975
    12353.304500       1.000000
    12368.583800       0.999994
    12383.900900       0.999958
    12399.256000       0.999890
    12414.649300       0.999793
    12430.080800       0.999665
    12445.550700       0.999508
    12461.059200       0.999322
    12476.606400       0.999106
    12492.192400       0.998861
    12507.817400       0.998589
    12523.481500       0.998288
    12539.185000       0.997959
    12554.927800       0.997602
    12570.710200       0.997219
    12586.532400       0.996809
    12602.394500       0.996372
    12618.296500       0.995909
    12634.238800       0.995420
    12650.221400       0.994906
    12666.244500       0.994367
    12682.308200       0.993803
    12698.412700       0.993215
    12714.558200       0.992602
    12730.744700       0.991966
    12746.972600       0.991307
    12763.241900       0.990626
    12779.552700       0.989921
    12795.905300       0.989195
    12812.299800       0.988447
    12828.736400       0.987677
    12845.215200       0.986887
    12861.736300       0.986076
    12878.300100       0.985245
    12894.906500       0.984395
    12911.555800       0.983525
    12928.248200       0.982637
    12944.983800       0.981730
    12961.762800       0.980805
    12978.585300       0.979862
    12995.451600       0.978902
    13012.361700       0.977926
    13029.316000       0.976933
    13046.314400       0.975924
    13063.357300       0.974900
    13080.444700       0.973861
    13097.576900       0.972807
    13114.754100       0.971739
    13131.976400       0.970658
    13149.243900       0.969563
    13166.556900       0.968455
    13183.915600       0.967335
    13201.320100       0.966203
    13218.770700       0.965060
    13236.267400       0.963905
    13253.810500       0.962740
    13271.400100       0.961565
    13289.036500       0.960380
    13306.719900       0.959186
    13324.450400       0.957983
    13342.228200       0.956771
    13360.053400       0.955552
    13377.926400       0.954326
    13395.847300       0.953092
    13413.816200       0.951852
    13431.833400       0.950605
    13449.899100       0.949354
    13468.013500       0.948097
    13486.176700       0.946835
    13504.388900       0.945569
    13522.650400       0.944299
    13540.961400       0.943025
    13559.322000       0.941749
    13577.732500       0.940471
    13596.193100       0.939190
    13614.703900       0.937907
    13633.265200       0.936624
    13651.877100       0.935340
    13670.540000       0.934055
    13689.253900       0.932771
    13708.019200       0.931487
    13726.836000       0.930204
    13745.704500       0.928923
    13764.624900       0.927644
    13783.597500       0.926367
    13802.622500       0.925093
    13821.700100       0.923822
    13840.830400       0.922554
    13860.013900       0.921291
    13879.250500       0.920032
    13898.540700       0.918778
    13917.884500       0.917529
    13937.282200       0.916286
    13956.734100       0.915049
    13976.240400       0.913818
    13995.801300       0.912594
    14015.417000       0.911378
    14035.087700       0.910169
    14054.813800       0.908968
    14074.595400       0.907776
    14094.432700       0.906593
    14114.326000       0.905418
    14134.275600       0.904254
    14154.281700       0.903099
    14174.344400       0.901954
    14194.464200       0.900820
    14214.641100       0.899697
    14234.875400       0.898586
    14255.167500       0.897486
    14275.517500       0.896398
    14295.925700       0.895323
    14316.392300       0.894260
    14336.917600       0.893210
    14357.501800       0.892173
    14378.145200       0.891151
    14398.848100       0.890142
    14419.610700       0.889147
    14440.433200       0.888167
    14461.316000       0.887202
    14482.259200       0.886251
    14503.263200       0.885317
    14524.328200       0.884398
    14545.454500       0.883494
    14566.642400       0.882607
    14587.892000       0.881737
    14609.203800       0.880883
    14630.577900       0.880046
    14652.014700       0.879226
    14673.514300       0.878424
    14695.077100       0.877639
    14716.703500       0.876872
    14738.393500       0.876123
    14760.147600       0.875392
    14781.966000       0.874680
    14803.849000       0.873986
    14825.796900       0.873311
    14847.809900       0.872654
    14869.888500       0.872017
    14892.032800       0.871400
    14914.243100       0.870801
    14936.519800       0.870222
    14958.863100       0.869663
    14981.273400       0.869123
    15003.750900       0.868603
    15026.296000       0.868104
    15048.909000       0.867624
    15071.590100       0.867165
    15094.339600       0.866725
    15117.158000       0.866306
    15140.045400       0.865908
    15163.002300       0.865529
    15186.028900       0.865172
    15209.125500       0.864834
    15232.292500       0.864517
    15255.530100       0.864221
    15278.838800       0.863945
    15302.218800       0.863690
    15325.670500       0.863456
    15349.194200       0.863241
    15372.790200       0.863048
    15396.458800       0.862874
    15420.200500       0.862721
    15444.015400       0.862589
    15467.904100       0.862477
    15491.866800       0.862384
    15515.903800       0.862312
    15540.015500       0.862260
    15564.202300       0.862228
    15588.464500       0.862216
    15612.802500       0.862223
    15637.216600       0.862250
    15661.707100       0.862296
    15686.274500       0.862361
    15710.919100       0.862445
    15735.641200       0.862549
    15760.441300       0.862670
    15785.319700       0.862811
    15810.276700       0.862969
    15835.312700       0.863146
    15860.428200       0.863341
    15885.623500       0.863553
    15910.899000       0.863782
    15936.255000       0.864029
    15961.691900       0.864292
    15987.210200       0.864572
    16012.810200       0.864868
    16038.492400       0.865181
    16064.257000       0.865508
    16090.104600       0.865851
    16116.035500       0.866210
    16142.050000       0.866582
    16168.148700       0.866970
    16194.332000       0.867371
    16220.600200       0.867785
    16246.953700       0.868213
    16273.393000       0.868654
    16299.918500       0.869107
    16326.530600       0.869572
    16353.229800       0.870049
    16380.016400       0.870537
    16406.890900       0.871035
    16433.853700       0.871544
    16460.905300       0.872062
    16488.046200       0.872590
    16515.276600       0.873127
    16542.597200       0.873672
    16570.008300       0.874225
    16597.510400       0.874785
    16625.103900       0.875352
    16652.789300       0.875926
    16680.567100       0.876505
    16708.437800       0.877089
    16736.401700       0.877678
    16764.459300       0.878271
    16792.611300       0.878867
    16820.857900       0.879467
    16849.199700       0.880068
    16877.637100       0.880671
    16906.170800       0.881276
    16934.801000       0.881880
    16963.528400       0.882485
    16992.353400       0.883088
    17021.276600       0.883691
    17050.298400       0.884290
    17079.419300       0.884888
    17108.639900       0.885481
    17137.960600       0.886070
    17167.382000       0.886655
    17196.904600       0.887234
    17226.528900       0.887806
    17256.255400       0.888372
    17286.084700       0.888929
    17316.017300       0.889478
    17346.053800       0.890018
    17376.194600       0.890548
    17406.440400       0.891067
    17436.791600       0.891574
    17467.248900       0.892069
    17497.812800       0.892551
    17528.483800       0.893019
    17559.262500       0.893473
    17590.149500       0.893911
    17621.145400       0.894332
    17652.250700       0.894737
    17683.466000       0.895123
