13, GOES-R 10.35um ABI SRF CWG processed version 3 March 10, 2016
Number of data points:
987
Wavenumber (cm-1)   Filter response
      914.200000       0.001137
      914.300000       0.001277
      914.400000       0.001417
      914.500000       0.001553
      914.600000       0.001685
      914.700000       0.001826
      914.800000       0.001959
      914.900000       0.002095
      915.000000       0.002235
      915.100000       0.002385
      915.200000       0.002552
      915.300000       0.002724
      915.400000       0.002897
      915.500000       0.003080
      915.600000       0.003252
      915.700000       0.003425
      915.800000       0.003598
      915.900000       0.003773
      916.000000       0.004018
      916.100000       0.004339
      916.200000       0.004656
      916.300000       0.004978
      916.400000       0.005294
      916.500000       0.005619
      916.600000       0.005936
      916.700000       0.006261
      916.800000       0.006568
      916.900000       0.006508
      917.000000       0.006198
      917.100000       0.005910
      917.200000       0.005623
      917.300000       0.005333
      917.400000       0.005045
      917.500000       0.004753
      917.600000       0.004467
      917.700000       0.004212
      917.800000       0.004218
      917.900000       0.004358
      918.000000       0.004494
      918.100000       0.004623
      918.200000       0.004751
      918.300000       0.004886
      918.400000       0.005015
      918.500000       0.005143
      918.600000       0.005291
      918.700000       0.005471
      918.800000       0.005670
      918.900000       0.005862
      919.000000       0.006059
      919.100000       0.006256
      919.200000       0.006454
      919.300000       0.006646
      919.400000       0.006855
      919.500000       0.006916
      919.600000       0.006722
      919.700000       0.006448
      919.800000       0.006184
      919.900000       0.005921
      920.000000       0.005656
      920.100000       0.005393
      920.200000       0.005123
      920.300000       0.004852
      920.400000       0.004586
      920.500000       0.004311
      920.600000       0.004038
      920.700000       0.003757
      920.800000       0.003483
      920.900000       0.003207
      921.000000       0.002926
      921.100000       0.002649
      921.200000       0.002373
      921.300000       0.002376
      921.400000       0.002625
      921.500000       0.002906
      921.600000       0.003189
      921.700000       0.003466
      921.800000       0.003746
      921.900000       0.004031
      922.000000       0.004304
      922.100000       0.004588
      922.200000       0.004866
      922.300000       0.005135
      922.400000       0.005404
      922.500000       0.005684
      922.600000       0.005955
      922.700000       0.006226
      922.800000       0.006497
      922.900000       0.006769
      923.000000       0.007071
      923.100000       0.007028
      923.200000       0.006933
      923.300000       0.006832
      923.400000       0.006734
      923.500000       0.006634
      923.600000       0.006529
      923.700000       0.006433
      923.800000       0.006330
      923.900000       0.006263
      924.000000       0.006318
      924.100000       0.006430
      924.200000       0.006538
      924.300000       0.006644
      924.400000       0.006752
      924.500000       0.006863
      924.600000       0.006973
      924.700000       0.007082
      924.800000       0.007182
      924.900000       0.007267
      925.000000       0.007351
      925.100000       0.007436
      925.200000       0.007520
      925.300000       0.007602
      925.400000       0.007678
      925.500000       0.007761
      925.600000       0.007847
      925.700000       0.007905
      925.800000       0.007910
      925.900000       0.007913
      926.000000       0.007917
      926.100000       0.007911
      926.200000       0.007912
      926.300000       0.007916
      926.400000       0.007916
      926.500000       0.007911
      926.600000       0.008021
      926.700000       0.008279
      926.800000       0.008537
      926.900000       0.008800
      927.000000       0.009063
      927.100000       0.009325
      927.200000       0.009588
      927.300000       0.009858
      927.400000       0.010111
      927.500000       0.010304
      927.600000       0.010432
      927.700000       0.010561
      927.800000       0.010691
      927.900000       0.010808
      928.000000       0.010938
      928.100000       0.011066
      928.200000       0.011187
      928.300000       0.011318
      928.400000       0.011413
      928.500000       0.011485
      928.600000       0.011567
      928.700000       0.011648
      928.800000       0.011723
      928.900000       0.011805
      929.000000       0.011864
      929.100000       0.011960
      929.200000       0.012044
      929.300000       0.012096
      929.400000       0.012101
      929.500000       0.012117
      929.600000       0.012211
      929.700000       0.012237
      929.800000       0.012243
      929.900000       0.012258
      930.000000       0.012375
      930.100000       0.012358
      930.200000       0.012141
      930.300000       0.011864
      930.400000       0.011628
      930.500000       0.011379
      930.600000       0.011129
      930.700000       0.010880
      930.800000       0.010630
      930.900000       0.010340
      931.000000       0.010400
      931.100000       0.011226
      931.200000       0.012182
      931.300000       0.013151
      931.400000       0.014119
      931.500000       0.015095
      931.600000       0.015961
      931.700000       0.016908
      931.800000       0.017872
      931.900000       0.018628
      932.000000       0.019037
      932.100000       0.019362
      932.200000       0.019703
      932.300000       0.020132
      932.400000       0.020475
      932.500000       0.020805
      932.600000       0.021137
      932.700000       0.021481
      932.800000       0.021607
      932.900000       0.021578
      933.000000       0.021512
      933.100000       0.021419
      933.200000       0.021384
      933.300000       0.021275
      933.400000       0.021218
      933.500000       0.021180
      933.600000       0.021120
      933.700000       0.021075
      933.800000       0.021076
      933.900000       0.020967
      934.000000       0.020975
      934.100000       0.020947
      934.200000       0.020876
      934.300000       0.020874
      934.400000       0.020865
      934.500000       0.020805
      934.600000       0.021228
      934.700000       0.021929
      934.800000       0.022658
      934.900000       0.023319
      935.000000       0.023968
      935.100000       0.024618
      935.200000       0.025268
      935.300000       0.025919
      935.400000       0.026545
      935.500000       0.027133
      935.600000       0.027719
      935.700000       0.028198
      935.800000       0.028766
      935.900000       0.029315
      936.000000       0.029808
      936.100000       0.030381
      936.200000       0.030891
      936.300000       0.031442
      936.400000       0.031970
      936.500000       0.032413
      936.600000       0.032848
      936.700000       0.033281
      936.800000       0.033714
      936.900000       0.034147
      937.000000       0.034578
      937.100000       0.035010
      937.200000       0.035443
      937.300000       0.035877
      937.400000       0.036391
      937.500000       0.037070
      937.600000       0.037709
      937.700000       0.038364
      937.800000       0.039012
      937.900000       0.039666
      938.000000       0.040306
      938.100000       0.040969
      938.200000       0.041606
      938.300000       0.042271
      938.400000       0.042793
      938.500000       0.043310
      938.600000       0.043889
      938.700000       0.044342
      938.800000       0.044891
      938.900000       0.045365
      939.000000       0.045936
      939.100000       0.046442
      939.200000       0.046970
      939.300000       0.047631
      939.400000       0.048529
      939.500000       0.049536
      939.600000       0.050546
      939.700000       0.051557
      939.800000       0.052558
      939.900000       0.053540
      940.000000       0.054520
      940.100000       0.055499
      940.200000       0.056477
      940.300000       0.057579
      940.400000       0.058698
      940.500000       0.059817
      940.600000       0.060934
      940.700000       0.062051
      940.800000       0.063167
      940.900000       0.064282
      941.000000       0.065396
      941.100000       0.066509
      941.200000       0.067623
      941.300000       0.068804
      941.400000       0.070124
      941.500000       0.071414
      941.600000       0.072685
      941.700000       0.074017
      941.800000       0.075266
      941.900000       0.076564
      942.000000       0.077868
      942.100000       0.079123
      942.200000       0.080438
      942.300000       0.081616
      942.400000       0.082597
      942.500000       0.083544
      942.600000       0.084491
      942.700000       0.085444
      942.800000       0.086467
      942.900000       0.087433
      943.000000       0.088367
      943.100000       0.089301
      943.200000       0.090220
      943.300000       0.091597
      943.400000       0.093542
      943.500000       0.095683
      943.600000       0.097725
      943.700000       0.099753
      943.800000       0.101779
      943.900000       0.103803
      944.000000       0.105827
      944.100000       0.107852
      944.200000       0.109876
      944.300000       0.111951
      944.400000       0.114268
      944.500000       0.116568
      944.600000       0.118907
      944.700000       0.121347
      944.800000       0.123211
      944.900000       0.125716
      945.000000       0.128062
      945.100000       0.129920
      945.200000       0.132583
      945.300000       0.134671
      945.400000       0.136645
      945.500000       0.138699
      945.600000       0.140719
      945.700000       0.142765
      945.800000       0.144757
      945.900000       0.146850
      946.000000       0.148797
      946.100000       0.150899
      946.200000       0.152852
      946.300000       0.155319
      946.400000       0.158022
      946.500000       0.160702
      946.600000       0.163382
      946.700000       0.166060
      946.800000       0.168737
      946.900000       0.171412
      947.000000       0.174080
      947.100000       0.176740
      947.200000       0.179412
      947.300000       0.182042
      947.400000       0.185637
      947.500000       0.188564
      947.600000       0.192374
      947.700000       0.195108
      947.800000       0.198021
      947.900000       0.201629
      948.000000       0.204846
      948.100000       0.208154
      948.200000       0.210778
      948.300000       0.214459
      948.400000       0.218463
      948.500000       0.222452
      948.600000       0.226425
      948.700000       0.230015
      948.800000       0.233141
      948.900000       0.237189
      949.000000       0.241130
      949.100000       0.245053
      949.200000       0.248994
      949.300000       0.252928
      949.400000       0.257213
      949.500000       0.262450
      949.600000       0.267194
      949.700000       0.271647
      949.800000       0.276249
      949.900000       0.281038
      950.000000       0.285999
      950.100000       0.290458
      950.200000       0.295077
      950.300000       0.299526
      950.400000       0.304107
      950.500000       0.308494
      950.600000       0.312693
      950.700000       0.316501
      950.800000       0.320865
      950.900000       0.324836
      951.000000       0.328706
      951.100000       0.333219
      951.200000       0.336956
      951.300000       0.340893
      951.400000       0.345813
      951.500000       0.350729
      951.600000       0.356127
      951.700000       0.361714
      951.800000       0.366564
      951.900000       0.371401
      952.000000       0.377273
      952.100000       0.382385
      952.200000       0.387248
      952.300000       0.392111
      952.400000       0.397277
      952.500000       0.404142
      952.600000       0.410363
      952.700000       0.416452
      952.800000       0.422548
      952.900000       0.428641
      953.000000       0.434731
      953.100000       0.440817
      953.200000       0.446903
      953.300000       0.453045
      953.400000       0.459730
      953.500000       0.465549
      953.600000       0.471199
      953.700000       0.477296
      953.800000       0.483381
      953.900000       0.489131
      954.000000       0.494424
      954.100000       0.500315
      954.200000       0.505960
      954.300000       0.510897
      954.400000       0.515018
      954.500000       0.519938
      954.600000       0.525101
      954.700000       0.530779
      954.800000       0.536184
      954.900000       0.541818
      955.000000       0.547367
      955.100000       0.552803
      955.200000       0.558827
      955.300000       0.564778
      955.400000       0.569925
      955.500000       0.575672
      955.600000       0.581061
      955.700000       0.586677
      955.800000       0.592165
      955.900000       0.597646
      956.000000       0.603662
      956.100000       0.609420
      956.200000       0.614582
      956.300000       0.620561
      956.400000       0.626448
      956.500000       0.631757
      956.600000       0.637266
      956.700000       0.642716
      956.800000       0.648032
      956.900000       0.654012
      957.000000       0.659582
      957.100000       0.664690
      957.200000       0.670401
      957.300000       0.676185
      957.400000       0.681189
      957.500000       0.686605
      957.600000       0.691935
      957.700000       0.697070
      957.800000       0.702975
      957.900000       0.708492
      958.000000       0.713731
      958.100000       0.719442
      958.200000       0.725408
      958.300000       0.730454
      958.400000       0.736060
      958.500000       0.741415
      958.600000       0.745702
      958.700000       0.748931
      958.800000       0.752287
      958.900000       0.755592
      959.000000       0.758904
      959.100000       0.762221
      959.200000       0.765471
      959.300000       0.769178
      959.400000       0.773125
      959.500000       0.776534
      959.600000       0.779875
      959.700000       0.783222
      959.800000       0.786575
      959.900000       0.789938
      960.000000       0.793316
      960.100000       0.796710
      960.200000       0.800080
      960.300000       0.803466
      960.400000       0.806908
      960.500000       0.810358
      960.600000       0.813809
      960.700000       0.817266
      960.800000       0.820726
      960.900000       0.824175
      961.000000       0.827612
      961.100000       0.830985
      961.200000       0.834406
      961.300000       0.837730
      961.400000       0.841126
      961.500000       0.843991
      961.600000       0.846442
      961.700000       0.848732
      961.800000       0.850950
      961.900000       0.853155
      962.000000       0.855344
      962.100000       0.857513
      962.200000       0.859617
      962.300000       0.861300
      962.400000       0.862808
      962.500000       0.864301
      962.600000       0.865663
      962.700000       0.867091
      962.800000       0.868604
      962.900000       0.870123
      963.000000       0.871649
      963.100000       0.873184
      963.200000       0.874724
      963.300000       0.876263
      963.400000       0.877804
      963.500000       0.879340
      963.600000       0.880864
      963.700000       0.882278
      963.800000       0.883947
      963.900000       0.886022
      964.000000       0.887874
      964.100000       0.889427
      964.200000       0.890652
      964.300000       0.891576
      964.400000       0.892723
      964.500000       0.894186
      964.600000       0.895266
      964.700000       0.896230
      964.800000       0.897222
      964.900000       0.898255
      965.000000       0.899532
      965.100000       0.901147
      965.200000       0.902456
      965.300000       0.903487
      965.400000       0.904563
      965.500000       0.905575
      965.600000       0.906817
      965.700000       0.908158
      965.800000       0.910072
      965.900000       0.912206
      966.000000       0.913741
      966.100000       0.915293
      966.200000       0.916831
      966.300000       0.918363
      966.400000       0.919898
      966.500000       0.921348
      966.600000       0.922470
      966.700000       0.923392
      966.800000       0.924305
      966.900000       0.925194
      967.000000       0.926062
      967.100000       0.926920
      967.200000       0.927683
      967.300000       0.928518
      967.400000       0.929351
      967.500000       0.930204
      967.600000       0.931556
      967.700000       0.932963
      967.800000       0.934550
      967.900000       0.936174
      968.000000       0.937832
      968.100000       0.939496
      968.200000       0.941164
      968.300000       0.942839
      968.400000       0.944522
      968.500000       0.946209
      968.600000       0.947910
      968.700000       0.949472
      968.800000       0.950645
      968.900000       0.951673
      969.000000       0.952258
      969.100000       0.952958
      969.200000       0.954128
      969.300000       0.955276
      969.400000       0.956422
      969.500000       0.957563
      969.600000       0.958705
      969.700000       0.959744
      969.800000       0.960611
      969.900000       0.961999
      970.000000       0.963954
      970.100000       0.965937
      970.200000       0.968012
      970.300000       0.970099
      970.400000       0.972187
      970.500000       0.974276
      970.600000       0.976361
      970.700000       0.978245
      970.800000       0.979760
      970.900000       0.981081
      971.000000       0.982043
      971.100000       0.983027
      971.200000       0.984046
      971.300000       0.984737
      971.400000       0.985124
      971.500000       0.985832
      971.600000       0.986817
      971.700000       0.987805
      971.800000       0.988791
      971.900000       0.989834
      972.000000       0.990924
      972.100000       0.992031
      972.200000       0.993139
      972.300000       0.993936
      972.400000       0.994383
      972.500000       0.995200
      972.600000       0.996399
      972.700000       0.997491
      972.800000       0.998562
      972.900000       0.999328
      973.000000       0.999844
      973.100000       0.999952
      973.200000       0.999784
      973.300000       0.999649
      973.400000       0.999548
      973.500000       0.999442
      973.600000       0.999258
      973.700000       0.998760
      973.800000       0.998082
      973.900000       0.997546
      974.000000       0.997381
      974.100000       0.996688
      974.200000       0.995667
      974.300000       0.994653
      974.400000       0.993629
      974.500000       0.992595
      974.600000       0.991496
      974.700000       0.990084
      974.800000       0.988385
      974.900000       0.987058
      975.000000       0.985974
      975.100000       0.984869
      975.200000       0.983788
      975.300000       0.981859
      975.400000       0.979510
      975.500000       0.977165
      975.600000       0.974809
      975.700000       0.972437
      975.800000       0.970048
      975.900000       0.967643
      976.000000       0.965193
      976.100000       0.962051
