86,   86, MVIRI VIS channel from srf_MET7_2008123_2008124_1801-Release_S10EE_10.dat
Number of data points:
793
Wavenumber (cm-1)   Filter response
     8442.380800       0.000000
     8449.514200       0.000000
     8456.659600       0.000004
     8463.817200       0.000056
     8470.986900       0.000165
     8478.168700       0.000330
     8485.362700       0.000548
     8492.569000       0.000820
     8499.787500       0.001142
     8507.018300       0.001515
     8514.261400       0.001935
     8521.516800       0.002402
     8528.784600       0.002914
     8536.064900       0.003471
     8543.357500       0.004070
     8550.662700       0.004711
     8557.980300       0.005393
     8565.310500       0.006114
     8572.653200       0.006874
     8580.008600       0.007671
     8587.376600       0.008505
     8594.757200       0.009374
     8602.150500       0.010278
     8609.556600       0.011215
     8616.975400       0.012185
     8624.407100       0.013188
     8631.851500       0.014222
     8639.308900       0.015286
     8646.779100       0.016381
     8654.262200       0.017505
     8661.758300       0.018658
     8669.267400       0.019839
     8676.789600       0.021047
     8684.324800       0.022282
     8691.873100       0.023544
     8699.434500       0.024832
     8707.009100       0.026146
     8714.596900       0.027484
     8722.198000       0.028848
     8729.812300       0.030235
     8737.439900       0.031647
     8745.080900       0.033082
     8752.735200       0.034541
     8760.403000       0.036023
     8768.084200       0.037527
     8775.778900       0.039054
     8783.487000       0.040604
     8791.208800       0.042175
     8798.944100       0.043769
     8806.693100       0.045384
     8814.455700       0.047020
     8822.232000       0.048678
     8830.022100       0.050357
     8837.825900       0.052058
     8845.643500       0.053779
     8853.475000       0.055522
     8861.320300       0.057285
     8869.179600       0.059068
     8877.052800       0.060873
     8884.940000       0.062698
     8892.841300       0.064544
     8900.756600       0.066411
     8908.686000       0.068298
     8916.629500       0.070205
     8924.587200       0.072134
     8932.559200       0.074082
     8940.545400       0.076052
     8948.545900       0.078042
     8956.560700       0.080053
     8964.589900       0.082084
     8972.633500       0.084136
     8980.691500       0.086210
     8988.764000       0.088304
     8996.851100       0.090418
     9004.952700       0.092554
     9013.068900       0.094711
     9021.199800       0.096889
     9029.345400       0.099088
     9037.505600       0.101309
     9045.680700       0.103551
     9053.870500       0.105814
     9062.075200       0.108099
     9070.294800       0.110405
     9078.529300       0.112733
     9086.778700       0.115083
     9095.043200       0.117455
     9103.322700       0.119849
     9111.617300       0.122265
     9119.927000       0.124703
     9128.251900       0.127163
     9136.592100       0.129646
     9144.947400       0.132151
     9153.318100       0.134678
     9161.704100       0.137228
     9170.105500       0.139801
     9178.522300       0.142397
     9186.954500       0.145015
     9195.402300       0.147657
     9203.865600       0.150321
     9212.344500       0.153008
     9220.839100       0.155719
     9229.349300       0.158452
     9237.875300       0.161210
     9246.417000       0.163990
     9254.974500       0.166793
     9263.547900       0.169621
     9272.137200       0.172471
     9280.742500       0.175345
     9289.363700       0.178243
     9298.000900       0.181164
     9306.654300       0.184109
     9315.323700       0.187078
     9324.009300       0.190070
     9332.711200       0.193086
     9341.429200       0.196125
     9350.163600       0.199189
     9358.914400       0.202275
     9367.681500       0.205386
     9376.465100       0.208521
     9385.265100       0.211679
     9394.081700       0.214860
     9402.914900       0.218065
     9411.764700       0.221295
     9420.631200       0.224547
     9429.514400       0.227823
     9438.414300       0.231122
     9447.331100       0.234445
     9456.264800       0.237791
     9465.215300       0.241161
     9474.182900       0.244553
     9483.167400       0.247969
     9492.169000       0.251407
     9501.187600       0.254869
     9510.223500       0.258354
     9519.276500       0.261861
     9528.346800       0.265391
     9537.434400       0.268943
     9546.539400       0.272517
     9555.661700       0.276114
     9564.801500       0.279733
     9573.958800       0.283374
     9583.133700       0.287037
     9592.326100       0.290721
     9601.536200       0.294426
     9610.764100       0.298153
     9620.009600       0.301901
     9629.273000       0.305671
     9638.554200       0.309460
     9647.853400       0.313271
     9657.170400       0.317101
     9666.505600       0.320952
     9675.858700       0.324823
     9685.230000       0.328713
     9694.619500       0.332623
     9704.027200       0.336551
     9713.453100       0.340500
     9722.897400       0.344466
     9732.360100       0.348451
     9741.841200       0.352455
     9751.340800       0.356476
     9760.859000       0.360515
     9770.395700       0.364572
     9779.951100       0.368645
     9789.525200       0.372736
     9799.118100       0.376843
     9808.729800       0.380966
     9818.360300       0.385105
     9828.009800       0.389260
     9837.678300       0.393430
     9847.365800       0.397616
     9857.072400       0.401815
     9866.798200       0.406029
     9876.543200       0.410257
     9886.307500       0.414499
     9896.091000       0.418754
     9905.894000       0.423022
     9915.716400       0.427303
     9925.558300       0.431595
     9935.419800       0.435900
     9945.300800       0.440216
     9955.201600       0.444543
     9965.122100       0.448882
     9975.062300       0.453230
     9985.022500       0.457588
     9995.002500       0.461957
    10005.002500       0.466334
    10015.022500       0.470720
    10025.062700       0.475114
    10035.122900       0.479516
    10045.203400       0.483926
    10055.304200       0.488343
    10065.425300       0.492767
    10075.566800       0.497197
    10085.728700       0.501632
    10095.911200       0.506074
    10106.114200       0.510520
    10116.337900       0.514971
    10126.582300       0.519426
    10136.847400       0.523885
    10147.133400       0.528347
    10157.440300       0.532812
    10167.768200       0.537279
    10178.117000       0.541748
    10188.487000       0.546219
    10198.878100       0.550691
    10209.290500       0.555163
    10219.724100       0.559636
    10230.179000       0.564108
    10240.655400       0.568579
    10251.153300       0.573049
    10261.672700       0.577517
    10272.213700       0.581983
    10282.776300       0.586447
    10293.360800       0.590907
    10303.967000       0.595364
    10314.595200       0.599816
    10325.245200       0.604264
    10335.917300       0.608707
    10346.611500       0.613145
    10357.327800       0.617577
    10368.066400       0.622002
    10378.827200       0.626420
    10389.610400       0.630831
    10400.416000       0.635234
    10411.244100       0.639629
    10422.094800       0.644015
    10432.968200       0.648392
    10443.864200       0.652759
    10454.783100       0.657116
    10465.724800       0.661462
    10476.689400       0.665797
    10487.677000       0.670121
    10498.687700       0.674432
    10509.721500       0.678731
    10520.778500       0.683017
    10531.858900       0.687290
    10542.962600       0.691549
    10554.089700       0.695793
    10565.240400       0.700022
    10576.414600       0.704236
    10587.612500       0.708434
    10598.834100       0.712617
    10610.079600       0.716782
    10621.348900       0.720931
    10632.642200       0.725061
    10643.959600       0.729175
    10655.301000       0.733269
    10666.666700       0.737344
    10678.056600       0.741401
    10689.470900       0.745437
    10700.909600       0.749454
    10712.372800       0.753449
    10723.860600       0.757424
    10735.373100       0.761377
    10746.910300       0.765309
    10758.472300       0.769218
    10770.059200       0.773105
    10781.671200       0.776968
    10793.308100       0.780808
    10804.970300       0.784624
    10816.657700       0.788415
    10828.370300       0.792182
    10840.108400       0.795924
    10851.871900       0.799640
    10863.661100       0.803331
    10875.475800       0.806995
    10887.316300       0.810633
    10899.182600       0.814244
    10911.074700       0.817827
    10922.992900       0.821383
    10934.937100       0.824910
    10946.907500       0.828409
    10958.904100       0.831880
    10970.927000       0.835321
    10982.976400       0.838733
    10995.052200       0.842115
    11007.154700       0.845467
    11019.283700       0.848789
    11031.439600       0.852080
    11043.622300       0.855339
    11055.832000       0.858568
    11068.068600       0.861764
    11080.332400       0.864929
    11092.623400       0.868062
    11104.941700       0.871162
    11117.287400       0.874229
    11129.660500       0.877263
    11142.061300       0.880264
    11154.489700       0.883231
    11166.945800       0.886164
    11179.429800       0.889064
    11191.941800       0.891928
    11204.481800       0.894759
    11217.049900       0.897554
    11229.646300       0.900314
    11242.270900       0.903039
    11254.924000       0.905729
    11267.605600       0.908382
    11280.315800       0.911000
    11293.054800       0.913582
    11305.822500       0.916127
    11318.619100       0.918636
    11331.444800       0.921108
    11344.299500       0.923544
    11357.183400       0.925942
    11370.096600       0.928304
    11383.039300       0.930627
    11396.011400       0.932914
    11409.013100       0.935163
    11422.044500       0.937374
    11435.105800       0.939547
    11448.196900       0.941682
    11461.318100       0.943779
    11474.469300       0.945838
    11487.650800       0.947859
    11500.862600       0.949841
    11514.104800       0.951785
    11527.377500       0.953690
    11540.680900       0.955557
    11554.015000       0.957385
    11567.380000       0.959174
    11580.775900       0.960925
    11594.202900       0.962636
    11607.661100       0.964309
    11621.150500       0.965942
    11634.671300       0.967537
    11648.223600       0.969093
    11661.807600       0.970610
    11675.423200       0.972087
    11689.070700       0.973526
    11702.750100       0.974926
    11716.461600       0.976287
    11730.205300       0.977609
    11743.981200       0.978892
    11757.789500       0.980136
    11771.630400       0.981341
    11785.503800       0.982508
    11799.410000       0.983635
    11813.349100       0.984724
    11827.321100       0.985775
    11841.326200       0.986787
    11855.364600       0.987760
    11869.436200       0.988696
    11883.541300       0.989592
    11897.680000       0.990451
    11911.852300       0.991272
    11926.058400       0.992055
    11940.298500       0.992799
    11954.572600       0.993507
    11968.880900       0.994176
    11983.223500       0.994809
    11997.600500       0.995404
    12012.012000       0.995962
    12026.458200       0.996483
    12040.939200       0.996967
    12055.455100       0.997414
    12070.006000       0.997825
    12084.592100       0.998200
    12099.213600       0.998539
    12113.870400       0.998842
    12128.562800       0.999109
    12143.290800       0.999341
    12158.054700       0.999538
    12172.854500       0.999699
    12187.690400       0.999826
    12202.562500       0.999918
    12217.471000       0.999976
    12232.415900       1.000000
    12247.397400       0.999990
    12262.415700       0.999946
    12277.470800       0.999870
    12292.563000       0.999760
    12307.692300       0.999617
    12322.858900       0.999442
    12338.062900       0.999234
    12353.304500       0.998995
    12368.583800       0.998724
    12383.900900       0.998422
    12399.256000       0.998088
    12414.649300       0.997724
    12430.080800       0.997330
    12445.550700       0.996905
    12461.059200       0.996451
    12476.606400       0.995967
    12492.192400       0.995454
    12507.817400       0.994912
    12523.481500       0.994342
    12539.185000       0.993744
    12554.927800       0.993118
    12570.710200       0.992464
    12586.532400       0.991784
    12602.394500       0.991076
    12618.296500       0.990343
    12634.238800       0.989584
    12650.221400       0.988799
    12666.244500       0.987988
    12682.308200       0.987153
    12698.412700       0.986294
    12714.558200       0.985410
    12730.744700       0.984503
    12746.972600       0.983573
    12763.241900       0.982620
    12779.552700       0.981644
    12795.905300       0.980646
    12812.299800       0.979627
    12828.736400       0.978586
    12845.215200       0.977525
    12861.736300       0.976443
    12878.300100       0.975341
    12894.906500       0.974220
    12911.555800       0.973079
    12928.248200       0.971920
    12944.983800       0.970742
    12961.762800       0.969547
    12978.585300       0.968334
    12995.451600       0.967104
    13012.361700       0.965857
    13029.316000       0.964595
    13046.314400       0.963317
    13063.357300       0.962023
    13080.444700       0.960715
    13097.576900       0.959392
    13114.754100       0.958056
    13131.976400       0.956706
    13149.243900       0.955343
    13166.556900       0.953967
    13183.915600       0.952579
    13201.320100       0.951180
    13218.770700       0.949769
    13236.267400       0.948348
    13253.810500       0.946916
    13271.400100       0.945475
    13289.036500       0.944024
    13306.719900       0.942564
    13324.450400       0.941095
    13342.228200       0.939619
    13360.053400       0.938134
    13377.926400       0.936643
    13395.847300       0.935145
    13413.816200       0.933641
    13431.833400       0.932131
    13449.899100       0.930616
    13468.013500       0.929095
    13486.176700       0.927571
    13504.388900       0.926042
    13522.650400       0.924509
    13540.961400       0.922974
    13559.322000       0.921436
    13577.732500       0.919895
    13596.193100       0.918353
    13614.703900       0.916810
    13633.265200       0.915265
    13651.877100       0.913720
    13670.540000       0.912175
    13689.253900       0.910631
    13708.019200       0.909087
    13726.836000       0.907544
    13745.704500       0.906003
    13764.624900       0.904464
    13783.597500       0.902928
    13802.622500       0.901395
    13821.700100       0.899864
    13840.830400       0.898338
    13860.013900       0.896816
    13879.250500       0.895298
    13898.540700       0.893785
    13917.884500       0.892277
    13937.282200       0.890776
    13956.734100       0.889280
    13976.240400       0.887791
    13995.801300       0.886308
    14015.417000       0.884833
    14035.087700       0.883366
    14054.813800       0.881906
    14074.595400       0.880455
    14094.432700       0.879013
    14114.326000       0.877580
    14134.275600       0.876156
    14154.281700       0.874742
    14174.344400       0.873338
    14194.464200       0.871944
    14214.641100       0.870562
    14234.875400       0.869190
    14255.167500       0.867830
    14275.517500       0.866481
    14295.925700       0.865145
    14316.392300       0.863821
    14336.917600       0.862510
    14357.501800       0.861211
    14378.145200       0.859926
    14398.848100       0.858655
    14419.610700       0.857397
    14440.433200       0.856154
    14461.316000       0.854924
    14482.259200       0.853710
    14503.263200       0.852510
    14524.328200       0.851325
    14545.454500       0.850156
    14566.642400       0.849002
    14587.892000       0.847864
    14609.203800       0.846742
    14630.577900       0.845637
    14652.014700       0.844547
    14673.514300       0.843475
    14695.077100       0.842419
    14716.703500       0.841380
    14738.393500       0.840359
    14760.147600       0.839355
    14781.966000       0.838368
    14803.849000       0.837399
    14825.796900       0.836448
    14847.809900       0.835515
    14869.888500       0.834600
    14892.032800       0.833703
    14914.243100       0.832825
    14936.519800       0.831965
    14958.863100       0.831124
    14981.273400       0.830301
    15003.750900       0.829497
    15026.296000       0.828712
    15048.909000       0.827946
    15071.590100       0.827199
    15094.339600       0.826470
    15117.158000       0.825761
    15140.045400       0.825071
    15163.002300       0.824400
    15186.028900       0.823748
    15209.125500       0.823115
    15232.292500       0.822502
    15255.530100       0.821907
    15278.838800       0.821332
    15302.218800       0.820776
    15325.670500       0.820239
    15349.194200       0.819720
    15372.790200       0.819221
    15396.458800       0.818741
    15420.200500       0.818280
    15444.015400       0.817837
    15467.904100       0.817413
    15491.866800       0.817007
    15515.903800       0.816620
    15540.015500       0.816252
    15564.202300       0.815901
    15588.464500       0.815569
    15612.802500       0.815255
    15637.216600       0.814958
    15661.707100       0.814679
    15686.274500       0.814418
    15710.919100       0.814174
    15735.641200       0.813947
    15760.441300       0.813737
    15785.319700       0.813543
    15810.276700       0.813366
    15835.312700       0.813206
    15860.428200       0.813061
    15885.623500       0.812932
    15910.899000       0.812819
    15936.255000       0.812721
    15961.691900       0.812637
    15987.210200       0.812569
    16012.810200       0.812515
    16038.492400       0.812475
    16064.257000       0.812449
    16090.104600       0.812437
    16116.035500       0.812437
    16142.050000       0.812451
    16168.148700       0.812476
    16194.332000       0.812514
    16220.600200       0.812564
    16246.953700       0.812625
    16273.393000       0.812698
    16299.918500       0.812780
    16326.530600       0.812873
    16353.229800       0.812976
    16380.016400       0.813088
    16406.890900       0.813209
    16433.853700       0.813339
    16460.905300       0.813476
    16488.046200       0.813622
    16515.276600       0.813774
    16542.597200       0.813933
    16570.008300       0.814098
    16597.510400       0.814269
    16625.103900       0.814446
    16652.789300       0.814626
    16680.567100       0.814811
    16708.437800       0.815000
    16736.401700       0.815192
    16764.459300       0.815387
    16792.611300       0.815583
    16820.857900       0.815781
    16849.199700       0.815980
    16877.637100       0.816180
    16906.170800       0.816379
    16934.801000       0.816577
    16963.528400       0.816774
    16992.353400       0.816969
    17021.276600       0.817162
    17050.298400       0.817351
    17079.419300       0.817536
    17108.639900       0.817717
    17137.960600       0.817893
    17167.382000       0.818063
    17196.904600       0.818227
    17226.528900       0.818384
    17256.255400       0.818533
    17286.084700       0.818673
    17316.017300       0.818805
    17346.053800       0.818927
    17376.194600       0.819039
    17406.440400       0.819139
    17436.791600       0.819228
    17467.248900       0.819304
    17497.812800       0.819367
    17528.483800       0.819416
    17559.262500       0.819451
    17590.149500       0.819470
    17621.145400       0.819473
    17652.250700       0.819460
    17683.466000       0.819429
