8  ,metop_02_hirs_08.flt  shift of -0.52cm-1 applied
Number of data points:
584
Wavenumber (cm-1)   Filter response
      868.660000       0.000000
      868.760000       0.004100
      868.860000       0.004120
      868.960000       0.004168
      869.060000       0.004248
      869.160000       0.004360
      869.260000       0.004505
      869.360000       0.004684
      869.460000       0.004896
      869.560000       0.005140
      869.660000       0.005416
      869.760000       0.005721
      869.860000       0.006056
      869.960000       0.006417
      870.060000       0.006805
      870.160000       0.007217
      870.260000       0.007653
      870.360000       0.008110
      870.460000       0.008590
      870.560000       0.009090
      870.660000       0.009610
      870.760000       0.010151
      870.860000       0.010711
      870.960000       0.011290
      871.060000       0.011887
      871.160000       0.012504
      871.260000       0.013140
      871.360000       0.013794
      871.460000       0.014466
      871.560000       0.015159
      871.660000       0.015871
      871.760000       0.016601
      871.860000       0.017349
      871.960000       0.018116
      872.060000       0.018900
      872.160000       0.019702
      872.260000       0.020522
      872.360000       0.021359
      872.460000       0.022215
      872.560000       0.023088
      872.660000       0.023979
      872.760000       0.024890
      872.860000       0.025820
      872.960000       0.026770
      873.060000       0.027741
      873.160000       0.028734
      873.260000       0.029751
      873.360000       0.030794
      873.460000       0.031864
      873.560000       0.032962
      873.660000       0.034090
      873.760000       0.035253
      873.860000       0.036454
      873.960000       0.037696
      874.060000       0.038984
      874.160000       0.040321
      874.260000       0.041712
      874.360000       0.043161
      874.460000       0.044675
      874.560000       0.046259
      874.660000       0.047917
      874.760000       0.049658
      874.860000       0.051487
      874.960000       0.053410
      875.060000       0.054900
      875.160000       0.056998
      875.260000       0.059210
      875.360000       0.061545
      875.460000       0.064011
      875.560000       0.066629
      875.660000       0.069399
      875.760000       0.072325
      875.860000       0.075416
      875.960000       0.078680
      876.060000       0.082125
      876.160000       0.085758
      876.260000       0.089589
      876.360000       0.093625
      876.460000       0.097873
      876.560000       0.102340
      876.660000       0.107040
      876.760000       0.111970
      876.860000       0.117140
      876.960000       0.122550
      877.060000       0.128220
      877.160000       0.134150
      877.260000       0.140340
      877.360000       0.146790
      877.460000       0.153520
      877.560000       0.160500
      877.660000       0.167760
      877.760000       0.175290
      877.860000       0.183100
      877.960000       0.191200
      878.060000       0.199570
      878.160000       0.208220
      878.260000       0.217160
      878.360000       0.226370
      878.460000       0.235850
      878.560000       0.245600
      878.660000       0.255620
      878.760000       0.265900
      878.860000       0.276440
      878.960000       0.287230
      879.060000       0.298250
      879.160000       0.309520
      879.260000       0.321000
      879.360000       0.332700
      879.460000       0.344610
      879.560000       0.356680
      879.660000       0.368930
      879.760000       0.381340
      879.860000       0.393910
      879.960000       0.406620
      880.060000       0.419460
      880.160000       0.432410
      880.260000       0.445470
      880.360000       0.458610
      880.460000       0.471820
      880.560000       0.485090
      880.660000       0.498400
      880.760000       0.511730
      880.860000       0.525060
      880.960000       0.538390
      881.060000       0.551700
      881.160000       0.564960
      881.260000       0.578160
      881.360000       0.591290
      881.460000       0.604330
      881.560000       0.617160
      881.660000       0.629830
      881.760000       0.642370
      881.860000       0.654750
      881.960000       0.666960
      882.060000       0.678990
      882.160000       0.690820
      882.260000       0.702450
      882.360000       0.713860
      882.460000       0.725040
      882.560000       0.735980
      882.660000       0.746670
      882.760000       0.757100
      882.860000       0.767270
      882.960000       0.777150
      883.060000       0.786740
      883.160000       0.796030
      883.260000       0.805040
      883.360000       0.813740
      883.460000       0.822150
      883.560000       0.830490
      883.660000       0.838590
      883.760000       0.846390
      883.860000       0.853890
      883.960000       0.861090
      884.060000       0.867980
      884.160000       0.874590
      884.260000       0.880890
      884.360000       0.886900
      884.460000       0.892630
      884.560000       0.898070
      884.660000       0.903240
      884.760000       0.908140
      884.860000       0.912770
      884.960000       0.917160
      885.060000       0.921290
      885.160000       0.925180
      885.260000       0.928830
      885.360000       0.932260
      885.460000       0.935460
      885.560000       0.938370
      885.660000       0.941060
      885.760000       0.943550
      885.860000       0.945870
      885.960000       0.948010
      886.060000       0.949980
      886.160000       0.951800
      886.260000       0.953470
      886.360000       0.955010
      886.460000       0.956420
      886.560000       0.957710
      886.660000       0.958890
      886.760000       0.959980
      886.860000       0.960980
      886.960000       0.961900
      887.060000       0.962740
      887.160000       0.963520
      887.260000       0.964230
      887.360000       0.964900
      887.460000       0.965510
      887.560000       0.966080
      887.660000       0.966620
      887.760000       0.967130
      887.860000       0.967610
      887.960000       0.968070
      888.060000       0.968510
      888.160000       0.968940
      888.260000       0.969360
      888.360000       0.969770
      888.460000       0.970180
      888.560000       0.970580
      888.660000       0.970990
      888.760000       0.971390
      888.860000       0.971790
      888.960000       0.972190
      889.060000       0.972600
      889.160000       0.973010
      889.260000       0.973420
      889.360000       0.973830
      889.460000       0.974240
      889.560000       0.974560
      889.660000       0.974840
      889.760000       0.975130
      889.860000       0.975410
      889.960000       0.975700
      890.060000       0.975970
      890.160000       0.976250
      890.260000       0.976510
      890.360000       0.976770
      890.460000       0.977020
      890.560000       0.977260
      890.660000       0.977480
      890.760000       0.977710
      890.860000       0.977920
      890.960000       0.978110
      891.060000       0.978290
      891.160000       0.978450
      891.260000       0.978590
      891.360000       0.978720
      891.460000       0.978820
      891.560000       0.979110
      891.660000       0.979420
      891.760000       0.979720
      891.860000       0.979990
      891.960000       0.980250
      892.060000       0.980490
      892.160000       0.980710
      892.260000       0.980910
      892.360000       0.981090
      892.460000       0.981260
      892.560000       0.981410
      892.660000       0.981580
      892.760000       0.981750
      892.860000       0.981910
      892.960000       0.982050
      893.060000       0.982190
      893.160000       0.982310
      893.260000       0.982430
      893.360000       0.982540
      893.460000       0.982640
      893.560000       0.982530
      893.660000       0.982360
      893.760000       0.982180
      893.860000       0.982000
      893.960000       0.981820
      894.060000       0.981650
      894.160000       0.981470
      894.260000       0.981290
      894.360000       0.981120
      894.460000       0.980940
      894.560000       0.980790
      894.660000       0.980670
      894.760000       0.980550
      894.860000       0.980430
      894.960000       0.980310
      895.060000       0.980200
      895.160000       0.980090
      895.260000       0.979990
      895.360000       0.979890
      895.460000       0.979800
      895.560000       0.979710
      895.660000       0.979630
      895.760000       0.979560
      895.860000       0.979480
      895.960000       0.979410
      896.060000       0.979340
      896.160000       0.979270
      896.260000       0.979200
      896.360000       0.979140
      896.460000       0.979080
      896.560000       0.979050
      896.660000       0.979030
      896.760000       0.979010
      896.860000       0.978980
      896.960000       0.978960
      897.060000       0.978940
      897.160000       0.978920
      897.260000       0.978900
      897.360000       0.978870
      897.460000       0.978850
      897.560000       0.978870
      897.660000       0.978890
      897.760000       0.978910
      897.860000       0.978930
      897.960000       0.978960
      898.060000       0.979000
      898.160000       0.979050
      898.260000       0.979100
      898.360000       0.979160
      898.460000       0.979250
      898.560000       0.979350
      898.660000       0.979460
      898.760000       0.979590
      898.860000       0.979730
      898.960000       0.979880
      899.060000       0.980050
      899.160000       0.980240
      899.260000       0.980440
      899.360000       0.980670
      899.460000       0.980910
      899.560000       0.981200
      899.660000       0.981510
      899.760000       0.981840
      899.860000       0.982200
      899.960000       0.982580
      900.060000       0.982980
      900.160000       0.983410
      900.260000       0.983850
      900.360000       0.984320
      900.460000       0.984820
      900.560000       0.985330
      900.660000       0.985860
      900.760000       0.986410
      900.860000       0.986980
      900.960000       0.987560
      901.060000       0.988160
      901.160000       0.988770
      901.260000       0.989390
      901.360000       0.990020
      901.460000       0.990660
      901.560000       0.991300
      901.660000       0.991950
      901.760000       0.992600
      901.860000       0.993250
      901.960000       0.993890
      902.060000       0.994520
      902.160000       0.995140
      902.260000       0.995710
      902.360000       0.996230
      902.460000       0.996720
      902.560000       0.997190
      902.660000       0.997630
      902.760000       0.998040
      902.860000       0.998420
      902.960000       0.998760
      903.060000       0.999070
      903.160000       0.999340
      903.260000       0.999570
      903.360000       0.999750
      903.460000       0.999890
      903.560000       0.999970
      903.660000       1.000000
      903.760000       0.999980
      903.860000       0.999920
      903.960000       0.999810
      904.060000       0.999640
      904.160000       0.999430
      904.260000       0.999130
      904.360000       0.998790
      904.460000       0.998410
      904.560000       0.997980
      904.660000       0.997500
      904.760000       0.997000
      904.860000       0.996450
      904.960000       0.995880
      905.060000       0.995280
      905.160000       0.994670
      905.260000       0.994030
      905.360000       0.993380
      905.460000       0.992710
      905.560000       0.991800
      905.660000       0.990830
      905.760000       0.989860
      905.860000       0.988910
      905.960000       0.987960
      906.060000       0.987050
      906.160000       0.986140
      906.260000       0.985270
      906.360000       0.984430
      906.460000       0.983640
      906.560000       0.982880
      906.660000       0.982180
      906.760000       0.981520
      906.860000       0.980930
      906.960000       0.980390
      907.060000       0.979920
      907.160000       0.979510
      907.260000       0.979170
      907.360000       0.978900
      907.460000       0.978700
      907.560000       0.978620
      907.660000       0.978630
      907.760000       0.978710
      907.860000       0.978850
      907.960000       0.979050
      908.060000       0.979290
      908.160000       0.979570
      908.260000       0.979890
      908.360000       0.980250
      908.460000       0.980660
      908.560000       0.981090
      908.660000       0.981540
      908.760000       0.982010
      908.860000       0.982480
      908.960000       0.982950
      909.060000       0.983390
      909.160000       0.983810
      909.260000       0.984180
      909.360000       0.984500
      909.460000       0.984750
      909.560000       0.985120
      909.660000       0.985430
      909.760000       0.985640
      909.860000       0.985720
      909.960000       0.985650
      910.060000       0.985390
      910.160000       0.984960
      910.260000       0.984340
      910.360000       0.983520
      910.460000       0.982470
      910.560000       0.981200
      910.660000       0.979670
      910.760000       0.977870
      910.860000       0.975800
      910.960000       0.973430
      911.060000       0.970740
      911.160000       0.967740
      911.260000       0.964400
      911.360000       0.960710
      911.460000       0.956660
      911.560000       0.952130
      911.660000       0.947210
      911.760000       0.941890
      911.860000       0.936190
      911.960000       0.930040
      912.060000       0.923480
      912.160000       0.916500
      912.260000       0.909110
      912.360000       0.901310
      912.460000       0.893080
      912.560000       0.884440
      912.660000       0.875380
      912.760000       0.865910
      912.860000       0.856020
      912.960000       0.845730
      913.060000       0.835050
      913.160000       0.823970
      913.260000       0.812510
      913.360000       0.800680
      913.460000       0.788490
      913.560000       0.775970
      913.660000       0.763110
      913.760000       0.749940
      913.860000       0.736450
      913.960000       0.722660
      914.060000       0.708600
      914.160000       0.694300
      914.260000       0.679770
      914.360000       0.665030
      914.460000       0.650100
      914.560000       0.635000
      914.660000       0.619750
      914.760000       0.604390
      914.860000       0.588920
      914.960000       0.573380
      915.060000       0.557780
      915.160000       0.542150
      915.260000       0.526510
      915.360000       0.510890
      915.460000       0.495300
      915.560000       0.479760
      915.660000       0.464300
      915.760000       0.448930
      915.860000       0.433680
      915.960000       0.418580
      916.060000       0.403640
      916.160000       0.388900
      916.260000       0.374360
      916.360000       0.360050
      916.460000       0.345990
      916.560000       0.332180
      916.660000       0.318650
      916.760000       0.305410
      916.860000       0.292480
      916.960000       0.279850
      917.060000       0.267550
      917.160000       0.255590
      917.260000       0.243970
      917.360000       0.232700
      917.460000       0.221790
      917.560000       0.211210
      917.660000       0.200990
      917.760000       0.191150
      917.860000       0.181680
      917.960000       0.172580
      918.060000       0.163870
      918.160000       0.155520
      918.260000       0.147550
      918.360000       0.139940
      918.460000       0.132700
      918.560000       0.125810
      918.660000       0.119280
      918.760000       0.113090
      918.860000       0.107230
      918.960000       0.101700
      919.060000       0.096490
      919.160000       0.091588
      919.260000       0.086984
      919.360000       0.082668
      919.460000       0.078627
      919.560000       0.074859
      919.660000       0.071348
      919.760000       0.068077
      919.860000       0.065035
      919.960000       0.062208
      920.060000       0.059586
      920.160000       0.057154
      920.260000       0.055731
      920.360000       0.053587
      920.460000       0.051597
      920.560000       0.049752
      920.660000       0.048039
      920.760000       0.046447
      920.860000       0.044965
      920.960000       0.043583
      921.060000       0.042291
      921.160000       0.041078
      921.260000       0.039935
      921.360000       0.038854
      921.460000       0.037825
      921.560000       0.036842
      921.660000       0.035897
      921.760000       0.034982
      921.860000       0.034093
      921.960000       0.033224
      922.060000       0.032369
      922.160000       0.031524
      922.260000       0.030686
      922.360000       0.029851
      922.460000       0.029017
      922.560000       0.028182
      922.660000       0.027343
      922.760000       0.026501
      922.860000       0.025653
      922.960000       0.024801
      923.060000       0.023943
      923.160000       0.023082
      923.260000       0.022217
      923.360000       0.021350
      923.460000       0.020482
      923.560000       0.019617
      923.660000       0.018755
      923.760000       0.017898
      923.860000       0.017049
      923.960000       0.016208
      924.060000       0.015380
      924.160000       0.014565
      924.260000       0.013767
      924.360000       0.012987
      924.460000       0.012228
      924.560000       0.011491
      924.660000       0.010779
      924.760000       0.010093
      924.860000       0.009434
      924.960000       0.008803
      925.060000       0.008201
      925.160000       0.007628
      925.260000       0.007084
      925.360000       0.006570
      925.460000       0.006085
      925.560000       0.005628
      925.660000       0.005198
      925.760000       0.004795
      925.860000       0.004419
      925.960000       0.004070
      926.060000       0.003748
      926.160000       0.003454
      926.260000       0.003190
      926.360000       0.002959
      926.460000       0.002764
      926.560000       0.002607
      926.660000       0.002492
      926.760000       0.002421
      926.860000       0.002394
      926.960000       0.000000
