76,   76, MVIRI VIS channel from srf_MET5_2000258_2000259_1801-Release_S10EL_10.dat
Number of data points:
806
Wavenumber (cm-1)   Filter response
     8350.730700       0.000000
     8357.710000       0.000000
     8364.701000       0.000000
     8371.703600       0.000002
     8378.718100       0.000004
     8385.744200       0.000009
     8392.782200       0.000017
     8399.832000       0.000027
     8406.893700       0.000042
     8413.967200       0.000060
     8421.052600       0.000084
     8428.150000       0.000112
     8435.259400       0.000146
     8442.380800       0.000187
     8449.514200       0.000233
     8456.659600       0.000287
     8463.817200       0.000348
     8470.986900       0.000417
     8478.168700       0.000494
     8485.362700       0.000579
     8492.569000       0.000673
     8499.787500       0.000776
     8507.018300       0.000889
     8514.261400       0.001011
     8521.516800       0.001143
     8528.784600       0.001286
     8536.064900       0.001439
     8543.357500       0.001604
     8550.662700       0.001779
     8557.980300       0.001966
     8565.310500       0.002164
     8572.653200       0.002375
     8580.008600       0.002597
     8587.376600       0.002832
     8594.757200       0.003080
     8602.150500       0.003340
     8609.556600       0.003613
     8616.975400       0.003900
     8624.407100       0.004200
     8631.851500       0.004513
     8639.308900       0.004840
     8646.779100       0.005181
     8654.262200       0.005536
     8661.758300       0.005906
     8669.267400       0.006290
     8676.789600       0.006688
     8684.324800       0.007102
     8691.873100       0.007530
     8699.434500       0.007973
     8707.009100       0.008432
     8714.596900       0.008905
     8722.198000       0.009395
     8729.812300       0.009900
     8737.439900       0.010420
     8745.080900       0.010957
     8752.735200       0.011510
     8760.403000       0.012078
     8768.084200       0.012663
     8775.778900       0.013265
     8783.487000       0.013883
     8791.208800       0.014517
     8798.944100       0.015169
     8806.693100       0.015837
     8814.455700       0.016522
     8822.232000       0.017225
     8830.022100       0.017944
     8837.825900       0.018681
     8845.643500       0.019436
     8853.475000       0.020208
     8861.320300       0.020997
     8869.179600       0.021805
     8877.052800       0.022630
     8884.940000       0.023474
     8892.841300       0.024335
     8900.756600       0.025215
     8908.686000       0.026113
     8916.629500       0.027029
     8924.587200       0.027964
     8932.559200       0.028917
     8940.545400       0.029890
     8948.545900       0.030881
     8956.560700       0.031891
     8964.589900       0.032920
     8972.633500       0.033968
     8980.691500       0.035036
     8988.764000       0.036123
     8996.851100       0.037229
     9004.952700       0.038355
     9013.068900       0.039500
     9021.199800       0.040666
     9029.345400       0.041851
     9037.505600       0.043056
     9045.680700       0.044281
     9053.870500       0.045526
     9062.075200       0.046792
     9070.294800       0.048078
     9078.529300       0.049384
     9086.778700       0.050711
     9095.043200       0.052059
     9103.322700       0.053427
     9111.617300       0.054816
     9119.927000       0.056226
     9128.251900       0.057657
     9136.592100       0.059109
     9144.947400       0.060582
     9153.318100       0.062076
     9161.704100       0.063592
     9170.105500       0.065130
     9178.522300       0.066689
     9186.954500       0.068269
     9195.402300       0.069871
     9203.865600       0.071495
     9212.344500       0.073141
     9220.839100       0.074809
     9229.349300       0.076499
     9237.875300       0.078211
     9246.417000       0.079946
     9254.974500       0.081702
     9263.547900       0.083481
     9272.137200       0.085283
     9280.742500       0.087107
     9289.363700       0.088953
     9298.000900       0.090822
     9306.654300       0.092714
     9315.323700       0.094629
     9324.009300       0.096567
     9332.711200       0.098527
     9341.429200       0.100511
     9350.163600       0.102517
     9358.914400       0.104547
     9367.681500       0.106599
     9376.465100       0.108675
     9385.265100       0.110775
     9394.081700       0.112897
     9402.914900       0.115043
     9411.764700       0.117212
     9420.631200       0.119405
     9429.514400       0.121621
     9438.414300       0.123861
     9447.331100       0.126124
     9456.264800       0.128411
     9465.215300       0.130721
     9474.182900       0.133055
     9483.167400       0.135413
     9492.169000       0.137794
     9501.187600       0.140199
     9510.223500       0.142628
     9519.276500       0.145081
     9528.346800       0.147557
     9537.434400       0.150057
     9546.539400       0.152581
     9555.661700       0.155128
     9564.801500       0.157699
     9573.958800       0.160294
     9583.133700       0.162913
     9592.326100       0.165555
     9601.536200       0.168221
     9610.764100       0.170910
     9620.009600       0.173624
     9629.273000       0.176361
     9638.554200       0.179121
     9647.853400       0.181905
     9657.170400       0.184712
     9666.505600       0.187543
     9675.858700       0.190398
     9685.230000       0.193275
     9694.619500       0.196177
     9704.027200       0.199101
     9713.453100       0.202048
     9722.897400       0.205019
     9732.360100       0.208012
     9741.841200       0.211029
     9751.340800       0.214068
     9760.859000       0.217131
     9770.395700       0.220216
     9779.951100       0.223324
     9789.525200       0.226454
     9799.118100       0.229607
     9808.729800       0.232782
     9818.360300       0.235980
     9828.009800       0.239199
     9837.678300       0.242441
     9847.365800       0.245704
     9857.072400       0.248989
     9866.798200       0.252297
     9876.543200       0.255625
     9886.307500       0.258975
     9896.091000       0.262346
     9905.894000       0.265738
     9915.716400       0.269152
     9925.558300       0.272586
     9935.419800       0.276040
     9945.300800       0.279516
     9955.201600       0.283011
     9965.122100       0.286527
     9975.062300       0.290063
     9985.022500       0.293618
     9995.002500       0.297194
    10005.002500       0.300789
    10015.022500       0.304402
    10025.062700       0.308035
    10035.122900       0.311687
    10045.203400       0.315358
    10055.304200       0.319047
    10065.425300       0.322754
    10075.566800       0.326480
    10085.728700       0.330223
    10095.911200       0.333984
    10106.114200       0.337762
    10116.337900       0.341557
    10126.582300       0.345369
    10136.847400       0.349198
    10147.133400       0.353044
    10157.440300       0.356905
    10167.768200       0.360782
    10178.117000       0.364675
    10188.487000       0.368584
    10198.878100       0.372508
    10209.290500       0.376446
    10219.724100       0.380399
    10230.179000       0.384367
    10240.655400       0.388348
    10251.153300       0.392343
    10261.672700       0.396352
    10272.213700       0.400374
    10282.776300       0.404409
    10293.360800       0.408456
    10303.967000       0.412516
    10314.595200       0.416588
    10325.245200       0.420671
    10335.917300       0.424766
    10346.611500       0.428872
    10357.327800       0.432989
    10368.066400       0.437116
    10378.827200       0.441253
    10389.610400       0.445400
    10400.416000       0.449556
    10411.244100       0.453722
    10422.094800       0.457896
    10432.968200       0.462079
    10443.864200       0.466270
    10454.783100       0.470468
    10465.724800       0.474674
    10476.689400       0.478887
    10487.677000       0.483107
    10498.687700       0.487333
    10509.721500       0.491565
    10520.778500       0.495803
    10531.858900       0.500046
    10542.962600       0.504294
    10554.089700       0.508546
    10565.240400       0.512802
    10576.414600       0.517063
    10587.612500       0.521326
    10598.834100       0.525593
    10610.079600       0.529863
    10621.348900       0.534134
    10632.642200       0.538408
    10643.959600       0.542683
    10655.301000       0.546959
    10666.666700       0.551236
    10678.056600       0.555513
    10689.470900       0.559790
    10700.909600       0.564067
    10712.372800       0.568343
    10723.860600       0.572617
    10735.373100       0.576890
    10746.910300       0.581162
    10758.472300       0.585430
    10770.059200       0.589696
    10781.671200       0.593958
    10793.308100       0.598217
    10804.970300       0.602472
    10816.657700       0.606722
    10828.370300       0.610968
    10840.108400       0.615208
    10851.871900       0.619443
    10863.661100       0.623672
    10875.475800       0.627894
    10887.316300       0.632109
    10899.182600       0.636317
    10911.074700       0.640518
    10922.992900       0.644710
    10934.937100       0.648894
    10946.907500       0.653068
    10958.904100       0.657234
    10970.927000       0.661390
    10982.976400       0.665536
    10995.052200       0.669671
    11007.154700       0.673796
    11019.283700       0.677909
    11031.439600       0.682010
    11043.622300       0.686099
    11055.832000       0.690176
    11068.068600       0.694240
    11080.332400       0.698290
    11092.623400       0.702327
    11104.941700       0.706350
    11117.287400       0.710358
    11129.660500       0.714351
    11142.061300       0.718329
    11154.489700       0.722291
    11166.945800       0.726237
    11179.429800       0.730167
    11191.941800       0.734080
    11204.481800       0.737976
    11217.049900       0.741854
    11229.646300       0.745714
    11242.270900       0.749556
    11254.924000       0.753379
    11267.605600       0.757183
    11280.315800       0.760967
    11293.054800       0.764731
    11305.822500       0.768476
    11318.619100       0.772200
    11331.444800       0.775902
    11344.299500       0.779584
    11357.183400       0.783244
    11370.096600       0.786882
    11383.039300       0.790497
    11396.011400       0.794090
    11409.013100       0.797659
    11422.044500       0.801206
    11435.105800       0.804728
    11448.196900       0.808227
    11461.318100       0.811701
    11474.469300       0.815151
    11487.650800       0.818575
    11500.862600       0.821974
    11514.104800       0.825348
    11527.377500       0.828695
    11540.680900       0.832016
    11554.015000       0.835311
    11567.380000       0.838578
    11580.775900       0.841819
    11594.202900       0.845032
    11607.661100       0.848217
    11621.150500       0.851374
    11634.671300       0.854503
    11648.223600       0.857603
    11661.807600       0.860674
    11675.423200       0.863716
    11689.070700       0.866729
    11702.750100       0.869712
    11716.461600       0.872665
    11730.205300       0.875588
    11743.981200       0.878481
    11757.789500       0.881343
    11771.630400       0.884173
    11785.503800       0.886973
    11799.410000       0.889742
    11813.349100       0.892479
    11827.321100       0.895184
    11841.326200       0.897857
    11855.364600       0.900498
    11869.436200       0.903107
    11883.541300       0.905683
    11897.680000       0.908226
    11911.852300       0.910736
    11926.058400       0.913213
    11940.298500       0.915657
    11954.572600       0.918067
    11968.880900       0.920444
    11983.223500       0.922787
    11997.600500       0.925096
    12012.012000       0.927371
    12026.458200       0.929611
    12040.939200       0.931818
    12055.455100       0.933989
    12070.006000       0.936127
    12084.592100       0.938229
    12099.213600       0.940297
    12113.870400       0.942329
    12128.562800       0.944327
    12143.290800       0.946289
    12158.054700       0.948217
    12172.854500       0.950109
    12187.690400       0.951965
    12202.562500       0.953786
    12217.471000       0.955572
    12232.415900       0.957322
    12247.397400       0.959036
    12262.415700       0.960715
    12277.470800       0.962358
    12292.563000       0.963966
    12307.692300       0.965537
    12322.858900       0.967073
    12338.062900       0.968573
    12353.304500       0.970037
    12368.583800       0.971466
    12383.900900       0.972858
    12399.256000       0.974215
    12414.649300       0.975536
    12430.080800       0.976821
    12445.550700       0.978071
    12461.059200       0.979284
    12476.606400       0.980463
    12492.192400       0.981605
    12507.817400       0.982712
    12523.481500       0.983784
    12539.185000       0.984820
    12554.927800       0.985821
    12570.710200       0.986786
    12586.532400       0.987716
    12602.394500       0.988611
    12618.296500       0.989472
    12634.238800       0.990297
    12650.221400       0.991087
    12666.244500       0.991843
    12682.308200       0.992564
    12698.412700       0.993251
    12714.558200       0.993903
    12730.744700       0.994521
    12746.972600       0.995106
    12763.241900       0.995656
    12779.552700       0.996173
    12795.905300       0.996656
    12812.299800       0.997105
    12828.736400       0.997522
    12845.215200       0.997905
    12861.736300       0.998256
    12878.300100       0.998573
    12894.906500       0.998859
    12911.555800       0.999112
    12928.248200       0.999333
    12944.983800       0.999522
    12961.762800       0.999679
    12978.585300       0.999805
    12995.451600       0.999900
    13012.361700       0.999964
    13029.316000       0.999997
    13046.314400       1.000000
    13063.357300       0.999972
    13080.444700       0.999915
    13097.576900       0.999828
    13114.754100       0.999711
    13131.976400       0.999565
    13149.243900       0.999390
    13166.556900       0.999187
    13183.915600       0.998955
    13201.320100       0.998695
    13218.770700       0.998408
    13236.267400       0.998093
    13253.810500       0.997751
    13271.400100       0.997381
    13289.036500       0.996986
    13306.719900       0.996564
    13324.450400       0.996116
    13342.228200       0.995643
    13360.053400       0.995144
    13377.926400       0.994620
    13395.847300       0.994072
    13413.816200       0.993500
    13431.833400       0.992903
    13449.899100       0.992283
    13468.013500       0.991640
    13486.176700       0.990974
    13504.388900       0.990286
    13522.650400       0.989575
    13540.961400       0.988842
    13559.322000       0.988089
    13577.732500       0.987314
    13596.193100       0.986518
    13614.703900       0.985702
    13633.265200       0.984866
    13651.877100       0.984011
    13670.540000       0.983136
    13689.253900       0.982243
    13708.019200       0.981331
    13726.836000       0.980401
    13745.704500       0.979454
    13764.624900       0.978490
    13783.597500       0.977508
    13802.622500       0.976511
    13821.700100       0.975497
    13840.830400       0.974468
    13860.013900       0.973423
    13879.250500       0.972364
    13898.540700       0.971291
    13917.884500       0.970203
    13937.282200       0.969102
    13956.734100       0.967988
    13976.240400       0.966861
    13995.801300       0.965722
    14015.417000       0.964571
    14035.087700       0.963408
    14054.813800       0.962235
    14074.595400       0.961051
    14094.432700       0.959856
    14114.326000       0.958652
    14134.275600       0.957439
    14154.281700       0.956216
    14174.344400       0.954985
    14194.464200       0.953746
    14214.641100       0.952499
    14234.875400       0.951245
    14255.167500       0.949984
    14275.517500       0.948717
    14295.925700       0.947443
    14316.392300       0.946164
    14336.917600       0.944880
    14357.501800       0.943591
    14378.145200       0.942298
    14398.848100       0.941000
    14419.610700       0.939699
    14440.433200       0.938395
    14461.316000       0.937089
    14482.259200       0.935780
    14503.263200       0.934469
    14524.328200       0.933156
    14545.454500       0.931843
    14566.642400       0.930529
    14587.892000       0.929214
    14609.203800       0.927900
    14630.577900       0.926586
    14652.014700       0.925273
    14673.514300       0.923961
    14695.077100       0.922651
    14716.703500       0.921342
    14738.393500       0.920036
    14760.147600       0.918733
    14781.966000       0.917433
    14803.849000       0.916137
    14825.796900       0.914844
    14847.809900       0.913556
    14869.888500       0.912272
    14892.032800       0.910993
    14914.243100       0.909719
    14936.519800       0.908451
    14958.863100       0.907189
    14981.273400       0.905933
    15003.750900       0.904684
    15026.296000       0.903442
    15048.909000       0.902207
    15071.590100       0.900979
    15094.339600       0.899760
    15117.158000       0.898548
    15140.045400       0.897345
    15163.002300       0.896151
    15186.028900       0.894966
    15209.125500       0.893790
    15232.292500       0.892624
    15255.530100       0.891468
    15278.838800       0.890322
    15302.218800       0.889186
    15325.670500       0.888061
    15349.194200       0.886947
    15372.790200       0.885844
    15396.458800       0.884753
    15420.200500       0.883673
    15444.015400       0.882605
    15467.904100       0.881549
    15491.866800       0.880505
    15515.903800       0.879474
    15540.015500       0.878455
    15564.202300       0.877450
    15588.464500       0.876457
    15612.802500       0.875478
    15637.216600       0.874512
    15661.707100       0.873559
    15686.274500       0.872620
    15710.919100       0.871695
    15735.641200       0.870784
    15760.441300       0.869887
    15785.319700       0.869004
    15810.276700       0.868135
    15835.312700       0.867281
    15860.428200       0.866442
    15885.623500       0.865617
    15910.899000       0.864806
    15936.255000       0.864010
    15961.691900       0.863229
    15987.210200       0.862463
    16012.810200       0.861712
    16038.492400       0.860976
    16064.257000       0.860254
    16090.104600       0.859548
    16116.035500       0.858856
    16142.050000       0.858180
    16168.148700       0.857518
    16194.332000       0.856872
    16220.600200       0.856240
    16246.953700       0.855623
    16273.393000       0.855020
    16299.918500       0.854433
    16326.530600       0.853860
    16353.229800       0.853302
    16380.016400       0.852758
    16406.890900       0.852229
    16433.853700       0.851714
    16460.905300       0.851213
    16488.046200       0.850726
    16515.276600       0.850253
    16542.597200       0.849793
    16570.008300       0.849348
    16597.510400       0.848915
    16625.103900       0.848496
    16652.789300       0.848090
    16680.567100       0.847697
    16708.437800       0.847317
    16736.401700       0.846949
    16764.459300       0.846593
    16792.611300       0.846249
    16820.857900       0.845917
    16849.199700       0.845596
    16877.637100       0.845287
    16906.170800       0.844988
    16934.801000       0.844700
    16963.528400       0.844422
    16992.353400       0.844154
    17021.276600       0.843896
    17050.298400       0.843648
    17079.419300       0.843408
    17108.639900       0.843177
    17137.960600       0.842954
    17167.382000       0.842739
    17196.904600       0.842531
    17226.528900       0.842331
    17256.255400       0.842138
    17286.084700       0.841950
