04, METOP-A METOP-2 AVHRR A305 CHANNEL 04
Number of data points:
1502
Wavenumber (cm-1)   Filter response
      850.000000       0.000000
      850.100000       0.000000
      850.200000       0.000000
      850.300000       0.000000
      850.400000       0.000000
      850.500000       0.000000
      850.600000       0.000000
      850.700000       0.000000
      850.800000       0.000000
      850.900000       0.000000
      851.000000       0.000000
      851.100000       0.000000
      851.200000       0.000000
      851.300000       0.001000
      851.400000       0.001000
      851.500000       0.001000
      851.600000       0.001000
      851.700000       0.001000
      851.800000       0.001000
      851.900000       0.001000
      852.000000       0.001000
      852.100000       0.001000
      852.200000       0.001000
      852.300000       0.001000
      852.400000       0.001000
      852.500000       0.001000
      852.600000       0.001000
      852.700000       0.001000
      852.800000       0.001000
      852.900000       0.001000
      853.000000       0.001000
      853.100000       0.001000
      853.200000       0.001000
      853.300000       0.001000
      853.400000       0.001000
      853.500000       0.001000
      853.600000       0.001000
      853.700000       0.001000
      853.800000       0.001000
      853.900000       0.001000
      854.000000       0.001000
      854.100000       0.001000
      854.200000       0.002000
      854.300000       0.002000
      854.400000       0.002000
      854.500000       0.002000
      854.600000       0.002000
      854.700000       0.002000
      854.800000       0.002000
      854.900000       0.002000
      855.000000       0.002000
      855.100000       0.002000
      855.200000       0.002000
      855.300000       0.002000
      855.400000       0.002000
      855.500000       0.002000
      855.600000       0.002000
      855.700000       0.002000
      855.800000       0.002000
      855.900000       0.002000
      856.000000       0.002000
      856.100000       0.002000
      856.200000       0.002000
      856.300000       0.002000
      856.400000       0.002000
      856.500000       0.002000
      856.600000       0.002000
      856.700000       0.002000
      856.800000       0.002000
      856.900000       0.002000
      857.000000       0.002000
      857.100000       0.002000
      857.200000       0.002000
      857.300000       0.002000
      857.400000       0.002000
      857.500000       0.003000
      857.600000       0.003000
      857.700000       0.003000
      857.800000       0.003000
      857.900000       0.003000
      858.000000       0.003000
      858.100000       0.003000
      858.200000       0.003000
      858.300000       0.003000
      858.400000       0.003000
      858.500000       0.003000
      858.600000       0.003000
      858.700000       0.003000
      858.800000       0.003000
      858.900000       0.003000
      859.000000       0.003000
      859.100000       0.003000
      859.200000       0.004000
      859.300000       0.004000
      859.400000       0.004000
      859.500000       0.004000
      859.600000       0.004000
      859.700000       0.004000
      859.800000       0.004000
      859.900000       0.004000
      860.000000       0.004000
      860.100000       0.004000
      860.200000       0.004000
      860.300000       0.005000
      860.400000       0.005000
      860.500000       0.005000
      860.600000       0.005000
      860.700000       0.005000
      860.800000       0.005000
      860.900000       0.005000
      861.000000       0.005000
      861.100000       0.005000
      861.200000       0.005000
      861.300000       0.006000
      861.400000       0.006000
      861.500000       0.006000
      861.600000       0.006000
      861.700000       0.006000
      861.800000       0.006000
      861.900000       0.006000
      862.000000       0.007000
      862.100000       0.007000
      862.200000       0.007000
      862.300000       0.007000
      862.400000       0.007000
      862.500000       0.007000
      862.600000       0.007000
      862.700000       0.008000
      862.800000       0.008000
      862.900000       0.008000
      863.000000       0.008000
      863.100000       0.008000
      863.200000       0.009000
      863.300000       0.009000
      863.400000       0.009000
      863.500000       0.009000
      863.600000       0.009000
      863.700000       0.010000
      863.800000       0.010000
      863.900000       0.010000
      864.000000       0.010000
      864.100000       0.010000
      864.200000       0.011000
      864.300000       0.011000
      864.400000       0.011000
      864.500000       0.011000
      864.600000       0.012000
      864.700000       0.012000
      864.800000       0.012000
      864.900000       0.013000
      865.000000       0.013000
      865.100000       0.013000
      865.200000       0.013000
      865.300000       0.014000
      865.400000       0.014000
      865.500000       0.014000
      865.600000       0.015000
      865.700000       0.015000
      865.800000       0.015000
      865.900000       0.016000
      866.000000       0.016000
      866.100000       0.016000
      866.200000       0.017000
      866.300000       0.017000
      866.400000       0.018000
      866.500000       0.018000
      866.600000       0.018000
      866.700000       0.019000
      866.800000       0.019000
      866.900000       0.020000
      867.000000       0.020000
      867.100000       0.021000
      867.200000       0.021000
      867.300000       0.022000
      867.400000       0.022000
      867.500000       0.023000
      867.600000       0.023000
      867.700000       0.024000
      867.800000       0.024000
      867.900000       0.025000
      868.000000       0.026000
      868.100000       0.026000
      868.200000       0.027000
      868.300000       0.028000
      868.400000       0.028000
      868.500000       0.029000
      868.600000       0.030000
      868.700000       0.030000
      868.800000       0.031000
      868.900000       0.032000
      869.000000       0.033000
      869.100000       0.034000
      869.200000       0.035000
      869.300000       0.035000
      869.400000       0.036000
      869.500000       0.037000
      869.600000       0.038000
      869.700000       0.039000
      869.800000       0.040000
      869.900000       0.041000
      870.000000       0.042000
      870.100000       0.043000
      870.200000       0.044000
      870.300000       0.045000
      870.400000       0.046000
      870.500000       0.048000
      870.600000       0.049000
      870.700000       0.050000
      870.800000       0.051000
      870.900000       0.052000
      871.000000       0.054000
      871.100000       0.055000
      871.200000       0.056000
      871.300000       0.058000
      871.400000       0.059000
      871.500000       0.061000
      871.600000       0.062000
      871.700000       0.064000
      871.800000       0.066000
      871.900000       0.067000
      872.000000       0.069000
      872.100000       0.071000
      872.200000       0.073000
      872.300000       0.074000
      872.400000       0.076000
      872.500000       0.078000
      872.600000       0.080000
      872.700000       0.082000
      872.800000       0.084000
      872.900000       0.087000
      873.000000       0.089000
      873.100000       0.091000
      873.200000       0.093000
      873.300000       0.096000
      873.400000       0.098000
      873.500000       0.100000
      873.600000       0.103000
      873.700000       0.105000
      873.800000       0.108000
      873.900000       0.111000
      874.000000       0.113000
      874.100000       0.116000
      874.200000       0.119000
      874.300000       0.122000
      874.400000       0.125000
      874.500000       0.128000
      874.600000       0.131000
      874.700000       0.134000
      874.800000       0.137000
      874.900000       0.140000
      875.000000       0.144000
      875.100000       0.147000
      875.200000       0.150000
      875.300000       0.154000
      875.400000       0.157000
      875.500000       0.161000
      875.600000       0.164000
      875.700000       0.168000
      875.800000       0.172000
      875.900000       0.176000
      876.000000       0.180000
      876.100000       0.184000
      876.200000       0.188000
      876.300000       0.192000
      876.400000       0.196000
      876.500000       0.200000
      876.600000       0.204000
      876.700000       0.209000
      876.800000       0.213000
      876.900000       0.217000
      877.000000       0.222000
      877.100000       0.226000
      877.200000       0.231000
      877.300000       0.236000
      877.400000       0.240000
      877.500000       0.245000
      877.600000       0.250000
      877.700000       0.255000
      877.800000       0.260000
      877.900000       0.265000
      878.000000       0.270000
      878.100000       0.275000
      878.200000       0.280000
      878.300000       0.285000
      878.400000       0.290000
      878.500000       0.295000
      878.600000       0.301000
      878.700000       0.306000
      878.800000       0.311000
      878.900000       0.316000
      879.000000       0.321000
      879.100000       0.326000
      879.200000       0.332000
      879.300000       0.337000
      879.400000       0.342000
      879.500000       0.347000
      879.600000       0.353000
      879.700000       0.358000
      879.800000       0.363000
      879.900000       0.368000
      880.000000       0.374000
      880.100000       0.379000
      880.200000       0.384000
      880.300000       0.390000
      880.400000       0.395000
      880.500000       0.400000
      880.600000       0.406000
      880.700000       0.411000
      880.800000       0.416000
      880.900000       0.422000
      881.000000       0.427000
      881.100000       0.432000
      881.200000       0.438000
      881.300000       0.443000
      881.400000       0.448000
      881.500000       0.453000
      881.600000       0.459000
      881.700000       0.464000
      881.800000       0.469000
      881.900000       0.474000
      882.000000       0.479000
      882.100000       0.484000
      882.200000       0.489000
      882.300000       0.494000
      882.400000       0.499000
      882.500000       0.503000
      882.600000       0.508000
      882.700000       0.513000
      882.800000       0.518000
      882.900000       0.522000
      883.000000       0.527000
      883.100000       0.532000
      883.200000       0.536000
      883.300000       0.541000
      883.400000       0.546000
      883.500000       0.550000
      883.600000       0.555000
      883.700000       0.560000
      883.800000       0.564000
      883.900000       0.569000
      884.000000       0.573000
      884.100000       0.578000
      884.200000       0.582000
      884.300000       0.587000
      884.400000       0.591000
      884.500000       0.596000
      884.600000       0.600000
      884.700000       0.604000
      884.800000       0.608000
      884.900000       0.613000
      885.000000       0.617000
      885.100000       0.621000
      885.200000       0.625000
      885.300000       0.628000
      885.400000       0.632000
      885.500000       0.636000
      885.600000       0.640000
      885.700000       0.643000
      885.800000       0.647000
      885.900000       0.650000
      886.000000       0.654000
      886.100000       0.658000
      886.200000       0.661000
      886.300000       0.665000
      886.400000       0.668000
      886.500000       0.672000
      886.600000       0.675000
      886.700000       0.679000
      886.800000       0.682000
      886.900000       0.686000
      887.000000       0.689000
      887.100000       0.692000
      887.200000       0.696000
      887.300000       0.699000
      887.400000       0.703000
      887.500000       0.706000
      887.600000       0.709000
      887.700000       0.713000
      887.800000       0.716000
      887.900000       0.719000
      888.000000       0.722000
      888.100000       0.725000
      888.200000       0.728000
      888.300000       0.731000
      888.400000       0.734000
      888.500000       0.737000
      888.600000       0.740000
      888.700000       0.743000
      888.800000       0.746000
      888.900000       0.748000
      889.000000       0.751000
      889.100000       0.753000
      889.200000       0.756000
      889.300000       0.758000
      889.400000       0.760000
      889.500000       0.763000
      889.600000       0.765000
      889.700000       0.767000
      889.800000       0.769000
      889.900000       0.771000
      890.000000       0.772000
      890.100000       0.774000
      890.200000       0.776000
      890.300000       0.778000
      890.400000       0.779000
      890.500000       0.781000
      890.600000       0.783000
      890.700000       0.784000
      890.800000       0.786000
      890.900000       0.787000
      891.000000       0.789000
      891.100000       0.791000
      891.200000       0.792000
      891.300000       0.794000
      891.400000       0.796000
      891.500000       0.798000
      891.600000       0.800000
      891.700000       0.802000
      891.800000       0.804000
      891.900000       0.806000
      892.000000       0.808000
      892.100000       0.809000
      892.200000       0.811000
      892.300000       0.813000
      892.400000       0.815000
      892.500000       0.817000
      892.600000       0.818000
      892.700000       0.820000
      892.800000       0.821000
      892.900000       0.823000
      893.000000       0.824000
      893.100000       0.825000
      893.200000       0.826000
      893.300000       0.827000
      893.400000       0.828000
      893.500000       0.829000
      893.600000       0.830000
      893.700000       0.831000
      893.800000       0.832000
      893.900000       0.833000
      894.000000       0.833000
      894.100000       0.834000
      894.200000       0.835000
      894.300000       0.836000
      894.400000       0.838000
      894.500000       0.839000
      894.600000       0.840000
      894.700000       0.841000
      894.800000       0.843000
      894.900000       0.844000
      895.000000       0.846000
      895.100000       0.847000
      895.200000       0.848000
      895.300000       0.850000
      895.400000       0.851000
      895.500000       0.853000
      895.600000       0.854000
      895.700000       0.856000
      895.800000       0.857000
      895.900000       0.858000
      896.000000       0.860000
      896.100000       0.861000
      896.200000       0.862000
      896.300000       0.863000
      896.400000       0.864000
      896.500000       0.864000
      896.600000       0.865000
      896.700000       0.866000
      896.800000       0.866000
      896.900000       0.867000
      897.000000       0.868000
      897.100000       0.868000
      897.200000       0.869000
      897.300000       0.869000
      897.400000       0.870000
      897.500000       0.870000
      897.600000       0.871000
      897.700000       0.872000
      897.800000       0.872000
      897.900000       0.873000
      898.000000       0.873000
      898.100000       0.874000
      898.200000       0.875000
      898.300000       0.875000
      898.400000       0.876000
      898.500000       0.877000
      898.600000       0.877000
      898.700000       0.878000
      898.800000       0.879000
      898.900000       0.879000
      899.000000       0.880000
      899.100000       0.880000
      899.200000       0.881000
      899.300000       0.881000
      899.400000       0.882000
      899.500000       0.882000
      899.600000       0.882000
      899.700000       0.883000
      899.800000       0.883000
      899.900000       0.883000
      900.000000       0.884000
      900.100000       0.884000
      900.200000       0.884000
      900.300000       0.885000
      900.400000       0.885000
      900.500000       0.886000
      900.600000       0.886000
      900.700000       0.887000
      900.800000       0.888000
      900.900000       0.888000
      901.000000       0.889000
      901.100000       0.890000
      901.200000       0.891000
      901.300000       0.892000
      901.400000       0.893000
      901.500000       0.895000
      901.600000       0.896000
      901.700000       0.897000
      901.800000       0.899000
      901.900000       0.900000
      902.000000       0.901000
      902.100000       0.903000
      902.200000       0.904000
      902.300000       0.905000
      902.400000       0.907000
      902.500000       0.908000
      902.600000       0.909000
      902.700000       0.911000
      902.800000       0.912000
      902.900000       0.913000
      903.000000       0.914000
      903.100000       0.915000
      903.200000       0.916000
      903.300000       0.917000
      903.400000       0.918000
      903.500000       0.918000
      903.600000       0.919000
      903.700000       0.920000
      903.800000       0.920000
      903.900000       0.920000
      904.000000       0.921000
      904.100000       0.921000
      904.200000       0.920000
      904.300000       0.920000
      904.400000       0.920000
      904.500000       0.919000
      904.600000       0.919000
      904.700000       0.918000
      904.800000       0.918000
      904.900000       0.917000
      905.000000       0.916000
      905.100000       0.916000
      905.200000       0.915000
      905.300000       0.915000
      905.400000       0.914000
      905.500000       0.914000
      905.600000       0.914000
      905.700000       0.914000
      905.800000       0.914000
      905.900000       0.914000
      906.000000       0.915000
      906.100000       0.915000
      906.200000       0.916000
      906.300000       0.917000
      906.400000       0.918000
      906.500000       0.919000
      906.600000       0.920000
      906.700000       0.921000
      906.800000       0.922000
      906.900000       0.923000
      907.000000       0.924000
      907.100000       0.925000
      907.200000       0.926000
      907.300000       0.927000
      907.400000       0.927000
      907.500000       0.928000
      907.600000       0.928000
      907.700000       0.928000
      907.800000       0.928000
      907.900000       0.928000
      908.000000       0.927000
      908.100000       0.927000
      908.200000       0.927000
      908.300000       0.927000
      908.400000       0.926000
      908.500000       0.926000
      908.600000       0.926000
      908.700000       0.926000
      908.800000       0.926000
      908.900000       0.927000
      909.000000       0.927000
      909.100000       0.928000
      909.200000       0.929000
      909.300000       0.931000
      909.400000       0.932000
      909.500000       0.934000
      909.600000       0.935000
      909.700000       0.937000
      909.800000       0.939000
      909.900000       0.941000
      910.000000       0.942000
      910.100000       0.944000
      910.200000       0.945000
      910.300000       0.947000
      910.400000       0.948000
      910.500000       0.948000
      910.600000       0.949000
      910.700000       0.949000
      910.800000       0.949000
      910.900000       0.948000
      911.000000       0.947000
      911.100000       0.946000
      911.200000       0.945000
      911.300000       0.943000
      911.400000       0.941000
      911.500000       0.940000
      911.600000       0.938000
      911.700000       0.936000
      911.800000       0.935000
      911.900000       0.933000
      912.000000       0.932000
