119,   119, MVIRI VIS channel from srf_MET5_2006033_2006034_1801-Release_S10EL_10.dat
Number of data points:
806
Wavenumber (cm-1)   Filter response
     8350.730700       0.000000
     8357.710000       0.000000
     8364.701000       0.000000
     8371.703600       0.000002
     8378.718100       0.000004
     8385.744200       0.000009
     8392.782200       0.000017
     8399.832000       0.000028
     8406.893700       0.000043
     8413.967200       0.000062
     8421.052600       0.000086
     8428.150000       0.000115
     8435.259400       0.000150
     8442.380800       0.000192
     8449.514200       0.000240
     8456.659600       0.000295
     8463.817200       0.000358
     8470.986900       0.000428
     8478.168700       0.000507
     8485.362700       0.000595
     8492.569000       0.000691
     8499.787500       0.000797
     8507.018300       0.000913
     8514.261400       0.001038
     8521.516800       0.001174
     8528.784600       0.001321
     8536.064900       0.001478
     8543.357500       0.001647
     8550.662700       0.001827
     8557.980300       0.002018
     8565.310500       0.002222
     8572.653200       0.002438
     8580.008600       0.002666
     8587.376600       0.002907
     8594.757200       0.003161
     8602.150500       0.003428
     8609.556600       0.003709
     8616.975400       0.004002
     8624.407100       0.004310
     8631.851500       0.004632
     8639.308900       0.004967
     8646.779100       0.005317
     8654.262200       0.005681
     8661.758300       0.006060
     8669.267400       0.006454
     8676.789600       0.006862
     8684.324800       0.007286
     8691.873100       0.007725
     8699.434500       0.008179
     8707.009100       0.008649
     8714.596900       0.009135
     8722.198000       0.009636
     8729.812300       0.010154
     8737.439900       0.010687
     8745.080900       0.011237
     8752.735200       0.011803
     8760.403000       0.012386
     8768.084200       0.012986
     8775.778900       0.013602
     8783.487000       0.014235
     8791.208800       0.014885
     8798.944100       0.015552
     8806.693100       0.016236
     8814.455700       0.016938
     8822.232000       0.017657
     8830.022100       0.018394
     8837.825900       0.019149
     8845.643500       0.019921
     8853.475000       0.020711
     8861.320300       0.021520
     8869.179600       0.022346
     8877.052800       0.023191
     8884.940000       0.024054
     8892.841300       0.024935
     8900.756600       0.025835
     8908.686000       0.026754
     8916.629500       0.027692
     8924.587200       0.028648
     8932.559200       0.029624
     8940.545400       0.030618
     8948.545900       0.031632
     8956.560700       0.032665
     8964.589900       0.033718
     8972.633500       0.034790
     8980.691500       0.035881
     8988.764000       0.036993
     8996.851100       0.038124
     9004.952700       0.039275
     9013.068900       0.040446
     9021.199800       0.041637
     9029.345400       0.042848
     9037.505600       0.044080
     9045.680700       0.045332
     9053.870500       0.046604
     9062.075200       0.047898
     9070.294800       0.049211
     9078.529300       0.050546
     9086.778700       0.051901
     9095.043200       0.053278
     9103.322700       0.054675
     9111.617300       0.056094
     9119.927000       0.057534
     9128.251900       0.058995
     9136.592100       0.060478
     9144.947400       0.061982
     9153.318100       0.063508
     9161.704100       0.065056
     9170.105500       0.066625
     9178.522300       0.068216
     9186.954500       0.069829
     9195.402300       0.071465
     9203.865600       0.073122
     9212.344500       0.074802
     9220.839100       0.076504
     9229.349300       0.078228
     9237.875300       0.079974
     9246.417000       0.081743
     9254.974500       0.083535
     9263.547900       0.085350
     9272.137200       0.087187
     9280.742500       0.089047
     9289.363700       0.090930
     9298.000900       0.092836
     9306.654300       0.094765
     9315.323700       0.096717
     9324.009300       0.098692
     9332.711200       0.100690
     9341.429200       0.102712
     9350.163600       0.104757
     9358.914400       0.106825
     9367.681500       0.108917
     9376.465100       0.111032
     9385.265100       0.113171
     9394.081700       0.115333
     9402.914900       0.117519
     9411.764700       0.119728
     9420.631200       0.121962
     9429.514400       0.124219
     9438.414300       0.126499
     9447.331100       0.128804
     9456.264800       0.131132
     9465.215300       0.133484
     9474.182900       0.135860
     9483.167400       0.138260
     9492.169000       0.140684
     9501.187600       0.143132
     9510.223500       0.145603
     9519.276500       0.148099
     9528.346800       0.150618
     9537.434400       0.153162
     9546.539400       0.155729
     9555.661700       0.158320
     9564.801500       0.160935
     9573.958800       0.163574
     9583.133700       0.166237
     9592.326100       0.168924
     9601.536200       0.171635
     9610.764100       0.174369
     9620.009600       0.177127
     9629.273000       0.179910
     9638.554200       0.182715
     9647.853400       0.185545
     9657.170400       0.188397
     9666.505600       0.191274
     9675.858700       0.194174
     9685.230000       0.197098
     9694.619500       0.200045
     9704.027200       0.203015
     9713.453100       0.206009
     9722.897400       0.209026
     9732.360100       0.212066
     9741.841200       0.215129
     9751.340800       0.218215
     9760.859000       0.221324
     9770.395700       0.224456
     9779.951100       0.227610
     9789.525200       0.230787
     9799.118100       0.233987
     9808.729800       0.237208
     9818.360300       0.240453
     9828.009800       0.243719
     9837.678300       0.247007
     9847.365800       0.250318
     9857.072400       0.253650
     9866.798200       0.257004
     9876.543200       0.260379
     9886.307500       0.263775
     9896.091000       0.267193
     9905.894000       0.270632
     9915.716400       0.274092
     9925.558300       0.277572
     9935.419800       0.281074
     9945.300800       0.284596
     9955.201600       0.288137
     9965.122100       0.291699
     9975.062300       0.295281
     9985.022500       0.298883
     9995.002500       0.302504
    10005.002500       0.306144
    10015.022500       0.309804
    10025.062700       0.313482
    10035.122900       0.317179
    10045.203400       0.320895
    10055.304200       0.324629
    10065.425300       0.328381
    10075.566800       0.332151
    10085.728700       0.335939
    10095.911200       0.339744
    10106.114200       0.343566
    10116.337900       0.347405
    10126.582300       0.351261
    10136.847400       0.355133
    10147.133400       0.359021
    10157.440300       0.362925
    10167.768200       0.366845
    10178.117000       0.370780
    10188.487000       0.374731
    10198.878100       0.378696
    10209.290500       0.382676
    10219.724100       0.386670
    10230.179000       0.390678
    10240.655400       0.394700
    10251.153300       0.398736
    10261.672700       0.402784
    10272.213700       0.406845
    10282.776300       0.410919
    10293.360800       0.415005
    10303.967000       0.419103
    10314.595200       0.423213
    10325.245200       0.427334
    10335.917300       0.431466
    10346.611500       0.435609
    10357.327800       0.439761
    10368.066400       0.443924
    10378.827200       0.448097
    10389.610400       0.452279
    10400.416000       0.456470
    10411.244100       0.460669
    10422.094800       0.464877
    10432.968200       0.469093
    10443.864200       0.473316
    10454.783100       0.477547
    10465.724800       0.481784
    10476.689400       0.486028
    10487.677000       0.490279
    10498.687700       0.494535
    10509.721500       0.498796
    10520.778500       0.503063
    10531.858900       0.507334
    10542.962600       0.511610
    10554.089700       0.515889
    10565.240400       0.520172
    10576.414600       0.524458
    10587.612500       0.528747
    10598.834100       0.533039
    10610.079600       0.537333
    10621.348900       0.541628
    10632.642200       0.545924
    10643.959600       0.550222
    10655.301000       0.554519
    10666.666700       0.558817
    10678.056600       0.563115
    10689.470900       0.567412
    10700.909600       0.571708
    10712.372800       0.576002
    10723.860600       0.580294
    10735.373100       0.584584
    10746.910300       0.588871
    10758.472300       0.593155
    10770.059200       0.597436
    10781.671200       0.601712
    10793.308100       0.605984
    10804.970300       0.610252
    10816.657700       0.614514
    10828.370300       0.618771
    10840.108400       0.623022
    10851.871900       0.627266
    10863.661100       0.631504
    10875.475800       0.635734
    10887.316300       0.639957
    10899.182600       0.644171
    10911.074700       0.648378
    10922.992900       0.652575
    10934.937100       0.656763
    10946.907500       0.660941
    10958.904100       0.665109
    10970.927000       0.669267
    10982.976400       0.673414
    10995.052200       0.677549
    11007.154700       0.681673
    11019.283700       0.685784
    11031.439600       0.689883
    11043.622300       0.693970
    11055.832000       0.698042
    11068.068600       0.702101
    11080.332400       0.706146
    11092.623400       0.710176
    11104.941700       0.714191
    11117.287400       0.718191
    11129.660500       0.722175
    11142.061300       0.726144
    11154.489700       0.730095
    11166.945800       0.734029
    11179.429800       0.737947
    11191.941800       0.741846
    11204.481800       0.745728
    11217.049900       0.749590
    11229.646300       0.753434
    11242.270900       0.757259
    11254.924000       0.761065
    11267.605600       0.764850
    11280.315800       0.768614
    11293.054800       0.772358
    11305.822500       0.776081
    11318.619100       0.779783
    11331.444800       0.783463
    11344.299500       0.787120
    11357.183400       0.790755
    11370.096600       0.794367
    11383.039300       0.797956
    11396.011400       0.801521
    11409.013100       0.805063
    11422.044500       0.808580
    11435.105800       0.812072
    11448.196900       0.815540
    11461.318100       0.818982
    11474.469300       0.822399
    11487.650800       0.825789
    11500.862600       0.829154
    11514.104800       0.832492
    11527.377500       0.835803
    11540.680900       0.839087
    11554.015000       0.842343
    11567.380000       0.845572
    11580.775900       0.848773
    11594.202900       0.851945
    11607.661100       0.855088
    11621.150500       0.858203
    11634.671300       0.861289
    11648.223600       0.864345
    11661.807600       0.867371
    11675.423200       0.870367
    11689.070700       0.873334
    11702.750100       0.876269
    11716.461600       0.879174
    11730.205300       0.882048
    11743.981200       0.884890
    11757.789500       0.887701
    11771.630400       0.890481
    11785.503800       0.893228
    11799.410000       0.895943
    11813.349100       0.898626
    11827.321100       0.901277
    11841.326200       0.903894
    11855.364600       0.906478
    11869.436200       0.909030
    11883.541300       0.911548
    11897.680000       0.914032
    11911.852300       0.916483
    11926.058400       0.918900
    11940.298500       0.921283
    11954.572600       0.923631
    11968.880900       0.925945
    11983.223500       0.928225
    11997.600500       0.930469
    12012.012000       0.932680
    12026.458200       0.934855
    12040.939200       0.936995
    12055.455100       0.939100
    12070.006000       0.941169
    12084.592100       0.943203
    12099.213600       0.945202
    12113.870400       0.947165
    12128.562800       0.949092
    12143.290800       0.950984
    12158.054700       0.952839
    12172.854500       0.954659
    12187.690400       0.956442
    12202.562500       0.958190
    12217.471000       0.959901
    12232.415900       0.961577
    12247.397400       0.963216
    12262.415700       0.964818
    12277.470800       0.966385
    12292.563000       0.967915
    12307.692300       0.969409
    12322.858900       0.970866
    12338.062900       0.972287
    12353.304500       0.973672
    12368.583800       0.975020
    12383.900900       0.976332
    12399.256000       0.977608
    12414.649300       0.978847
    12430.080800       0.980050
    12445.550700       0.981217
    12461.059200       0.982348
    12476.606400       0.983442
    12492.192400       0.984501
    12507.817400       0.985523
    12523.481500       0.986509
    12539.185000       0.987460
    12554.927800       0.988375
    12570.710200       0.989254
    12586.532400       0.990097
    12602.394500       0.990905
    12618.296500       0.991678
    12634.238800       0.992415
    12650.221400       0.993117
    12666.244500       0.993784
    12682.308200       0.994416
    12698.412700       0.995013
    12714.558200       0.995576
    12730.744700       0.996104
    12746.972600       0.996597
    12763.241900       0.997057
    12779.552700       0.997482
    12795.905300       0.997874
    12812.299800       0.998232
    12828.736400       0.998556
    12845.215200       0.998847
    12861.736300       0.999105
    12878.300100       0.999330
    12894.906500       0.999522
    12911.555800       0.999682
    12928.248200       0.999809
    12944.983800       0.999904
    12961.762800       0.999968
    12978.585300       1.000000
    12995.451600       1.000000
    13012.361700       0.999969
    13029.316000       0.999908
    13046.314400       0.999815
    13063.357300       0.999693
    13080.444700       0.999540
    13097.576900       0.999357
    13114.754100       0.999145
    13131.976400       0.998903
    13149.243900       0.998632
    13166.556900       0.998333
    13183.915600       0.998005
    13201.320100       0.997649
    13218.770700       0.997265
    13236.267400       0.996853
    13253.810500       0.996415
    13271.400100       0.995949
    13289.036500       0.995457
    13306.719900       0.994938
    13324.450400       0.994394
    13342.228200       0.993823
    13360.053400       0.993228
    13377.926400       0.992607
    13395.847300       0.991962
    13413.816200       0.991293
    13431.833400       0.990600
    13449.899100       0.989883
    13468.013500       0.989143
    13486.176700       0.988380
    13504.388900       0.987594
    13522.650400       0.986787
    13540.961400       0.985957
    13559.322000       0.985107
    13577.732500       0.984235
    13596.193100       0.983342
    13614.703900       0.982430
    13633.265200       0.981497
    13651.877100       0.980545
    13670.540000       0.979574
    13689.253900       0.978584
    13708.019200       0.977576
    13726.836000       0.976550
    13745.704500       0.975506
    13764.624900       0.974446
    13783.597500       0.973368
    13802.622500       0.972275
    13821.700100       0.971165
    13840.830400       0.970040
    13860.013900       0.968900
    13879.250500       0.967745
    13898.540700       0.966576
    13917.884500       0.965393
    13937.282200       0.964197
    13956.734100       0.962987
    13976.240400       0.961765
    13995.801300       0.960531
    14015.417000       0.959285
    14035.087700       0.958028
    14054.813800       0.956760
    14074.595400       0.955481
    14094.432700       0.954193
    14114.326000       0.952894
    14134.275600       0.951586
    14154.281700       0.950270
    14174.344400       0.948945
    14194.464200       0.947612
    14214.641100       0.946272
    14234.875400       0.944924
    14255.167500       0.943570
    14275.517500       0.942209
    14295.925700       0.940843
    14316.392300       0.939471
    14336.917600       0.938094
    14357.501800       0.936712
    14378.145200       0.935326
    14398.848100       0.933936
    14419.610700       0.932543
    14440.433200       0.931147
    14461.316000       0.929748
    14482.259200       0.928347
    14503.263200       0.926944
    14524.328200       0.925540
    14545.454500       0.924135
    14566.642400       0.922729
    14587.892000       0.921323
    14609.203800       0.919918
    14630.577900       0.918512
    14652.014700       0.917108
    14673.514300       0.915705
    14695.077100       0.914304
    14716.703500       0.912905
    14738.393500       0.911508
    14760.147600       0.910114
    14781.966000       0.908724
    14803.849000       0.907337
    14825.796900       0.905954
    14847.809900       0.904575
    14869.888500       0.903200
    14892.032800       0.901831
    14914.243100       0.900467
    14936.519800       0.899109
    14958.863100       0.897757
    14981.273400       0.896411
    15003.750900       0.895071
    15026.296000       0.893739
    15048.909000       0.892414
    15071.590100       0.891096
    15094.339600       0.889786
    15117.158000       0.888485
    15140.045400       0.887192
    15163.002300       0.885907
    15186.028900       0.884632
    15209.125500       0.883366
    15232.292500       0.882110
    15255.530100       0.880864
    15278.838800       0.879627
    15302.218800       0.878401
    15325.670500       0.877186
    15349.194200       0.875982
    15372.790200       0.874788
    15396.458800       0.873606
    15420.200500       0.872436
    15444.015400       0.871277
    15467.904100       0.870130
    15491.866800       0.868996
    15515.903800       0.867873
    15540.015500       0.866764
    15564.202300       0.865667
    15588.464500       0.864583
    15612.802500       0.863512
    15637.216600       0.862454
    15661.707100       0.861410
    15686.274500       0.860379
    15710.919100       0.859362
    15735.641200       0.858358
    15760.441300       0.857369
    15785.319700       0.856393
    15810.276700       0.855432
    15835.312700       0.854485
    15860.428200       0.853552
    15885.623500       0.852633
    15910.899000       0.851729
    15936.255000       0.850840
    15961.691900       0.849965
    15987.210200       0.849104
    16012.810200       0.848259
    16038.492400       0.847427
    16064.257000       0.846611
    16090.104600       0.845809
    16116.035500       0.845022
    16142.050000       0.844250
    16168.148700       0.843492
    16194.332000       0.842749
    16220.600200       0.842021
    16246.953700       0.841307
    16273.393000       0.840607
    16299.918500       0.839922
    16326.530600       0.839252
    16353.229800       0.838595
    16380.016400       0.837953
    16406.890900       0.837325
    16433.853700       0.836711
    16460.905300       0.836111
    16488.046200       0.835524
    16515.276600       0.834951
    16542.597200       0.834391
    16570.008300       0.833845
    16597.510400       0.833312
    16625.103900       0.832792
    16652.789300       0.832284
    16680.567100       0.831789
    16708.437800       0.831306
    16736.401700       0.830835
    16764.459300       0.830377
    16792.611300       0.829929
    16820.857900       0.829494
    16849.199700       0.829069
    16877.637100       0.828655
    16906.170800       0.828252
    16934.801000       0.827859
    16963.528400       0.827476
    16992.353400       0.827102
    17021.276600       0.826738
    17050.298400       0.826383
    17079.419300       0.826037
    17108.639900       0.825699
    17137.960600       0.825369
    17167.382000       0.825046
    17196.904600       0.824731
    17226.528900       0.824422
    17256.255400       0.824120
    17286.084700       0.823824
