36,   36, MVIRI VIS channel from srf_MET7_2002033_2002034_1801-Release_S10EE_10.dat
Number of data points:
793
Wavenumber (cm-1)   Filter response
     8442.380800       0.000000
     8449.514200       0.000000
     8456.659600       0.000004
     8463.817200       0.000054
     8470.986900       0.000158
     8478.168700       0.000317
     8485.362700       0.000527
     8492.569000       0.000788
     8499.787500       0.001099
     8507.018300       0.001457
     8514.261400       0.001861
     8521.516800       0.002310
     8528.784600       0.002803
     8536.064900       0.003339
     8543.357500       0.003916
     8550.662700       0.004533
     8557.980300       0.005189
     8565.310500       0.005884
     8572.653200       0.006615
     8580.008600       0.007383
     8587.376600       0.008186
     8594.757200       0.009023
     8602.150500       0.009894
     8609.556600       0.010797
     8616.975400       0.011732
     8624.407100       0.012698
     8631.851500       0.013695
     8639.308900       0.014721
     8646.779100       0.015776
     8654.262200       0.016860
     8661.758300       0.017971
     8669.267400       0.019110
     8676.789600       0.020276
     8684.324800       0.021467
     8691.873100       0.022685
     8699.434500       0.023927
     8707.009100       0.025195
     8714.596900       0.026487
     8722.198000       0.027803
     8729.812300       0.029142
     8737.439900       0.030505
     8745.080900       0.031891
     8752.735200       0.033300
     8760.403000       0.034731
     8768.084200       0.036184
     8775.778900       0.037659
     8783.487000       0.039156
     8791.208800       0.040675
     8798.944100       0.042215
     8806.693100       0.043776
     8814.455700       0.045358
     8822.232000       0.046961
     8830.022100       0.048584
     8837.825900       0.050229
     8845.643500       0.051894
     8853.475000       0.053579
     8861.320300       0.055284
     8869.179600       0.057010
     8877.052800       0.058756
     8884.940000       0.060523
     8892.841300       0.062309
     8900.756600       0.064116
     8908.686000       0.065944
     8916.629500       0.067791
     8924.587200       0.069658
     8932.559200       0.071545
     8940.545400       0.073453
     8948.545900       0.075381
     8956.560700       0.077329
     8964.589900       0.079298
     8972.633500       0.081287
     8980.691500       0.083297
     8988.764000       0.085327
     8996.851100       0.087377
     9004.952700       0.089448
     9013.068900       0.091540
     9021.199800       0.093653
     9029.345400       0.095786
     9037.505600       0.097940
     9045.680700       0.100116
     9053.870500       0.102312
     9062.075200       0.104530
     9070.294800       0.106769
     9078.529300       0.109029
     9086.778700       0.111311
     9095.043200       0.113615
     9103.322700       0.115940
     9111.617300       0.118287
     9119.927000       0.120655
     9128.251900       0.123046
     9136.592100       0.125459
     9144.947400       0.127893
     9153.318100       0.130350
     9161.704100       0.132829
     9170.105500       0.135331
     9178.522300       0.137856
     9186.954500       0.140402
     9195.402300       0.142972
     9203.865600       0.145563
     9212.344500       0.148178
     9220.839100       0.150816
     9229.349300       0.153477
     9237.875300       0.156161
     9246.417000       0.158867
     9254.974500       0.161598
     9263.547900       0.164351
     9272.137200       0.167127
     9280.742500       0.169927
     9289.363700       0.172750
     9298.000900       0.175596
     9306.654300       0.178466
     9315.323700       0.181359
     9324.009300       0.184276
     9332.711200       0.187217
     9341.429200       0.190181
     9350.163600       0.193168
     9358.914400       0.196179
     9367.681500       0.199214
     9376.465100       0.202272
     9385.265100       0.205353
     9394.081700       0.208459
     9402.914900       0.211587
     9411.764700       0.214739
     9420.631200       0.217915
     9429.514400       0.221114
     9438.414300       0.224337
     9447.331100       0.227582
     9456.264800       0.230851
     9465.215300       0.234144
     9474.182900       0.237459
     9483.167400       0.240798
     9492.169000       0.244159
     9501.187600       0.247544
     9510.223500       0.250951
     9519.276500       0.254381
     9528.346800       0.257834
     9537.434400       0.261309
     9546.539400       0.264806
     9555.661700       0.268327
     9564.801500       0.271868
     9573.958800       0.275433
     9583.133700       0.279019
     9592.326100       0.282626
     9601.536200       0.286256
     9610.764100       0.289907
     9620.009600       0.293579
     9629.273000       0.297272
     9638.554200       0.300986
     9647.853400       0.304721
     9657.170400       0.308477
     9666.505600       0.312253
     9675.858700       0.316049
     9685.230000       0.319864
     9694.619500       0.323700
     9704.027200       0.327555
     9713.453100       0.331430
     9722.897400       0.335324
     9732.360100       0.339236
     9741.841200       0.343167
     9751.340800       0.347116
     9760.859000       0.351083
     9770.395700       0.355069
     9779.951100       0.359071
     9789.525200       0.363091
     9799.118100       0.367128
     9808.729800       0.371182
     9818.360300       0.375252
     9828.009800       0.379338
     9837.678300       0.383440
     9847.365800       0.387558
     9857.072400       0.391690
     9866.798200       0.395838
     9876.543200       0.400000
     9886.307500       0.404176
     9896.091000       0.408367
     9905.894000       0.412571
     9915.716400       0.416788
     9925.558300       0.421018
     9935.419800       0.425260
     9945.300800       0.429515
     9955.201600       0.433782
     9965.122100       0.438060
     9975.062300       0.442349
     9985.022500       0.446649
     9995.002500       0.450959
    10005.002500       0.455279
    10015.022500       0.459609
    10025.062700       0.463948
    10035.122900       0.468295
    10045.203400       0.472651
    10055.304200       0.477016
    10065.425300       0.481387
    10075.566800       0.485766
    10085.728700       0.490152
    10095.911200       0.494544
    10106.114200       0.498942
    10116.337900       0.503346
    10126.582300       0.507754
    10136.847400       0.512168
    10147.133400       0.516585
    10157.440300       0.521007
    10167.768200       0.525432
    10178.117000       0.529859
    10188.487000       0.534290
    10198.878100       0.538722
    10209.290500       0.543156
    10219.724100       0.547592
    10230.179000       0.552028
    10240.655400       0.556464
    10251.153300       0.560901
    10261.672700       0.565336
    10272.213700       0.569771
    10282.776300       0.574204
    10293.360800       0.578635
    10303.967000       0.583064
    10314.595200       0.587490
    10325.245200       0.591913
    10335.917300       0.596332
    10346.611500       0.600746
    10357.327800       0.605156
    10368.066400       0.609561
    10378.827200       0.613960
    10389.610400       0.618354
    10400.416000       0.622740
    10411.244100       0.627120
    10422.094800       0.631492
    10432.968200       0.635856
    10443.864200       0.640212
    10454.783100       0.644559
    10465.724800       0.648897
    10476.689400       0.653225
    10487.677000       0.657543
    10498.687700       0.661850
    10509.721500       0.666146
    10520.778500       0.670431
    10531.858900       0.674703
    10542.962600       0.678963
    10554.089700       0.683210
    10565.240400       0.687444
    10576.414600       0.691664
    10587.612500       0.695869
    10598.834100       0.700060
    10610.079600       0.704236
    10621.348900       0.708395
    10632.642200       0.712539
    10643.959600       0.716667
    10655.301000       0.720777
    10666.666700       0.724870
    10678.056600       0.728946
    10689.470900       0.733003
    10700.909600       0.737041
    10712.372800       0.741060
    10723.860600       0.745060
    10735.373100       0.749040
    10746.910300       0.753000
    10758.472300       0.756938
    10770.059200       0.760856
    10781.671200       0.764752
    10793.308100       0.768626
    10804.970300       0.772478
    10816.657700       0.776307
    10828.370300       0.780113
    10840.108400       0.783895
    10851.871900       0.787653
    10863.661100       0.791387
    10875.475800       0.795096
    10887.316300       0.798781
    10899.182600       0.802439
    10911.074700       0.806072
    10922.992900       0.809679
    10934.937100       0.813259
    10946.907500       0.816813
    10958.904100       0.820339
    10970.927000       0.823838
    10982.976400       0.827308
    10995.052200       0.830751
    11007.154700       0.834164
    11019.283700       0.837549
    11031.439600       0.840905
    11043.622300       0.844231
    11055.832000       0.847528
    11068.068600       0.850794
    11080.332400       0.854030
    11092.623400       0.857234
    11104.941700       0.860408
    11117.287400       0.863551
    11129.660500       0.866662
    11142.061300       0.869741
    11154.489700       0.872788
    11166.945800       0.875802
    11179.429800       0.878784
    11191.941800       0.881733
    11204.481800       0.884649
    11217.049900       0.887531
    11229.646300       0.890380
    11242.270900       0.893195
    11254.924000       0.895976
    11267.605600       0.898722
    11280.315800       0.901434
    11293.054800       0.904111
    11305.822500       0.906753
    11318.619100       0.909360
    11331.444800       0.911932
    11344.299500       0.914468
    11357.183400       0.916969
    11370.096600       0.919433
    11383.039300       0.921862
    11396.011400       0.924255
    11409.013100       0.926611
    11422.044500       0.928930
    11435.105800       0.931214
    11448.196900       0.933460
    11461.318100       0.935670
    11474.469300       0.937842
    11487.650800       0.939978
    11500.862600       0.942076
    11514.104800       0.944137
    11527.377500       0.946161
    11540.680900       0.948147
    11554.015000       0.950096
    11567.380000       0.952007
    11580.775900       0.953880
    11594.202900       0.955716
    11607.661100       0.957514
    11621.150500       0.959274
    11634.671300       0.960996
    11648.223600       0.962680
    11661.807600       0.964327
    11675.423200       0.965935
    11689.070700       0.967505
    11702.750100       0.969038
    11716.461600       0.970532
    11730.205300       0.971988
    11743.981200       0.973407
    11757.789500       0.974788
    11771.630400       0.976130
    11785.503800       0.977435
    11799.410000       0.978702
    11813.349100       0.979931
    11827.321100       0.981122
    11841.326200       0.982276
    11855.364600       0.983392
    11869.436200       0.984471
    11883.541300       0.985512
    11897.680000       0.986516
    11911.852300       0.987482
    11926.058400       0.988412
    11940.298500       0.989304
    11954.572600       0.990159
    11968.880900       0.990978
    11983.223500       0.991759
    11997.600500       0.992504
    12012.012000       0.993213
    12026.458200       0.993886
    12040.939200       0.994522
    12055.455100       0.995122
    12070.006000       0.995687
    12084.592100       0.996215
    12099.213600       0.996709
    12113.870400       0.997166
    12128.562800       0.997589
    12143.290800       0.997977
    12158.054700       0.998330
    12172.854500       0.998649
    12187.690400       0.998933
    12202.562500       0.999184
    12217.471000       0.999400
    12232.415900       0.999583
    12247.397400       0.999732
    12262.415700       0.999848
    12277.470800       0.999931
    12292.563000       0.999982
    12307.692300       1.000000
    12322.858900       0.999986
    12338.062900       0.999940
    12353.304500       0.999862
    12368.583800       0.999754
    12383.900900       0.999614
    12399.256000       0.999443
    12414.649300       0.999242
    12430.080800       0.999010
    12445.550700       0.998749
    12461.059200       0.998458
    12476.606400       0.998138
    12492.192400       0.997789
    12507.817400       0.997412
    12523.481500       0.997006
    12539.185000       0.996572
    12554.927800       0.996110
    12570.710200       0.995622
    12586.532400       0.995106
    12602.394500       0.994564
    12618.296500       0.993995
    12634.238800       0.993401
    12650.221400       0.992781
    12666.244500       0.992136
    12682.308200       0.991466
    12698.412700       0.990772
    12714.558200       0.990054
    12730.744700       0.989312
    12746.972600       0.988547
    12763.241900       0.987759
    12779.552700       0.986948
    12795.905300       0.986116
    12812.299800       0.985261
    12828.736400       0.984386
    12845.215200       0.983490
    12861.736300       0.982573
    12878.300100       0.981636
    12894.906500       0.980679
    12911.555800       0.979703
    12928.248200       0.978709
    12944.983800       0.977696
    12961.762800       0.976664
    12978.585300       0.975616
    12995.451600       0.974550
    13012.361700       0.973468
    13029.316000       0.972369
    13046.314400       0.971255
    13063.357300       0.970125
    13080.444700       0.968980
    13097.576900       0.967820
    13114.754100       0.966647
    13131.976400       0.965460
    13149.243900       0.964260
    13166.556900       0.963047
    13183.915600       0.961821
    13201.320100       0.960584
    13218.770700       0.959336
    13236.267400       0.958076
    13253.810500       0.956806
    13271.400100       0.955526
    13289.036500       0.954236
    13306.719900       0.952937
    13324.450400       0.951630
    13342.228200       0.950314
    13360.053400       0.948990
    13377.926400       0.947659
    13395.847300       0.946322
    13413.816200       0.944977
    13431.833400       0.943627
    13449.899100       0.942271
    13468.013500       0.940910
    13486.176700       0.939545
    13504.388900       0.938175
    13522.650400       0.936801
    13540.961400       0.935424
    13559.322000       0.934045
    13577.732500       0.932663
    13596.193100       0.931278
    13614.703900       0.929893
    13633.265200       0.928506
    13651.877100       0.927119
    13670.540000       0.925731
    13689.253900       0.924344
    13708.019200       0.922957
    13726.836000       0.921572
    13745.704500       0.920188
    13764.624900       0.918805
    13783.597500       0.917426
    13802.622500       0.916049
    13821.700100       0.914675
    13840.830400       0.913305
    13860.013900       0.911939
    13879.250500       0.910577
    13898.540700       0.909221
    13917.884500       0.907869
    13937.282200       0.906523
    13956.734100       0.905184
    13976.240400       0.903850
    13995.801300       0.902524
    14015.417000       0.901205
    14035.087700       0.899893
    14054.813800       0.898590
    14074.595400       0.897295
    14094.432700       0.896008
    14114.326000       0.894731
    14134.275600       0.893463
    14154.281700       0.892205
    14174.344400       0.890957
    14194.464200       0.889720
    14214.641100       0.888494
    14234.875400       0.887279
    14255.167500       0.886075
    14275.517500       0.884884
    14295.925700       0.883704
    14316.392300       0.882538
    14336.917600       0.881384
    14357.501800       0.880243
    14378.145200       0.879115
    14398.848100       0.878002
    14419.610700       0.876902
    14440.433200       0.875817
    14461.316000       0.874747
    14482.259200       0.873691
    14503.263200       0.872650
    14524.328200       0.871625
    14545.454500       0.870616
    14566.642400       0.869622
    14587.892000       0.868645
    14609.203800       0.867684
    14630.577900       0.866740
    14652.014700       0.865813
    14673.514300       0.864902
    14695.077100       0.864009
    14716.703500       0.863134
    14738.393500       0.862276
    14760.147600       0.861436
    14781.966000       0.860614
    14803.849000       0.859810
    14825.796900       0.859024
    14847.809900       0.858257
    14869.888500       0.857509
    14892.032800       0.856780
    14914.243100       0.856069
    14936.519800       0.855378
    14958.863100       0.854706
    14981.273400       0.854053
    15003.750900       0.853419
    15026.296000       0.852805
    15048.909000       0.852211
    15071.590100       0.851636
    15094.339600       0.851081
    15117.158000       0.850546
    15140.045400       0.850030
    15163.002300       0.849535
    15186.028900       0.849059
    15209.125500       0.848603
    15232.292500       0.848167
    15255.530100       0.847751
    15278.838800       0.847356
    15302.218800       0.846980
    15325.670500       0.846624
    15349.194200       0.846287
    15372.790200       0.845971
    15396.458800       0.845675
    15420.200500       0.845398
    15444.015400       0.845141
    15467.904100       0.844903
    15491.866800       0.844685
    15515.903800       0.844487
    15540.015500       0.844307
    15564.202300       0.844147
    15588.464500       0.844006
    15612.802500       0.843884
    15637.216600       0.843781
    15661.707100       0.843697
    15686.274500       0.843631
    15710.919100       0.843583
    15735.641200       0.843553
    15760.441300       0.843542
    15785.319700       0.843548
    15810.276700       0.843571
    15835.312700       0.843612
    15860.428200       0.843670
    15885.623500       0.843745
    15910.899000       0.843836
    15936.255000       0.843944
    15961.691900       0.844068
    15987.210200       0.844208
    16012.810200       0.844363
    16038.492400       0.844533
    16064.257000       0.844718
    16090.104600       0.844918
    16116.035500       0.845132
    16142.050000       0.845360
    16168.148700       0.845601
    16194.332000       0.845856
    16220.600200       0.846124
    16246.953700       0.846403
    16273.393000       0.846695
    16299.918500       0.846999
    16326.530600       0.847314
    16353.229800       0.847639
    16380.016400       0.847976
    16406.890900       0.848322
    16433.853700       0.848677
    16460.905300       0.849042
    16488.046200       0.849415
    16515.276600       0.849796
    16542.597200       0.850185
    16570.008300       0.850582
    16597.510400       0.850984
    16625.103900       0.851393
    16652.789300       0.851808
    16680.567100       0.852227
    16708.437800       0.852651
    16736.401700       0.853080
    16764.459300       0.853511
    16792.611300       0.853945
    16820.857900       0.854382
    16849.199700       0.854821
    16877.637100       0.855260
    16906.170800       0.855700
    16934.801000       0.856140
    16963.528400       0.856579
    16992.353400       0.857017
    17021.276600       0.857453
    17050.298400       0.857886
    17079.419300       0.858316
    17108.639900       0.858742
    17137.960600       0.859163
    17167.382000       0.859579
    17196.904600       0.859989
    17226.528900       0.860392
    17256.255400       0.860788
    17286.084700       0.861176
    17316.017300       0.861555
    17346.053800       0.861925
    17376.194600       0.862284
    17406.440400       0.862633
    17436.791600       0.862970
    17467.248900       0.863294
    17497.812800       0.863605
    17528.483800       0.863902
    17559.262500       0.864184
    17590.149500       0.864451
    17621.145400       0.864702
    17652.250700       0.864935
    17683.466000       0.865151
