23,   23, MVIRI VIS channel from srf_MET5_1994033_1994034_1801-Release_S10EL_10.dat
Number of data points:
806
Wavenumber (cm-1)   Filter response
     8350.730700       0.000000
     8357.710000       0.000000
     8364.701000       0.000000
     8371.703600       0.000001
     8378.718100       0.000004
     8385.744200       0.000009
     8392.782200       0.000016
     8399.832000       0.000026
     8406.893700       0.000040
     8413.967200       0.000058
     8421.052600       0.000081
     8428.150000       0.000108
     8435.259400       0.000141
     8442.380800       0.000180
     8449.514200       0.000226
     8456.659600       0.000278
     8463.817200       0.000337
     8470.986900       0.000403
     8478.168700       0.000477
     8485.362700       0.000560
     8492.569000       0.000651
     8499.787500       0.000751
     8507.018300       0.000860
     8514.261400       0.000978
     8521.516800       0.001106
     8528.784600       0.001244
     8536.064900       0.001393
     8543.357500       0.001552
     8550.662700       0.001722
     8557.980300       0.001902
     8565.310500       0.002095
     8572.653200       0.002298
     8580.008600       0.002514
     8587.376600       0.002741
     8594.757200       0.002981
     8602.150500       0.003233
     8609.556600       0.003498
     8616.975400       0.003775
     8624.407100       0.004066
     8631.851500       0.004370
     8639.308900       0.004687
     8646.779100       0.005017
     8654.262200       0.005362
     8661.758300       0.005720
     8669.267400       0.006092
     8676.789600       0.006478
     8684.324800       0.006879
     8691.873100       0.007294
     8699.434500       0.007724
     8707.009100       0.008168
     8714.596900       0.008628
     8722.198000       0.009103
     8729.812300       0.009592
     8737.439900       0.010097
     8745.080900       0.010618
     8752.735200       0.011154
     8760.403000       0.011706
     8768.084200       0.012274
     8775.778900       0.012857
     8783.487000       0.013457
     8791.208800       0.014073
     8798.944100       0.014705
     8806.693100       0.015354
     8814.455700       0.016019
     8822.232000       0.016701
     8830.022100       0.017400
     8837.825900       0.018116
     8845.643500       0.018849
     8853.475000       0.019598
     8861.320300       0.020365
     8869.179600       0.021150
     8877.052800       0.021951
     8884.940000       0.022771
     8892.841300       0.023608
     8900.756600       0.024463
     8908.686000       0.025335
     8916.629500       0.026226
     8924.587200       0.027135
     8932.559200       0.028061
     8940.545400       0.029007
     8948.545900       0.029970
     8956.560700       0.030953
     8964.589900       0.031953
     8972.633500       0.032973
     8980.691500       0.034011
     8988.764000       0.035068
     8996.851100       0.036144
     9004.952700       0.037240
     9013.068900       0.038354
     9021.199800       0.039488
     9029.345400       0.040641
     9037.505600       0.041814
     9045.680700       0.043006
     9053.870500       0.044219
     9062.075200       0.045450
     9070.294800       0.046702
     9078.529300       0.047974
     9086.778700       0.049266
     9095.043200       0.050578
     9103.322700       0.051911
     9111.617300       0.053264
     9119.927000       0.054637
     9128.251900       0.056031
     9136.592100       0.057446
     9144.947400       0.058881
     9153.318100       0.060338
     9161.704100       0.061815
     9170.105500       0.063313
     9178.522300       0.064833
     9186.954500       0.066373
     9195.402300       0.067935
     9203.865600       0.069519
     9212.344500       0.071124
     9220.839100       0.072750
     9229.349300       0.074398
     9237.875300       0.076068
     9246.417000       0.077760
     9254.974500       0.079474
     9263.547900       0.081209
     9272.137200       0.082967
     9280.742500       0.084747
     9289.363700       0.086549
     9298.000900       0.088373
     9306.654300       0.090220
     9315.323700       0.092089
     9324.009300       0.093980
     9332.711200       0.095895
     9341.429200       0.097831
     9350.163600       0.099791
     9358.914400       0.101773
     9367.681500       0.103778
     9376.465100       0.105806
     9385.265100       0.107857
     9394.081700       0.109931
     9402.914900       0.112028
     9411.764700       0.114148
     9420.631200       0.116291
     9429.514400       0.118457
     9438.414300       0.120646
     9447.331100       0.122859
     9456.264800       0.125095
     9465.215300       0.127354
     9474.182900       0.129636
     9483.167400       0.131942
     9492.169000       0.134272
     9501.187600       0.136624
     9510.223500       0.139001
     9519.276500       0.141400
     9528.346800       0.143823
     9537.434400       0.146270
     9546.539400       0.148740
     9555.661700       0.151234
     9564.801500       0.153751
     9573.958800       0.156291
     9583.133700       0.158855
     9592.326100       0.161443
     9601.536200       0.164054
     9610.764100       0.166688
     9620.009600       0.169346
     9629.273000       0.172027
     9638.554200       0.174732
     9647.853400       0.177460
     9657.170400       0.180211
     9666.505600       0.182986
     9675.858700       0.185784
     9685.230000       0.188605
     9694.619500       0.191449
     9704.027200       0.194316
     9713.453100       0.197207
     9722.897400       0.200121
     9732.360100       0.203057
     9741.841200       0.206016
     9751.340800       0.208998
     9760.859000       0.212003
     9770.395700       0.215031
     9779.951100       0.218081
     9789.525200       0.221153
     9799.118100       0.224249
     9808.729800       0.227366
     9818.360300       0.230505
     9828.009800       0.233667
     9837.678300       0.236851
     9847.365800       0.240056
     9857.072400       0.243283
     9866.798200       0.246532
     9876.543200       0.249803
     9886.307500       0.253095
     9896.091000       0.256408
     9905.894000       0.259743
     9915.716400       0.263098
     9925.558300       0.266474
     9935.419800       0.269872
     9945.300800       0.273289
     9955.201600       0.276727
     9965.122100       0.280186
     9975.062300       0.283664
     9985.022500       0.287163
     9995.002500       0.290681
    10005.002500       0.294219
    10015.022500       0.297776
    10025.062700       0.301352
    10035.122900       0.304948
    10045.203400       0.308562
    10055.304200       0.312195
    10065.425300       0.315846
    10075.566800       0.319516
    10085.728700       0.323204
    10095.911200       0.326910
    10106.114200       0.330633
    10116.337900       0.334373
    10126.582300       0.338131
    10136.847400       0.341905
    10147.133400       0.345697
    10157.440300       0.349505
    10167.768200       0.353329
    10178.117000       0.357169
    10188.487000       0.361025
    10198.878100       0.364896
    10209.290500       0.368782
    10219.724100       0.372684
    10230.179000       0.376600
    10240.655400       0.380531
    10251.153300       0.384475
    10261.672700       0.388434
    10272.213700       0.392406
    10282.776300       0.396392
    10293.360800       0.400391
    10303.967000       0.404402
    10314.595200       0.408426
    10325.245200       0.412462
    10335.917300       0.416510
    10346.611500       0.420569
    10357.327800       0.424640
    10368.066400       0.428721
    10378.827200       0.432813
    10389.610400       0.436916
    10400.416000       0.441028
    10411.244100       0.445150
    10422.094800       0.449282
    10432.968200       0.453422
    10443.864200       0.457572
    10454.783100       0.461729
    10465.724800       0.465895
    10476.689400       0.470068
    10487.677000       0.474249
    10498.687700       0.478436
    10509.721500       0.482630
    10520.778500       0.486831
    10531.858900       0.491037
    10542.962600       0.495249
    10554.089700       0.499466
    10565.240400       0.503688
    10576.414600       0.507914
    10587.612500       0.512145
    10598.834100       0.516380
    10610.079600       0.520617
    10621.348900       0.524858
    10632.642200       0.529101
    10643.959600       0.533347
    10655.301000       0.537595
    10666.666700       0.541844
    10678.056600       0.546094
    10689.470900       0.550345
    10700.909600       0.554596
    10712.372800       0.558847
    10723.860600       0.563098
    10735.373100       0.567348
    10746.910300       0.571597
    10758.472300       0.575845
    10770.059200       0.580090
    10781.671200       0.584333
    10793.308100       0.588573
    10804.970300       0.592810
    10816.657700       0.597044
    10828.370300       0.601273
    10840.108400       0.605499
    10851.871900       0.609719
    10863.661100       0.613935
    10875.475800       0.618144
    10887.316300       0.622348
    10899.182600       0.626546
    10911.074700       0.630737
    10922.992900       0.634921
    10934.937100       0.639097
    10946.907500       0.643265
    10958.904100       0.647425
    10970.927000       0.651577
    10982.976400       0.655719
    10995.052200       0.659851
    11007.154700       0.663974
    11019.283700       0.668087
    11031.439600       0.672189
    11043.622300       0.676279
    11055.832000       0.680358
    11068.068600       0.684425
    11080.332400       0.688481
    11092.623400       0.692523
    11104.941700       0.696552
    11117.287400       0.700568
    11129.660500       0.704569
    11142.061300       0.708557
    11154.489700       0.712530
    11166.945800       0.716488
    11179.429800       0.720431
    11191.941800       0.724358
    11204.481800       0.728268
    11217.049900       0.732162
    11229.646300       0.736039
    11242.270900       0.739899
    11254.924000       0.743742
    11267.605600       0.747566
    11280.315800       0.751372
    11293.054800       0.755159
    11305.822500       0.758927
    11318.619100       0.762675
    11331.444800       0.766404
    11344.299500       0.770112
    11357.183400       0.773800
    11370.096600       0.777467
    11383.039300       0.781112
    11396.011400       0.784736
    11409.013100       0.788338
    11422.044500       0.791918
    11435.105800       0.795475
    11448.196900       0.799009
    11461.318100       0.802520
    11474.469300       0.806007
    11487.650800       0.809470
    11500.862600       0.812910
    11514.104800       0.816324
    11527.377500       0.819713
    11540.680900       0.823078
    11554.015000       0.826416
    11567.380000       0.829729
    11580.775900       0.833016
    11594.202900       0.836276
    11607.661100       0.839510
    11621.150500       0.842717
    11634.671300       0.845896
    11648.223600       0.849048
    11661.807600       0.852172
    11675.423200       0.855268
    11689.070700       0.858336
    11702.750100       0.861375
    11716.461600       0.864385
    11730.205300       0.867365
    11743.981200       0.870317
    11757.789500       0.873239
    11771.630400       0.876131
    11785.503800       0.878993
    11799.410000       0.881824
    11813.349100       0.884625
    11827.321100       0.887396
    11841.326200       0.890135
    11855.364600       0.892843
    11869.436200       0.895519
    11883.541300       0.898164
    11897.680000       0.900777
    11911.852300       0.903359
    11926.058400       0.905908
    11940.298500       0.908424
    11954.572600       0.910908
    11968.880900       0.913360
    11983.223500       0.915778
    11997.600500       0.918164
    12012.012000       0.920516
    12026.458200       0.922835
    12040.939200       0.925121
    12055.455100       0.927373
    12070.006000       0.929591
    12084.592100       0.931776
    12099.213600       0.933926
    12113.870400       0.936042
    12128.562800       0.938124
    12143.290800       0.940172
    12158.054700       0.942186
    12172.854500       0.944165
    12187.690400       0.946109
    12202.562500       0.948019
    12217.471000       0.949894
    12232.415900       0.951734
    12247.397400       0.953540
    12262.415700       0.955310
    12277.470800       0.957046
    12292.563000       0.958746
    12307.692300       0.960412
    12322.858900       0.962043
    12338.062900       0.963638
    12353.304500       0.965198
    12368.583800       0.966724
    12383.900900       0.968214
    12399.256000       0.969669
    12414.649300       0.971089
    12430.080800       0.972474
    12445.550700       0.973823
    12461.059200       0.975138
    12476.606400       0.976418
    12492.192400       0.977663
    12507.817400       0.978872
    12523.481500       0.980047
    12539.185000       0.981187
    12554.927800       0.982292
    12570.710200       0.983363
    12586.532400       0.984399
    12602.394500       0.985400
    12618.296500       0.986367
    12634.238800       0.987299
    12650.221400       0.988197
    12666.244500       0.989061
    12682.308200       0.989891
    12698.412700       0.990687
    12714.558200       0.991449
    12730.744700       0.992177
    12746.972600       0.992872
    12763.241900       0.993533
    12779.552700       0.994161
    12795.905300       0.994756
    12812.299800       0.995318
    12828.736400       0.995847
    12845.215200       0.996343
    12861.736300       0.996807
    12878.300100       0.997239
    12894.906500       0.997638
    12911.555800       0.998006
    12928.248200       0.998341
    12944.983800       0.998645
    12961.762800       0.998918
    12978.585300       0.999160
    12995.451600       0.999371
    13012.361700       0.999551
    13029.316000       0.999700
    13046.314400       0.999820
    13063.357300       0.999909
    13080.444700       0.999969
    13097.576900       0.999999
    13114.754100       1.000000
    13131.976400       0.999972
    13149.243900       0.999915
    13166.556900       0.999830
    13183.915600       0.999717
    13201.320100       0.999575
    13218.770700       0.999406
    13236.267400       0.999210
    13253.810500       0.998987
    13271.400100       0.998737
    13289.036500       0.998460
    13306.719900       0.998158
    13324.450400       0.997829
    13342.228200       0.997476
    13360.053400       0.997097
    13377.926400       0.996693
    13395.847300       0.996264
    13413.816200       0.995811
    13431.833400       0.995335
    13449.899100       0.994835
    13468.013500       0.994312
    13486.176700       0.993766
    13504.388900       0.993197
    13522.650400       0.992606
    13540.961400       0.991994
    13559.322000       0.991360
    13577.732500       0.990705
    13596.193100       0.990029
    13614.703900       0.989333
    13633.265200       0.988617
    13651.877100       0.987882
    13670.540000       0.987127
    13689.253900       0.986354
    13708.019200       0.985562
    13726.836000       0.984752
    13745.704500       0.983924
    13764.624900       0.983079
    13783.597500       0.982218
    13802.622500       0.981339
    13821.700100       0.980445
    13840.830400       0.979535
    13860.013900       0.978610
    13879.250500       0.977670
    13898.540700       0.976715
    13917.884500       0.975747
    13937.282200       0.974765
    13956.734100       0.973769
    13976.240400       0.972761
    13995.801300       0.971740
    14015.417000       0.970708
    14035.087700       0.969663
    14054.813800       0.968608
    14074.595400       0.967542
    14094.432700       0.966465
    14114.326000       0.965379
    14134.275600       0.964283
    14154.281700       0.963178
    14174.344400       0.962064
    14194.464200       0.960943
    14214.641100       0.959813
    14234.875400       0.958676
    14255.167500       0.957532
    14275.517500       0.956381
    14295.925700       0.955225
    14316.392300       0.954062
    14336.917600       0.952894
    14357.501800       0.951722
    14378.145200       0.950544
    14398.848100       0.949363
    14419.610700       0.948178
    14440.433200       0.946990
    14461.316000       0.945799
    14482.259200       0.944606
    14503.263200       0.943410
    14524.328200       0.942213
    14545.454500       0.941015
    14566.642400       0.939816
    14587.892000       0.938617
    14609.203800       0.937417
    14630.577900       0.936218
    14652.014700       0.935020
    14673.514300       0.933823
    14695.077100       0.932627
    14716.703500       0.931433
    14738.393500       0.930242
    14760.147600       0.929053
    14781.966000       0.927867
    14803.849000       0.926685
    14825.796900       0.925507
    14847.809900       0.924333
    14869.888500       0.923163
    14892.032800       0.921998
    14914.243100       0.920838
    14936.519800       0.919684
    14958.863100       0.918536
    14981.273400       0.917395
    15003.750900       0.916259
    15026.296000       0.915131
    15048.909000       0.914010
    15071.590100       0.912897
    15094.339600       0.911791
    15117.158000       0.910694
    15140.045400       0.909605
    15163.002300       0.908525
    15186.028900       0.907454
    15209.125500       0.906393
    15232.292500       0.905341
    15255.530100       0.904299
    15278.838800       0.903267
    15302.218800       0.902246
    15325.670500       0.901236
    15349.194200       0.900237
    15372.790200       0.899249
    15396.458800       0.898272
    15420.200500       0.897308
    15444.015400       0.896355
    15467.904100       0.895415
    15491.866800       0.894486
    15515.903800       0.893571
    15540.015500       0.892668
    15564.202300       0.891779
    15588.464500       0.890903
    15612.802500       0.890040
    15637.216600       0.889190
    15661.707100       0.888355
    15686.274500       0.887533
    15710.919100       0.886725
    15735.641200       0.885932
    15760.441300       0.885152
    15785.319700       0.884388
    15810.276700       0.883637
    15835.312700       0.882902
    15860.428200       0.882181
    15885.623500       0.881475
    15910.899000       0.880784
    15936.255000       0.880108
    15961.691900       0.879448
    15987.210200       0.878802
    16012.810200       0.878171
    16038.492400       0.877556
    16064.257000       0.876956
    16090.104600       0.876372
    16116.035500       0.875802
    16142.050000       0.875248
    16168.148700       0.874709
    16194.332000       0.874186
    16220.600200       0.873678
    16246.953700       0.873185
    16273.393000       0.872707
    16299.918500       0.872244
    16326.530600       0.871797
    16353.229800       0.871364
    16380.016400       0.870946
    16406.890900       0.870543
    16433.853700       0.870155
    16460.905300       0.869782
    16488.046200       0.869422
    16515.276600       0.869078
    16542.597200       0.868747
    16570.008300       0.868430
    16597.510400       0.868128
    16625.103900       0.867839
    16652.789300       0.867563
    16680.567100       0.867301
    16708.437800       0.867052
    16736.401700       0.866816
    16764.459300       0.866592
    16792.611300       0.866381
    16820.857900       0.866182
    16849.199700       0.865995
    16877.637100       0.865820
    16906.170800       0.865656
    16934.801000       0.865503
    16963.528400       0.865360
    16992.353400       0.865229
    17021.276600       0.865107
    17050.298400       0.864995
    17079.419300       0.864893
    17108.639900       0.864799
    17137.960600       0.864715
    17167.382000       0.864638
    17196.904600       0.864570
    17226.528900       0.864509
    17256.255400       0.864455
    17286.084700       0.864408
