98,   98, MVIRI VIS channel from srf_MET5_2003168_2003169_1801-Release_S10EL_10.dat
Number of data points:
806
Wavenumber (cm-1)   Filter response
     8350.730700       0.000000
     8357.710000       0.000000
     8364.701000       0.000000
     8371.703600       0.000002
     8378.718100       0.000004
     8385.744200       0.000009
     8392.782200       0.000017
     8399.832000       0.000028
     8406.893700       0.000042
     8413.967200       0.000061
     8421.052600       0.000085
     8428.150000       0.000114
     8435.259400       0.000148
     8442.380800       0.000189
     8449.514200       0.000237
     8456.659600       0.000291
     8463.817200       0.000353
     8470.986900       0.000423
     8478.168700       0.000500
     8485.362700       0.000587
     8492.569000       0.000682
     8499.787500       0.000787
     8507.018300       0.000901
     8514.261400       0.001025
     8521.516800       0.001159
     8528.784600       0.001304
     8536.064900       0.001459
     8543.357500       0.001626
     8550.662700       0.001803
     8557.980300       0.001993
     8565.310500       0.002194
     8572.653200       0.002407
     8580.008600       0.002632
     8587.376600       0.002871
     8594.757200       0.003121
     8602.150500       0.003385
     8609.556600       0.003662
     8616.975400       0.003952
     8624.407100       0.004256
     8631.851500       0.004573
     8639.308900       0.004905
     8646.779100       0.005250
     8654.262200       0.005610
     8661.758300       0.005984
     8669.267400       0.006373
     8676.789600       0.006777
     8684.324800       0.007196
     8691.873100       0.007629
     8699.434500       0.008078
     8707.009100       0.008542
     8714.596900       0.009022
     8722.198000       0.009518
     8729.812300       0.010029
     8737.439900       0.010556
     8745.080900       0.011100
     8752.735200       0.011659
     8760.403000       0.012235
     8768.084200       0.012828
     8775.778900       0.013437
     8783.487000       0.014062
     8791.208800       0.014705
     8798.944100       0.015364
     8806.693100       0.016041
     8814.455700       0.016734
     8822.232000       0.017445
     8830.022100       0.018173
     8837.825900       0.018919
     8845.643500       0.019683
     8853.475000       0.020464
     8861.320300       0.021264
     8869.179600       0.022081
     8877.052800       0.022916
     8884.940000       0.023769
     8892.841300       0.024641
     8900.756600       0.025531
     8908.686000       0.026440
     8916.629500       0.027367
     8924.587200       0.028313
     8932.559200       0.029278
     8940.545400       0.030261
     8948.545900       0.031264
     8956.560700       0.032286
     8964.589900       0.033327
     8972.633500       0.034387
     8980.691500       0.035467
     8988.764000       0.036566
     8996.851100       0.037685
     9004.952700       0.038824
     9013.068900       0.039982
     9021.199800       0.041161
     9029.345400       0.042360
     9037.505600       0.043578
     9045.680700       0.044817
     9053.870500       0.046076
     9062.075200       0.047356
     9070.294800       0.048656
     9078.529300       0.049977
     9086.778700       0.051318
     9095.043200       0.052680
     9103.322700       0.054064
     9111.617300       0.055468
     9119.927000       0.056893
     9128.251900       0.058339
     9136.592100       0.059807
     9144.947400       0.061296
     9153.318100       0.062807
     9161.704100       0.064339
     9170.105500       0.065892
     9178.522300       0.067468
     9186.954500       0.069065
     9195.402300       0.070684
     9203.865600       0.072325
     9212.344500       0.073988
     9220.839100       0.075674
     9229.349300       0.077381
     9237.875300       0.079111
     9246.417000       0.080863
     9254.974500       0.082637
     9263.547900       0.084435
     9272.137200       0.086254
     9280.742500       0.088097
     9289.363700       0.089962
     9298.000900       0.091850
     9306.654300       0.093761
     9315.323700       0.095694
     9324.009300       0.097651
     9332.711200       0.099631
     9341.429200       0.101634
     9350.163600       0.103660
     9358.914400       0.105709
     9367.681500       0.107782
     9376.465100       0.109878
     9385.265100       0.111997
     9394.081700       0.114140
     9402.914900       0.116306
     9411.764700       0.118496
     9420.631200       0.120710
     9429.514400       0.122947
     9438.414300       0.125207
     9447.331100       0.127492
     9456.264800       0.129800
     9465.215300       0.132132
     9474.182900       0.134487
     9483.167400       0.136866
     9492.169000       0.139269
     9501.187600       0.141696
     9510.223500       0.144147
     9519.276500       0.146621
     9528.346800       0.149120
     9537.434400       0.151642
     9546.539400       0.154188
     9555.661700       0.156758
     9564.801500       0.159351
     9573.958800       0.161969
     9583.133700       0.164610
     9592.326100       0.167275
     9601.536200       0.169964
     9610.764100       0.172676
     9620.009600       0.175413
     9629.273000       0.178173
     9638.554200       0.180956
     9647.853400       0.183764
     9657.170400       0.186594
     9666.505600       0.189449
     9675.858700       0.192326
     9685.230000       0.195227
     9694.619500       0.198152
     9704.027200       0.201100
     9713.453100       0.204071
     9722.897400       0.207065
     9732.360100       0.210083
     9741.841200       0.213123
     9751.340800       0.216186
     9760.859000       0.219273
     9770.395700       0.222382
     9779.951100       0.225513
     9789.525200       0.228668
     9799.118100       0.231844
     9808.729800       0.235043
     9818.360300       0.238265
     9828.009800       0.241508
     9837.678300       0.244774
     9847.365800       0.248061
     9857.072400       0.251370
     9866.798200       0.254702
     9876.543200       0.258054
     9886.307500       0.261428
     9896.091000       0.264823
     9905.894000       0.268239
     9915.716400       0.271676
     9925.558300       0.275134
     9935.419800       0.278613
     9945.300800       0.282112
     9955.201600       0.285631
     9965.122100       0.289170
     9975.062300       0.292730
     9985.022500       0.296309
     9995.002500       0.299908
    10005.002500       0.303526
    10015.022500       0.307163
    10025.062700       0.310820
    10035.122900       0.314495
    10045.203400       0.318188
    10055.304200       0.321901
    10065.425300       0.325631
    10075.566800       0.329379
    10085.728700       0.333145
    10095.911200       0.336929
    10106.114200       0.340729
    10116.337900       0.344547
    10126.582300       0.348381
    10136.847400       0.352233
    10147.133400       0.356100
    10157.440300       0.359983
    10167.768200       0.363883
    10178.117000       0.367797
    10188.487000       0.371727
    10198.878100       0.375673
    10209.290500       0.379632
    10219.724100       0.383606
    10230.179000       0.387595
    10240.655400       0.391597
    10251.153300       0.395613
    10261.672700       0.399642
    10272.213700       0.403684
    10282.776300       0.407739
    10293.360800       0.411807
    10303.967000       0.415886
    10314.595200       0.419977
    10325.245200       0.424080
    10335.917300       0.428194
    10346.611500       0.432319
    10357.327800       0.436454
    10368.066400       0.440599
    10378.827200       0.444755
    10389.610400       0.448920
    10400.416000       0.453094
    10411.244100       0.457277
    10422.094800       0.461468
    10432.968200       0.465668
    10443.864200       0.469876
    10454.783100       0.474091
    10465.724800       0.478313
    10476.689400       0.482542
    10487.677000       0.486778
    10498.687700       0.491019
    10509.721500       0.495267
    10520.778500       0.499519
    10531.858900       0.503777
    10542.962600       0.508039
    10554.089700       0.512305
    10565.240400       0.516576
    10576.414600       0.520849
    10587.612500       0.525126
    10598.834100       0.529406
    10610.079600       0.533688
    10621.348900       0.537972
    10632.642200       0.542257
    10643.959600       0.546544
    10655.301000       0.550831
    10666.666700       0.555119
    10678.056600       0.559407
    10689.470900       0.563694
    10700.909600       0.567981
    10712.372800       0.572266
    10723.860600       0.576550
    10735.373100       0.580832
    10746.910300       0.585111
    10758.472300       0.589388
    10770.059200       0.593661
    10781.671200       0.597931
    10793.308100       0.602197
    10804.970300       0.606459
    10816.657700       0.610715
    10828.370300       0.614967
    10840.108400       0.619213
    10851.871900       0.623452
    10863.661100       0.627686
    10875.475800       0.631912
    10887.316300       0.636132
    10899.182600       0.640343
    10911.074700       0.644547
    10922.992900       0.648742
    10934.937100       0.652928
    10946.907500       0.657105
    10958.904100       0.661272
    10970.927000       0.665429
    10982.976400       0.669576
    10995.052200       0.673711
    11007.154700       0.677835
    11019.283700       0.681948
    11031.439600       0.686048
    11043.622300       0.690136
    11055.832000       0.694211
    11068.068600       0.698272
    11080.332400       0.702320
    11092.623400       0.706354
    11104.941700       0.710373
    11117.287400       0.714377
    11129.660500       0.718366
    11142.061300       0.722339
    11154.489700       0.726296
    11166.945800       0.730236
    11179.429800       0.734160
    11191.941800       0.738066
    11204.481800       0.741955
    11217.049900       0.745825
    11229.646300       0.749677
    11242.270900       0.753511
    11254.924000       0.757325
    11267.605600       0.761119
    11280.315800       0.764894
    11293.054800       0.768648
    11305.822500       0.772382
    11318.619100       0.776095
    11331.444800       0.779786
    11344.299500       0.783455
    11357.183400       0.787102
    11370.096600       0.790728
    11383.039300       0.794330
    11396.011400       0.797908
    11409.013100       0.801464
    11422.044500       0.804995
    11435.105800       0.808503
    11448.196900       0.811986
    11461.318100       0.815444
    11474.469300       0.818877
    11487.650800       0.822284
    11500.862600       0.825666
    11514.104800       0.829021
    11527.377500       0.832350
    11540.680900       0.835653
    11554.015000       0.838928
    11567.380000       0.842176
    11580.775900       0.845396
    11594.202900       0.848589
    11607.661100       0.851753
    11621.150500       0.854888
    11634.671300       0.857995
    11648.223600       0.861073
    11661.807600       0.864122
    11675.423200       0.867140
    11689.070700       0.870130
    11702.750100       0.873089
    11716.461600       0.876017
    11730.205300       0.878915
    11743.981200       0.881782
    11757.789500       0.884618
    11771.630400       0.887423
    11785.503800       0.890196
    11799.410000       0.892938
    11813.349100       0.895647
    11827.321100       0.898325
    11841.326200       0.900969
    11855.364600       0.903582
    11869.436200       0.906161
    11883.541300       0.908708
    11897.680000       0.911221
    11911.852300       0.913701
    11926.058400       0.916147
    11940.298500       0.918560
    11954.572600       0.920939
    11968.880900       0.923284
    11983.223500       0.925595
    11997.600500       0.927871
    12012.012000       0.930113
    12026.458200       0.932320
    12040.939200       0.934493
    12055.455100       0.936631
    12070.006000       0.938733
    12084.592100       0.940801
    12099.213600       0.942834
    12113.870400       0.944831
    12128.562800       0.946792
    12143.290800       0.948719
    12158.054700       0.950610
    12172.854500       0.952465
    12187.690400       0.954284
    12202.562500       0.956068
    12217.471000       0.957816
    12232.415900       0.959528
    12247.397400       0.961203
    12262.415700       0.962843
    12277.470800       0.964448
    12292.563000       0.966015
    12307.692300       0.967547
    12322.858900       0.969043
    12338.062900       0.970503
    12353.304500       0.971927
    12368.583800       0.973314
    12383.900900       0.974666
    12399.256000       0.975981
    12414.649300       0.977260
    12430.080800       0.978504
    12445.550700       0.979711
    12461.059200       0.980882
    12476.606400       0.982018
    12492.192400       0.983118
    12507.817400       0.984181
    12523.481500       0.985210
    12539.185000       0.986202
    12554.927800       0.987159
    12570.710200       0.988080
    12586.532400       0.988966
    12602.394500       0.989817
    12618.296500       0.990632
    12634.238800       0.991413
    12650.221400       0.992158
    12666.244500       0.992868
    12682.308200       0.993544
    12698.412700       0.994185
    12714.558200       0.994791
    12730.744700       0.995364
    12746.972600       0.995901
    12763.241900       0.996405
    12779.552700       0.996875
    12795.905300       0.997312
    12812.299800       0.997714
    12828.736400       0.998084
    12845.215200       0.998420
    12861.736300       0.998723
    12878.300100       0.998993
    12894.906500       0.999231
    12911.555800       0.999436
    12928.248200       0.999610
    12944.983800       0.999751
    12961.762800       0.999860
    12978.585300       0.999938
    12995.451600       0.999985
    13012.361700       1.000000
    13029.316000       0.999985
    13046.314400       0.999939
    13063.357300       0.999863
    13080.444700       0.999756
    13097.576900       0.999620
    13114.754100       0.999455
    13131.976400       0.999260
    13149.243900       0.999036
    13166.556900       0.998783
    13183.915600       0.998502
    13201.320100       0.998193
    13218.770700       0.997856
    13236.267400       0.997492
    13253.810500       0.997100
    13271.400100       0.996682
    13289.036500       0.996237
    13306.719900       0.995765
    13324.450400       0.995268
    13342.228200       0.994745
    13360.053400       0.994197
    13377.926400       0.993623
    13395.847300       0.993026
    13413.816200       0.992404
    13431.833400       0.991757
    13449.899100       0.991088
    13468.013500       0.990395
    13486.176700       0.989679
    13504.388900       0.988941
    13522.650400       0.988181
    13540.961400       0.987399
    13559.322000       0.986595
    13577.732500       0.985771
    13596.193100       0.984925
    13614.703900       0.984060
    13633.265200       0.983174
    13651.877100       0.982269
    13670.540000       0.981345
    13689.253900       0.980403
    13708.019200       0.979441
    13726.836000       0.978462
    13745.704500       0.977466
    13764.624900       0.976452
    13783.597500       0.975421
    13802.622500       0.974374
    13821.700100       0.973312
    13840.830400       0.972233
    13860.013900       0.971140
    13879.250500       0.970031
    13898.540700       0.968909
    13917.884500       0.967772
    13937.282200       0.966622
    13956.734100       0.965459
    13976.240400       0.964284
    13995.801300       0.963096
    14015.417000       0.961896
    14035.087700       0.960685
    14054.813800       0.959463
    14074.595400       0.958230
    14094.432700       0.956987
    14114.326000       0.955735
    14134.275600       0.954473
    14154.281700       0.953202
    14174.344400       0.951923
    14194.464200       0.950636
    14214.641100       0.949341
    14234.875400       0.948038
    14255.167500       0.946730
    14275.517500       0.945414
    14295.925700       0.944093
    14316.392300       0.942766
    14336.917600       0.941434
    14357.501800       0.940098
    14378.145200       0.938757
    14398.848100       0.937412
    14419.610700       0.936064
    14440.433200       0.934712
    14461.316000       0.933358
    14482.259200       0.932002
    14503.263200       0.930644
    14524.328200       0.929284
    14545.454500       0.927924
    14566.642400       0.926562
    14587.892000       0.925201
    14609.203800       0.923839
    14630.577900       0.922479
    14652.014700       0.921119
    14673.514300       0.919760
    14695.077100       0.918403
    14716.703500       0.917048
    14738.393500       0.915695
    14760.147600       0.914346
    14781.966000       0.912999
    14803.849000       0.911656
    14825.796900       0.910317
    14847.809900       0.908982
    14869.888500       0.907651
    14892.032800       0.906326
    14914.243100       0.905006
    14936.519800       0.903691
    14958.863100       0.902383
    14981.273400       0.901080
    15003.750900       0.899785
    15026.296000       0.898496
    15048.909000       0.897215
    15071.590100       0.895941
    15094.339600       0.894675
    15117.158000       0.893417
    15140.045400       0.892168
    15163.002300       0.890927
    15186.028900       0.889695
    15209.125500       0.888473
    15232.292500       0.887261
    15255.530100       0.886058
    15278.838800       0.884865
    15302.218800       0.883683
    15325.670500       0.882512
    15349.194200       0.881351
    15372.790200       0.880202
    15396.458800       0.879064
    15420.200500       0.877937
    15444.015400       0.876822
    15467.904100       0.875719
    15491.866800       0.874629
    15515.903800       0.873551
    15540.015500       0.872485
    15564.202300       0.871433
    15588.464500       0.870393
    15612.802500       0.869366
    15637.216600       0.868353
    15661.707100       0.867353
    15686.274500       0.866367
    15710.919100       0.865394
    15735.641200       0.864435
    15760.441300       0.863491
    15785.319700       0.862560
    15810.276700       0.861644
    15835.312700       0.860742
    15860.428200       0.859854
    15885.623500       0.858980
    15910.899000       0.858122
    15936.255000       0.857278
    15961.691900       0.856448
    15987.210200       0.855633
    16012.810200       0.854833
    16038.492400       0.854048
    16064.257000       0.853278
    16090.104600       0.852522
    16116.035500       0.851781
    16142.050000       0.851055
    16168.148700       0.850344
    16194.332000       0.849648
    16220.600200       0.848966
    16246.953700       0.848299
    16273.393000       0.847647
    16299.918500       0.847009
    16326.530600       0.846385
    16353.229800       0.845777
    16380.016400       0.845182
    16406.890900       0.844602
    16433.853700       0.844035
    16460.905300       0.843483
    16488.046200       0.842945
    16515.276600       0.842420
    16542.597200       0.841909
    16570.008300       0.841411
    16597.510400       0.840927
    16625.103900       0.840456
    16652.789300       0.839997
    16680.567100       0.839551
    16708.437800       0.839118
    16736.401700       0.838697
    16764.459300       0.838288
    16792.611300       0.837891
    16820.857900       0.837505
    16849.199700       0.837131
    16877.637100       0.836767
    16906.170800       0.836414
    16934.801000       0.836072
    16963.528400       0.835740
    16992.353400       0.835418
    17021.276600       0.835105
    17050.298400       0.834801
    17079.419300       0.834506
    17108.639900       0.834220
    17137.960600       0.833941
    17167.382000       0.833671
    17196.904600       0.833408
    17226.528900       0.833152
    17256.255400       0.832902
    17286.084700       0.832658
