78,   78, MVIRI VIS channel from srf_MET2_1991303_1991304_1801-Release_S10EL_10.dat
Number of data points:
730
Wavenumber (cm-1)   Filter response
     8916.629500       0.000000
     8924.587200       0.000000
     8932.559200       0.000002
     8940.545400       0.000012
     8948.545900       0.000033
     8956.560700       0.000070
     8964.589900       0.000128
     8972.633500       0.000212
     8980.691500       0.000324
     8988.764000       0.000469
     8996.851100       0.000651
     9004.952700       0.000873
     9013.068900       0.001139
     9021.199800       0.001452
     9029.345400       0.001814
     9037.505600       0.002230
     9045.680700       0.002701
     9053.870500       0.003231
     9062.075200       0.003821
     9070.294800       0.004475
     9078.529300       0.005195
     9086.778700       0.005982
     9095.043200       0.006839
     9103.322700       0.007767
     9111.617300       0.008769
     9119.927000       0.009846
     9128.251900       0.010999
     9136.592100       0.012231
     9144.947400       0.013541
     9153.318100       0.014933
     9161.704100       0.016405
     9170.105500       0.017961
     9178.522300       0.019600
     9186.954500       0.021323
     9195.402300       0.023131
     9203.865600       0.025025
     9212.344500       0.027005
     9220.839100       0.029073
     9229.349300       0.031227
     9237.875300       0.033468
     9246.417000       0.035798
     9254.974500       0.038215
     9263.547900       0.040720
     9272.137200       0.043313
     9280.742500       0.045993
     9289.363700       0.048762
     9298.000900       0.051618
     9306.654300       0.054562
     9315.323700       0.057592
     9324.009300       0.060709
     9332.711200       0.063912
     9341.429200       0.067201
     9350.163600       0.070575
     9358.914400       0.074034
     9367.681500       0.077576
     9376.465100       0.081202
     9385.265100       0.084911
     9394.081700       0.088701
     9402.914900       0.092572
     9411.764700       0.096524
     9420.631200       0.100555
     9429.514400       0.104663
     9438.414300       0.108850
     9447.331100       0.113112
     9456.264800       0.117451
     9465.215300       0.121863
     9474.182900       0.126348
     9483.167400       0.130906
     9492.169000       0.135534
     9501.187600       0.140233
     9510.223500       0.145000
     9519.276500       0.149834
     9528.346800       0.154734
     9537.434400       0.159699
     9546.539400       0.164728
     9555.661700       0.169819
     9564.801500       0.174970
     9573.958800       0.180182
     9583.133700       0.185451
     9592.326100       0.190777
     9601.536200       0.196160
     9610.764100       0.201595
     9620.009600       0.207084
     9629.273000       0.212624
     9638.554200       0.218214
     9647.853400       0.223853
     9657.170400       0.229537
     9666.505600       0.235269
     9675.858700       0.241044
     9685.230000       0.246861
     9694.619500       0.252721
     9704.027200       0.258619
     9713.453100       0.264556
     9722.897400       0.270531
     9732.360100       0.276540
     9741.841200       0.282583
     9751.340800       0.288659
     9760.859000       0.294766
     9770.395700       0.300902
     9779.951100       0.307066
     9789.525200       0.313258
     9799.118100       0.319474
     9808.729800       0.325714
     9818.360300       0.331977
     9828.009800       0.338260
     9837.678300       0.344563
     9847.365800       0.350884
     9857.072400       0.357221
     9866.798200       0.363574
     9876.543200       0.369941
     9886.307500       0.376320
     9896.091000       0.382711
     9905.894000       0.389110
     9915.716400       0.395519
     9925.558300       0.401934
     9935.419800       0.408356
     9945.300800       0.414781
     9955.201600       0.421210
     9965.122100       0.427640
     9975.062300       0.434071
     9985.022500       0.440501
     9995.002500       0.446929
    10005.002500       0.453354
    10015.022500       0.459774
    10025.062700       0.466189
    10035.122900       0.472596
    10045.203400       0.478995
    10055.304200       0.485386
    10065.425300       0.491765
    10075.566800       0.498133
    10085.728700       0.504488
    10095.911200       0.510829
    10106.114200       0.517155
    10116.337900       0.523465
    10126.582300       0.529758
    10136.847400       0.536033
    10147.133400       0.542288
    10157.440300       0.548523
    10167.768200       0.554737
    10178.117000       0.560928
    10188.487000       0.567097
    10198.878100       0.573241
    10209.290500       0.579360
    10219.724100       0.585452
    10230.179000       0.591518
    10240.655400       0.597556
    10251.153300       0.603565
    10261.672700       0.609545
    10272.213700       0.615494
    10282.776300       0.621412
    10293.360800       0.627298
    10303.967000       0.633150
    10314.595200       0.638969
    10325.245200       0.644754
    10335.917300       0.650504
    10346.611500       0.656218
    10357.327800       0.661895
    10368.066400       0.667535
    10378.827200       0.673137
    10389.610400       0.678701
    10400.416000       0.684225
    10411.244100       0.689709
    10422.094800       0.695153
    10432.968200       0.700556
    10443.864200       0.705917
    10454.783100       0.711237
    10465.724800       0.716513
    10476.689400       0.721746
    10487.677000       0.726936
    10498.687700       0.732082
    10509.721500       0.737182
    10520.778500       0.742238
    10531.858900       0.747248
    10542.962600       0.752212
    10554.089700       0.757130
    10565.240400       0.762001
    10576.414600       0.766824
    10587.612500       0.771600
    10598.834100       0.776329
    10610.079600       0.781009
    10621.348900       0.785641
    10632.642200       0.790223
    10643.959600       0.794757
    10655.301000       0.799241
    10666.666700       0.803676
    10678.056600       0.808060
    10689.470900       0.812395
    10700.909600       0.816679
    10712.372800       0.820913
    10723.860600       0.825096
    10735.373100       0.829228
    10746.910300       0.833309
    10758.472300       0.837339
    10770.059200       0.841317
    10781.671200       0.845244
    10793.308100       0.849119
    10804.970300       0.852943
    10816.657700       0.856714
    10828.370300       0.860434
    10840.108400       0.864102
    10851.871900       0.867718
    10863.661100       0.871282
    10875.475800       0.874794
    10887.316300       0.878254
    10899.182600       0.881661
    10911.074700       0.885017
    10922.992900       0.888321
    10934.937100       0.891572
    10946.907500       0.894772
    10958.904100       0.897919
    10970.927000       0.901015
    10982.976400       0.904059
    10995.052200       0.907051
    11007.154700       0.909992
    11019.283700       0.912881
    11031.439600       0.915718
    11043.622300       0.918504
    11055.832000       0.921239
    11068.068600       0.923923
    11080.332400       0.926556
    11092.623400       0.929138
    11104.941700       0.931669
    11117.287400       0.934150
    11129.660500       0.936580
    11142.061300       0.938960
    11154.489700       0.941290
    11166.945800       0.943571
    11179.429800       0.945802
    11191.941800       0.947983
    11204.481800       0.950115
    11217.049900       0.952198
    11229.646300       0.954233
    11242.270900       0.956219
    11254.924000       0.958156
    11267.605600       0.960046
    11280.315800       0.961888
    11293.054800       0.963682
    11305.822500       0.965429
    11318.619100       0.967129
    11331.444800       0.968782
    11344.299500       0.970388
    11357.183400       0.971949
    11370.096600       0.973463
    11383.039300       0.974932
    11396.011400       0.976355
    11409.013100       0.977733
    11422.044500       0.979067
    11435.105800       0.980356
    11448.196900       0.981600
    11461.318100       0.982801
    11474.469300       0.983958
    11487.650800       0.985072
    11500.862600       0.986143
    11514.104800       0.987171
    11527.377500       0.988157
    11540.680900       0.989101
    11554.015000       0.990003
    11567.380000       0.990864
    11580.775900       0.991683
    11594.202900       0.992462
    11607.661100       0.993201
    11621.150500       0.993899
    11634.671300       0.994558
    11648.223600       0.995177
    11661.807600       0.995757
    11675.423200       0.996299
    11689.070700       0.996802
    11702.750100       0.997267
    11716.461600       0.997694
    11730.205300       0.998084
    11743.981200       0.998437
    11757.789500       0.998753
    11771.630400       0.999032
    11785.503800       0.999276
    11799.410000       0.999484
    11813.349100       0.999656
    11827.321100       0.999794
    11841.326200       0.999897
    11855.364600       0.999965
    11869.436200       0.999999
    11883.541300       1.000000
    11897.680000       0.999967
    11911.852300       0.999902
    11926.058400       0.999803
    11940.298500       0.999672
    11954.572600       0.999509
    11968.880900       0.999315
    11983.223500       0.999089
    11997.600500       0.998832
    12012.012000       0.998544
    12026.458200       0.998226
    12040.939200       0.997878
    12055.455100       0.997500
    12070.006000       0.997092
    12084.592100       0.996656
    12099.213600       0.996190
    12113.870400       0.995696
    12128.562800       0.995174
    12143.290800       0.994624
    12158.054700       0.994046
    12172.854500       0.993441
    12187.690400       0.992809
    12202.562500       0.992151
    12217.471000       0.991466
    12232.415900       0.990755
    12247.397400       0.990018
    12262.415700       0.989255
    12277.470800       0.988468
    12292.563000       0.987655
    12307.692300       0.986818
    12322.858900       0.985956
    12338.062900       0.985070
    12353.304500       0.984161
    12368.583800       0.983227
    12383.900900       0.982271
    12399.256000       0.981291
    12414.649300       0.980289
    12430.080800       0.979264
    12445.550700       0.978217
    12461.059200       0.977148
    12476.606400       0.976057
    12492.192400       0.974945
    12507.817400       0.973811
    12523.481500       0.972656
    12539.185000       0.971481
    12554.927800       0.970285
    12570.710200       0.969068
    12586.532400       0.967832
    12602.394500       0.966576
    12618.296500       0.965300
    12634.238800       0.964004
    12650.221400       0.962690
    12666.244500       0.961356
    12682.308200       0.960004
    12698.412700       0.958633
    12714.558200       0.957244
    12730.744700       0.955836
    12746.972600       0.954411
    12763.241900       0.952968
    12779.552700       0.951507
    12795.905300       0.950029
    12812.299800       0.948534
    12828.736400       0.947021
    12845.215200       0.945492
    12861.736300       0.943946
    12878.300100       0.942384
    12894.906500       0.940805
    12911.555800       0.939211
    12928.248200       0.937600
    12944.983800       0.935974
    12961.762800       0.934331
    12978.585300       0.932674
    12995.451600       0.931001
    13012.361700       0.929313
    13029.316000       0.927610
    13046.314400       0.925892
    13063.357300       0.924159
    13080.444700       0.922412
    13097.576900       0.920650
    13114.754100       0.918874
    13131.976400       0.917084
    13149.243900       0.915280
    13166.556900       0.913462
    13183.915600       0.911630
    13201.320100       0.909785
    13218.770700       0.907926
    13236.267400       0.906053
    13253.810500       0.904168
    13271.400100       0.902269
    13289.036500       0.900357
    13306.719900       0.898432
    13324.450400       0.896495
    13342.228200       0.894544
    13360.053400       0.892581
    13377.926400       0.890606
    13395.847300       0.888618
    13413.816200       0.886618
    13431.833400       0.884606
    13449.899100       0.882581
    13468.013500       0.880545
    13486.176700       0.878497
    13504.388900       0.876437
    13522.650400       0.874365
    13540.961400       0.872282
    13559.322000       0.870187
    13577.732500       0.868080
    13596.193100       0.865962
    13614.703900       0.863833
    13633.265200       0.861693
    13651.877100       0.859542
    13670.540000       0.857380
    13689.253900       0.855206
    13708.019200       0.853022
    13726.836000       0.850827
    13745.704500       0.848622
    13764.624900       0.846406
    13783.597500       0.844179
    13802.622500       0.841942
    13821.700100       0.839694
    13840.830400       0.837436
    13860.013900       0.835168
    13879.250500       0.832889
    13898.540700       0.830601
    13917.884500       0.828302
    13937.282200       0.825993
    13956.734100       0.823675
    13976.240400       0.821347
    13995.801300       0.819009
    14015.417000       0.816661
    14035.087700       0.814304
    14054.813800       0.811937
    14074.595400       0.809560
    14094.432700       0.807175
    14114.326000       0.804780
    14134.275600       0.802375
    14154.281700       0.799961
    14174.344400       0.797539
    14194.464200       0.795107
    14214.641100       0.792666
    14234.875400       0.790216
    14255.167500       0.787758
    14275.517500       0.785290
    14295.925700       0.782814
    14316.392300       0.780329
    14336.917600       0.777836
    14357.501800       0.775334
    14378.145200       0.772824
    14398.848100       0.770306
    14419.610700       0.767779
    14440.433200       0.765244
    14461.316000       0.762700
    14482.259200       0.760149
    14503.263200       0.757590
    14524.328200       0.755023
    14545.454500       0.752448
    14566.642400       0.749865
    14587.892000       0.747275
    14609.203800       0.744676
    14630.577900       0.742071
    14652.014700       0.739458
    14673.514300       0.736838
    14695.077100       0.734210
    14716.703500       0.731575
    14738.393500       0.728934
    14760.147600       0.726285
    14781.966000       0.723629
    14803.849000       0.720966
    14825.796900       0.718297
    14847.809900       0.715621
    14869.888500       0.712939
    14892.032800       0.710250
    14914.243100       0.707554
    14936.519800       0.704853
    14958.863100       0.702145
    14981.273400       0.699431
    15003.750900       0.696711
    15026.296000       0.693985
    15048.909000       0.691254
    15071.590100       0.688517
    15094.339600       0.685774
    15117.158000       0.683026
    15140.045400       0.680272
    15163.002300       0.677514
    15186.028900       0.674750
    15209.125500       0.671981
    15232.292500       0.669207
    15255.530100       0.666428
    15278.838800       0.663645
    15302.218800       0.660857
    15325.670500       0.658064
    15349.194200       0.655267
    15372.790200       0.652466
    15396.458800       0.649661
    15420.200500       0.646852
    15444.015400       0.644039
    15467.904100       0.641223
    15491.866800       0.638402
    15515.903800       0.635579
    15540.015500       0.632752
    15564.202300       0.629921
    15588.464500       0.627088
    15612.802500       0.624251
    15637.216600       0.621412
    15661.707100       0.618570
    15686.274500       0.615726
    15710.919100       0.612879
    15735.641200       0.610030
    15760.441300       0.607178
    15785.319700       0.604325
    15810.276700       0.601470
    15835.312700       0.598613
    15860.428200       0.595754
    15885.623500       0.592894
    15910.899000       0.590032
    15936.255000       0.587170
    15961.691900       0.584306
    15987.210200       0.581442
    16012.810200       0.578577
    16038.492400       0.575711
    16064.257000       0.572845
    16090.104600       0.569978
    16116.035500       0.567111
    16142.050000       0.564244
    16168.148700       0.561378
    16194.332000       0.558512
    16220.600200       0.555646
    16246.953700       0.552780
    16273.393000       0.549916
    16299.918500       0.547052
    16326.530600       0.544190
    16353.229800       0.541328
    16380.016400       0.538468
    16406.890900       0.535610
    16433.853700       0.532753
    16460.905300       0.529898
    16488.046200       0.527044
    16515.276600       0.524193
    16542.597200       0.521344
    16570.008300       0.518498
    16597.510400       0.515654
    16625.103900       0.512813
    16652.789300       0.509974
    16680.567100       0.507139
    16708.437800       0.504307
    16736.401700       0.501478
    16764.459300       0.498652
    16792.611300       0.495830
    16820.857900       0.493012
    16849.199700       0.490197
    16877.637100       0.487387
    16906.170800       0.484580
    16934.801000       0.481778
    16963.528400       0.478981
    16992.353400       0.476188
    17021.276600       0.473399
    17050.298400       0.470616
    17079.419300       0.467838
    17108.639900       0.465064
    17137.960600       0.462296
    17167.382000       0.459533
    17196.904600       0.456776
    17226.528900       0.454024
    17256.255400       0.451279
    17286.084700       0.448538
    17316.017300       0.445804
    17346.053800       0.443077
    17376.194600       0.440355
    17406.440400       0.437640
    17436.791600       0.434931
    17467.248900       0.432229
    17497.812800       0.429533
    17528.483800       0.426845
    17559.262500       0.424163
    17590.149500       0.421488
    17621.145400       0.418820
    17652.250700       0.416160
    17683.466000       0.413507
    17714.791900       0.410861
    17746.228900       0.408223
    17777.777800       0.405593
    17809.439000       0.402970
    17841.213200       0.400355
    17873.101000       0.397747
    17905.103000       0.395148
    17937.219700       0.392556
    17969.451900       0.389973
    18001.800200       0.387398
    18034.265100       0.384831
    18066.847300       0.382272
    18099.547500       0.379722
    18132.366300       0.377180
    18165.304300       0.374646
    18198.362100       0.372121
    18231.540600       0.369605
    18264.840200       0.367097
    18298.261700       0.364597
    18331.805700       0.362107
    18365.472900       0.359625
    18399.264000       0.357151
    18433.179700       0.354687
    18467.220700       0.352231
    18501.387600       0.349784
    18535.681200       0.347346
    18570.102100       0.344916
    18604.651200       0.342495
    18639.329000       0.340084
    18674.136300       0.337681
    18709.073900       0.335286
    18744.142500       0.332901
    18779.342700       0.330524
    18814.675400       0.328156
    18850.141400       0.325797
    18885.741300       0.323447
    18921.475900       0.321105
    18957.346000       0.318772
    18993.352300       0.316448
    19029.495700       0.314132
    19065.776900       0.311825
    19102.196800       0.309526
    19138.756000       0.307236
    19175.455400       0.304954
    19212.295900       0.302681
    19249.278200       0.300415
    19286.403100       0.298158
    19323.671500       0.295909
    19361.084200       0.293669
    19398.642100       0.291436
    19436.346000       0.289211
    19474.196700       0.286994
    19512.195100       0.284784
    19550.342100       0.282583
    19588.638600       0.280388
    19627.085400       0.278202
    19665.683400       0.276022
    19704.433500       0.273850
    19743.336600       0.271685
    19782.393700       0.269527
    19821.605600       0.267375
    19860.973200       0.265231
    19900.497500       0.263093
