14, channel 14 SRF extracted from AHI-8_SpectralResponsivity_Data.xlsx (release Sept 2013)
Number of data points:
1491
Wavenumber (cm-1)   Filter response
      821.000000       0.000503
      821.100000       0.000515
      821.200000       0.000526
      821.300000       0.000534
      821.400000       0.000540
      821.500000       0.000544
      821.600000       0.000547
      821.700000       0.000547
      821.800000       0.000546
      821.900000       0.000544
      822.000000       0.000541
      822.100000       0.000538
      822.200000       0.000535
      822.300000       0.000533
      822.400000       0.000532
      822.500000       0.000532
      822.600000       0.000534
      822.700000       0.000538
      822.800000       0.000544
      822.900000       0.000553
      823.000000       0.000563
      823.100000       0.000576
      823.200000       0.000590
      823.300000       0.000606
      823.400000       0.000624
      823.500000       0.000643
      823.600000       0.000663
      823.700000       0.000683
      823.800000       0.000704
      823.900000       0.000724
      824.000000       0.000744
      824.100000       0.000764
      824.200000       0.000784
      824.300000       0.000802
      824.400000       0.000821
      824.500000       0.000839
      824.600000       0.000857
      824.700000       0.000908
      824.800000       0.001059
      824.900000       0.001079
      825.000000       0.001097
      825.100000       0.001115
      825.200000       0.001134
      825.300000       0.001153
      825.400000       0.001172
      825.500000       0.001191
      825.600000       0.001209
      825.700000       0.001228
      825.800000       0.001246
      825.900000       0.001262
      826.000000       0.001279
      826.100000       0.001293
      826.200000       0.001307
      826.300000       0.001319
      826.400000       0.001329
      826.500000       0.001338
      826.600000       0.001345
      826.700000       0.001351
      826.800000       0.001356
      826.900000       0.001360
      827.000000       0.001364
      827.100000       0.001367
      827.200000       0.001370
      827.300000       0.001374
      827.400000       0.001378
      827.500000       0.001383
      827.600000       0.001389
      827.700000       0.001396
      827.800000       0.001405
      827.900000       0.001415
      828.000000       0.001426
      828.100000       0.001438
      828.200000       0.001451
      828.300000       0.001465
      828.400000       0.001479
      828.500000       0.001493
      828.600000       0.001508
      828.700000       0.001522
      828.800000       0.001535
      828.900000       0.001548
      829.000000       0.001561
      829.100000       0.001572
      829.200000       0.001583
      829.300000       0.001592
      829.400000       0.001602
      829.500000       0.001610
      829.600000       0.001619
      829.700000       0.001627
      829.800000       0.001635
      829.900000       0.001643
      830.000000       0.001652
      830.100000       0.001661
      830.200000       0.001670
      830.300000       0.001680
      830.400000       0.001691
      830.500000       0.001701
      830.600000       0.001713
      830.700000       0.001725
      830.800000       0.001737
      830.900000       0.001750
      831.000000       0.001763
      831.100000       0.001777
      831.200000       0.001791
      831.300000       0.001806
      831.400000       0.001821
      831.500000       0.001838
      831.600000       0.001857
      831.700000       0.001876
      831.800000       0.001898
      831.900000       0.001921
      832.000000       0.001946
      832.100000       0.001974
      832.200000       0.002005
      832.300000       0.002038
      832.400000       0.002073
      832.500000       0.002111
      832.600000       0.002151
      832.700000       0.002192
      832.800000       0.002235
      832.900000       0.002279
      833.000000       0.002324
      833.100000       0.002368
      833.200000       0.002413
      833.300000       0.002456
      833.400000       0.002498
      833.500000       0.002539
      833.600000       0.002578
      833.700000       0.002615
      833.800000       0.002649
      833.900000       0.002682
      834.000000       0.002713
      834.100000       0.002743
      834.200000       0.002771
      834.300000       0.002798
      834.400000       0.002825
      834.500000       0.002852
      834.600000       0.002879
      834.700000       0.002906
      834.800000       0.002935
      834.900000       0.002964
      835.000000       0.002995
      835.100000       0.003028
      835.200000       0.003063
      835.300000       0.003099
      835.400000       0.003136
      835.500000       0.003175
      835.600000       0.003216
      835.700000       0.003257
      835.800000       0.003300
      835.900000       0.003344
      836.000000       0.003388
      836.100000       0.003434
      836.200000       0.003481
      836.300000       0.003529
      836.400000       0.003578
      836.500000       0.003630
      836.600000       0.003683
      836.700000       0.003738
      836.800000       0.003796
      836.900000       0.003855
      837.000000       0.003919
      837.100000       0.003984
      837.200000       0.004052
      837.300000       0.004124
      837.400000       0.004197
      837.500000       0.004274
      837.600000       0.004353
      837.700000       0.004432
      837.800000       0.004513
      837.900000       0.004595
      838.000000       0.004677
      838.100000       0.004759
      838.200000       0.004839
      838.300000       0.004919
      838.400000       0.004998
      838.500000       0.005073
      838.600000       0.005148
      838.700000       0.005221
      838.800000       0.005291
      838.900000       0.005361
      839.000000       0.005429
      839.100000       0.005496
      839.200000       0.005563
      839.300000       0.005631
      839.400000       0.005699
      839.500000       0.005769
      839.600000       0.005841
      839.700000       0.005916
      839.800000       0.005993
      839.900000       0.006074
      840.000000       0.006159
      840.100000       0.006247
      840.200000       0.006340
      840.300000       0.006437
      840.400000       0.006538
      840.500000       0.006643
      840.600000       0.006750
      840.700000       0.006862
      840.800000       0.006978
      840.900000       0.007096
      841.000000       0.007218
      841.100000       0.007342
      841.200000       0.007470
      841.300000       0.007601
      841.400000       0.007734
      841.500000       0.007870
      841.600000       0.008008
      841.700000       0.008149
      841.800000       0.008293
      841.900000       0.008439
      842.000000       0.008588
      842.100000       0.008740
      842.200000       0.008894
      842.300000       0.009052
      842.400000       0.009211
      842.500000       0.009373
      842.600000       0.009537
      842.700000       0.009704
      842.800000       0.009873
      842.900000       0.010044
      843.000000       0.010216
      843.100000       0.010390
      843.200000       0.010565
      843.300000       0.010741
      843.400000       0.010919
      843.500000       0.011098
      843.600000       0.011279
      843.700000       0.011462
      843.800000       0.011647
      843.900000       0.011835
      844.000000       0.012025
      844.100000       0.012218
      844.200000       0.012414
      844.300000       0.012615
      844.400000       0.012819
      844.500000       0.013027
      844.600000       0.013240
      844.700000       0.013459
      844.800000       0.013684
      844.900000       0.013913
      845.000000       0.014148
      845.100000       0.014390
      845.200000       0.014638
      845.300000       0.014893
      845.400000       0.015154
      845.500000       0.015423
      845.600000       0.015698
      845.700000       0.015980
      845.800000       0.016269
      845.900000       0.016565
      846.000000       0.016867
      846.100000       0.017176
      846.200000       0.017493
      846.300000       0.017817
      846.400000       0.018147
      846.500000       0.018485
      846.600000       0.018831
      846.700000       0.019183
      846.800000       0.019542
      846.900000       0.019913
      847.000000       0.020300
      847.100000       0.020695
      847.200000       0.021098
      847.300000       0.021508
      847.400000       0.021925
      847.500000       0.022350
      847.600000       0.022782
      847.700000       0.023223
      847.800000       0.023670
      847.900000       0.024126
      848.000000       0.024590
      848.100000       0.025061
      848.200000       0.025541
      848.300000       0.026030
      848.400000       0.026528
      848.500000       0.027036
      848.600000       0.027556
      848.700000       0.028086
      848.800000       0.028630
      848.900000       0.029187
      849.000000       0.029757
      849.100000       0.030337
      849.200000       0.030928
      849.300000       0.031531
      849.400000       0.032149
      849.500000       0.032781
      849.600000       0.033427
      849.700000       0.034089
      849.800000       0.034763
      849.900000       0.035452
      850.000000       0.036154
      850.100000       0.036867
      850.200000       0.037593
      850.300000       0.038331
      850.400000       0.039085
      850.500000       0.039852
      850.600000       0.040653
      850.700000       0.041499
      850.800000       0.042362
      850.900000       0.043244
      851.000000       0.044150
      851.100000       0.045076
      851.200000       0.046022
      851.300000       0.046992
      851.400000       0.047982
      851.500000       0.048992
      851.600000       0.050021
      851.700000       0.051040
      851.800000       0.052058
      851.900000       0.053095
      852.000000       0.054151
      852.100000       0.055225
      852.200000       0.056318
      852.300000       0.057430
      852.400000       0.058562
      852.500000       0.059708
      852.600000       0.060928
      852.700000       0.062230
      852.800000       0.063566
      852.900000       0.064932
      853.000000       0.066324
      853.100000       0.067744
      853.200000       0.069196
      853.300000       0.070674
      853.400000       0.072176
      853.500000       0.073708
      853.600000       0.075274
      853.700000       0.076875
      853.800000       0.078511
      853.900000       0.080180
      854.000000       0.081827
      854.100000       0.083496
      854.200000       0.085205
      854.300000       0.086943
      854.400000       0.088712
      854.500000       0.090524
      854.600000       0.092389
      854.700000       0.094297
      854.800000       0.096239
      854.900000       0.098218
      855.000000       0.100250
      855.100000       0.102378
      855.200000       0.104566
      855.300000       0.106798
      855.400000       0.109077
      855.500000       0.111422
      855.600000       0.113835
      855.700000       0.116293
      855.800000       0.118801
      855.900000       0.121346
      856.000000       0.123926
      856.100000       0.126561
      856.200000       0.129248
      856.300000       0.131965
      856.400000       0.134722
      856.500000       0.137532
      856.600000       0.140394
      856.700000       0.143302
      856.800000       0.146258
      856.900000       0.149268
      857.000000       0.152351
      857.100000       0.155507
      857.200000       0.158714
      857.300000       0.162003
      857.400000       0.165381
      857.500000       0.168818
      857.600000       0.172348
      857.700000       0.175966
      857.800000       0.179649
      857.900000       0.183425
      858.000000       0.187273
      858.100000       0.191190
      858.200000       0.195178
      858.300000       0.199231
      858.400000       0.203369
      858.500000       0.207552
      858.600000       0.211806
      858.700000       0.216100
      858.800000       0.220455
      858.900000       0.224865
      859.000000       0.229323
      859.100000       0.233828
      859.200000       0.238361
      859.300000       0.242939
      859.400000       0.247543
      859.500000       0.252198
      859.600000       0.256903
      859.700000       0.261655
      859.800000       0.266432
      859.900000       0.271253
      860.000000       0.276135
      860.100000       0.281056
      860.200000       0.286047
      860.300000       0.291093
      860.400000       0.296212
      860.500000       0.301438
      860.600000       0.306696
      860.700000       0.312065
      860.800000       0.317497
      860.900000       0.323025
      861.000000       0.328656
      861.100000       0.334381
      861.200000       0.340181
      861.300000       0.346077
      861.400000       0.352052
      861.500000       0.358080
      861.600000       0.364184
      861.700000       0.370328
      861.800000       0.376523
      861.900000       0.382738
      862.000000       0.388956
      862.100000       0.395172
      862.200000       0.401355
      862.300000       0.407598
      862.400000       0.413781
      862.500000       0.419963
      862.600000       0.426099
      862.700000       0.432233
      862.800000       0.438374
      862.900000       0.444517
      863.000000       0.450690
      863.100000       0.456862
      863.200000       0.463111
      863.300000       0.469387
      863.400000       0.475731
      863.500000       0.482118
      863.600000       0.488592
      863.700000       0.495159
      863.800000       0.501765
      863.900000       0.508470
      864.000000       0.515205
      864.100000       0.522064
      864.200000       0.528912
      864.300000       0.535797
      864.400000       0.542617
      864.500000       0.549412
      864.600000       0.556097
      864.700000       0.562699
      864.800000       0.569204
      864.900000       0.575621
      865.000000       0.581907
      865.100000       0.588123
      865.200000       0.594226
      865.300000       0.600246
      865.400000       0.606180
      865.500000       0.612059
      865.600000       0.617943
      865.700000       0.623816
      865.800000       0.629705
      865.900000       0.635558
      866.000000       0.641489
      866.100000       0.647480
      866.200000       0.653547
      866.300000       0.659692
      866.400000       0.665911
      866.500000       0.672233
      866.600000       0.678599
      866.700000       0.685045
      866.800000       0.691550
      866.900000       0.698065
      867.000000       0.704544
      867.100000       0.710971
      867.200000       0.717311
      867.300000       0.723564
      867.400000       0.729660
      867.500000       0.735639
      867.600000       0.741452
      867.700000       0.747155
      867.800000       0.752650
      867.900000       0.757999
      868.000000       0.763129
      868.100000       0.768147
      868.200000       0.772969
      868.300000       0.777667
      868.400000       0.782224
      868.500000       0.786716
      868.600000       0.791118
      868.700000       0.795427
      868.800000       0.799729
      868.900000       0.803974
      869.000000       0.808241
      869.100000       0.812467
      869.200000       0.816726
      869.300000       0.820999
      869.400000       0.825338
      869.500000       0.829758
      869.600000       0.834168
      869.700000       0.838666
      869.800000       0.843129
      869.900000       0.847613
      870.000000       0.851925
      870.100000       0.856106
      870.200000       0.860104
      870.300000       0.863775
      870.400000       0.867300
      870.500000       0.870643
      870.600000       0.873726
      870.700000       0.876722
      870.800000       0.879636
      870.900000       0.882326
      871.000000       0.884943
      871.100000       0.887539
      871.200000       0.890091
      871.300000       0.892635
      871.400000       0.895142
      871.500000       0.897608
      871.600000       0.900390
      871.700000       0.903346
      871.800000       0.906205
      871.900000       0.909387
      872.000000       0.913171
      872.100000       0.916726
      872.200000       0.919591
      872.300000       0.921696
      872.400000       0.923692
      872.500000       0.925701
      872.600000       0.927601
      872.700000       0.929381
      872.800000       0.930978
      872.900000       0.932471
      873.000000       0.933782
      873.100000       0.934969
      873.200000       0.936022
      873.300000       0.936960
      873.400000       0.937823
      873.500000       0.938601
      873.600000       0.939335
      873.700000       0.940044
      873.800000       0.940776
      873.900000       0.941548
      874.000000       0.942421
      874.100000       0.943380
      874.200000       0.944483
      874.300000       0.945697
      874.400000       0.947053
      874.500000       0.948564
      874.600000       0.950165
      874.700000       0.951868
      874.800000       0.953601
      874.900000       0.955282
      875.000000       0.956866
      875.100000       0.958362
      875.200000       0.959725
      875.300000       0.961000
      875.400000       0.962160
      875.500000       0.963186
      875.600000       0.964101
      875.700000       0.964861
      875.800000       0.965534
      875.900000       0.966069
      876.000000       0.966527
      876.100000       0.966920
      876.200000       0.967278
      876.300000       0.967627
      876.400000       0.967998
      876.500000       0.968389
      876.600000       0.968782
      876.700000       0.969270
      876.800000       0.969823
      876.900000       0.970506
      877.000000       0.971254
      877.100000       0.972097
      877.200000       0.972996
      877.300000       0.973874
      877.400000       0.974751
      877.500000       0.975596
      877.600000       0.976410
      877.700000       0.977185
      877.800000       0.977904
      877.900000       0.978546
      878.000000       0.979123
      878.100000       0.979587
      878.200000       0.979948
      878.300000       0.980204
      878.400000       0.980368
      878.500000       0.980482
      878.600000       0.980550
      878.700000       0.980634
      878.800000       0.980774
      878.900000       0.980942
      879.000000       0.981144
      879.100000       0.981406
      879.200000       0.981725
      879.300000       0.982115
      879.400000       0.982590
      879.500000       0.983105
      879.600000       0.983669
      879.700000       0.984253
      879.800000       0.984842
      879.900000       0.985409
      880.000000       0.985939
      880.100000       0.986387
      880.200000       0.986766
      880.300000       0.987031
      880.400000       0.987191
      880.500000       0.987226
      880.600000       0.987150
      880.700000       0.986988
      880.800000       0.986735
      880.900000       0.986446
      881.000000       0.986151
      881.100000       0.985867
      881.200000       0.985618
      881.300000       0.985459
      881.400000       0.985402
      881.500000       0.985481
      881.600000       0.985734
      881.700000       0.986110
      881.800000       0.986694
      881.900000       0.987412
      882.000000       0.988282
      882.100000       0.989244
      882.200000       0.990285
      882.300000       0.991370
      882.400000       0.992455
      882.500000       0.993507
      882.600000       0.994490
      882.700000       0.995396
      882.800000       0.996172
      882.900000       0.996787
