21,   21, MVIRI VIS channel from srf_MET7_2000078_2000079_1801-Release_S10EE_10.dat
Number of data points:
793
Wavenumber (cm-1)   Filter response
     8442.380800       0.000000
     8449.514200       0.000000
     8456.659600       0.000004
     8463.817200       0.000053
     8470.986900       0.000156
     8478.168700       0.000311
     8485.362700       0.000518
     8492.569000       0.000775
     8499.787500       0.001080
     8507.018300       0.001432
     8514.261400       0.001829
     8521.516800       0.002271
     8528.784600       0.002756
     8536.064900       0.003282
     8543.357500       0.003849
     8550.662700       0.004456
     8557.980300       0.005102
     8565.310500       0.005785
     8572.653200       0.006504
     8580.008600       0.007259
     8587.376600       0.008049
     8594.757200       0.008872
     8602.150500       0.009728
     8609.556600       0.010617
     8616.975400       0.011537
     8624.407100       0.012487
     8631.851500       0.013468
     8639.308900       0.014477
     8646.779100       0.015515
     8654.262200       0.016582
     8661.758300       0.017675
     8669.267400       0.018796
     8676.789600       0.019943
     8684.324800       0.021116
     8691.873100       0.022314
     8699.434500       0.023537
     8707.009100       0.024784
     8714.596900       0.026056
     8722.198000       0.027351
     8729.812300       0.028670
     8737.439900       0.030012
     8745.080900       0.031377
     8752.735200       0.032764
     8760.403000       0.034173
     8768.084200       0.035604
     8775.778900       0.037057
     8783.487000       0.038531
     8791.208800       0.040026
     8798.944100       0.041543
     8806.693100       0.043081
     8814.455700       0.044639
     8822.232000       0.046218
     8830.022100       0.047818
     8837.825900       0.049438
     8845.643500       0.051078
     8853.475000       0.052739
     8861.320300       0.054419
     8869.179600       0.056120
     8877.052800       0.057841
     8884.940000       0.059582
     8892.841300       0.061343
     8900.756600       0.063124
     8908.686000       0.064925
     8916.629500       0.066746
     8924.587200       0.068587
     8932.559200       0.070447
     8940.545400       0.072329
     8948.545900       0.074230
     8956.560700       0.076151
     8964.589900       0.078092
     8972.633500       0.080053
     8980.691500       0.082035
     8988.764000       0.084038
     8996.851100       0.086060
     9004.952700       0.088103
     9013.068900       0.090166
     9021.199800       0.092251
     9029.345400       0.094355
     9037.505600       0.096481
     9045.680700       0.098628
     9053.870500       0.100795
     9062.075200       0.102983
     9070.294800       0.105193
     9078.529300       0.107424
     9086.778700       0.109676
     9095.043200       0.111950
     9103.322700       0.114245
     9111.617300       0.116561
     9119.927000       0.118900
     9128.251900       0.121260
     9136.592100       0.123642
     9144.947400       0.126046
     9153.318100       0.128472
     9161.704100       0.130921
     9170.105500       0.133391
     9178.522300       0.135884
     9186.954500       0.138400
     9195.402300       0.140938
     9203.865600       0.143498
     9212.344500       0.146081
     9220.839100       0.148687
     9229.349300       0.151316
     9237.875300       0.153968
     9246.417000       0.156642
     9254.974500       0.159340
     9263.547900       0.162061
     9272.137200       0.164805
     9280.742500       0.167572
     9289.363700       0.170362
     9298.000900       0.173176
     9306.654300       0.176013
     9315.323700       0.178873
     9324.009300       0.181757
     9332.711200       0.184665
     9341.429200       0.187595
     9350.163600       0.190549
     9358.914400       0.193527
     9367.681500       0.196528
     9376.465100       0.199553
     9385.265100       0.202600
     9394.081700       0.205672
     9402.914900       0.208767
     9411.764700       0.211885
     9420.631200       0.215027
     9429.514400       0.218192
     9438.414300       0.221381
     9447.331100       0.224593
     9456.264800       0.227828
     9465.215300       0.231086
     9474.182900       0.234368
     9483.167400       0.237672
     9492.169000       0.241000
     9501.187600       0.244350
     9510.223500       0.247724
     9519.276500       0.251119
     9528.346800       0.254538
     9537.434400       0.257980
     9546.539400       0.261443
     9555.661700       0.264929
     9564.801500       0.268437
     9573.958800       0.271968
     9583.133700       0.275520
     9592.326100       0.279094
     9601.536200       0.282689
     9610.764100       0.286306
     9620.009600       0.289945
     9629.273000       0.293605
     9638.554200       0.297285
     9647.853400       0.300987
     9657.170400       0.304709
     9666.505600       0.308451
     9675.858700       0.312214
     9685.230000       0.315997
     9694.619500       0.319800
     9704.027200       0.323622
     9713.453100       0.327464
     9722.897400       0.331325
     9732.360100       0.335205
     9741.841200       0.339104
     9751.340800       0.343021
     9760.859000       0.346956
     9770.395700       0.350910
     9779.951100       0.354880
     9789.525200       0.358869
     9799.118100       0.362875
     9808.729800       0.366897
     9818.360300       0.370936
     9828.009800       0.374992
     9837.678300       0.379063
     9847.365800       0.383151
     9857.072400       0.387253
     9866.798200       0.391371
     9876.543200       0.395503
     9886.307500       0.399651
     9896.091000       0.403812
     9905.894000       0.407987
     9915.716400       0.412175
     9925.558300       0.416377
     9935.419800       0.420592
     9945.300800       0.424819
     9955.201600       0.429058
     9965.122100       0.433309
     9975.062300       0.437571
     9985.022500       0.441844
     9995.002500       0.446128
    10005.002500       0.450423
    10015.022500       0.454727
    10025.062700       0.459040
    10035.122900       0.463363
    10045.203400       0.467695
    10055.304200       0.472035
    10065.425300       0.476383
    10075.566800       0.480738
    10085.728700       0.485101
    10095.911200       0.489470
    10106.114200       0.493846
    10116.337900       0.498228
    10126.582300       0.502615
    10136.847400       0.507007
    10147.133400       0.511405
    10157.440300       0.515806
    10167.768200       0.520211
    10178.117000       0.524619
    10188.487000       0.529031
    10198.878100       0.533445
    10209.290500       0.537861
    10219.724100       0.542279
    10230.179000       0.546698
    10240.655400       0.551118
    10251.153300       0.555539
    10261.672700       0.559959
    10272.213700       0.564378
    10282.776300       0.568797
    10293.360800       0.573214
    10303.967000       0.577630
    10314.595200       0.582043
    10325.245200       0.586453
    10335.917300       0.590860
    10346.611500       0.595263
    10357.327800       0.599662
    10368.066400       0.604057
    10378.827200       0.608446
    10389.610400       0.612830
    10400.416000       0.617208
    10411.244100       0.621580
    10422.094800       0.625944
    10432.968200       0.630302
    10443.864200       0.634652
    10454.783100       0.638993
    10465.724800       0.643325
    10476.689400       0.647649
    10487.677000       0.651963
    10498.687700       0.656267
    10509.721500       0.660560
    10520.778500       0.664842
    10531.858900       0.669113
    10542.962600       0.673372
    10554.089700       0.677619
    10565.240400       0.681853
    10576.414600       0.686074
    10587.612500       0.690281
    10598.834100       0.694474
    10610.079600       0.698652
    10621.348900       0.702816
    10632.642200       0.706964
    10643.959600       0.711096
    10655.301000       0.715212
    10666.666700       0.719311
    10678.056600       0.723393
    10689.470900       0.727457
    10700.909600       0.731504
    10712.372800       0.735532
    10723.860600       0.739541
    10735.373100       0.743531
    10746.910300       0.747501
    10758.472300       0.751451
    10770.059200       0.755381
    10781.671200       0.759289
    10793.308100       0.763177
    10804.970300       0.767043
    10816.657700       0.770886
    10828.370300       0.774707
    10840.108400       0.778506
    10851.871900       0.782281
    10863.661100       0.786032
    10875.475800       0.789759
    10887.316300       0.793462
    10899.182600       0.797140
    10911.074700       0.800794
    10922.992900       0.804421
    10934.937100       0.808023
    10946.907500       0.811598
    10958.904100       0.815147
    10970.927000       0.818669
    10982.976400       0.822164
    10995.052200       0.825631
    11007.154700       0.829070
    11019.283700       0.832481
    11031.439600       0.835864
    11043.622300       0.839218
    11055.832000       0.842542
    11068.068600       0.845837
    11080.332400       0.849102
    11092.623400       0.852337
    11104.941700       0.855542
    11117.287400       0.858716
    11129.660500       0.861859
    11142.061300       0.864971
    11154.489700       0.868051
    11166.945800       0.871099
    11179.429800       0.874116
    11191.941800       0.877100
    11204.481800       0.880052
    11217.049900       0.882971
    11229.646300       0.885856
    11242.270900       0.888709
    11254.924000       0.891528
    11267.605600       0.894314
    11280.315800       0.897065
    11293.054800       0.899782
    11305.822500       0.902465
    11318.619100       0.905114
    11331.444800       0.907728
    11344.299500       0.910307
    11357.183400       0.912851
    11370.096600       0.915359
    11383.039300       0.917832
    11396.011400       0.920270
    11409.013100       0.922672
    11422.044500       0.925038
    11435.105800       0.927368
    11448.196900       0.929661
    11461.318100       0.931919
    11474.469300       0.934140
    11487.650800       0.936324
    11500.862600       0.938472
    11514.104800       0.940583
    11527.377500       0.942658
    11540.680900       0.944695
    11554.015000       0.946695
    11567.380000       0.948658
    11580.775900       0.950584
    11594.202900       0.952473
    11607.661100       0.954325
    11621.150500       0.956139
    11634.671300       0.957916
    11648.223600       0.959655
    11661.807600       0.961357
    11675.423200       0.963021
    11689.070700       0.964648
    11702.750100       0.966237
    11716.461600       0.967789
    11730.205300       0.969304
    11743.981200       0.970780
    11757.789500       0.972220
    11771.630400       0.973621
    11785.503800       0.974986
    11799.410000       0.976313
    11813.349100       0.977602
    11827.321100       0.978855
    11841.326200       0.980069
    11855.364600       0.981247
    11869.436200       0.982388
    11883.541300       0.983491
    11897.680000       0.984558
    11911.852300       0.985587
    11926.058400       0.986580
    11940.298500       0.987536
    11954.572600       0.988455
    11968.880900       0.989338
    11983.223500       0.990185
    11997.600500       0.990995
    12012.012000       0.991769
    12026.458200       0.992507
    12040.939200       0.993209
    12055.455100       0.993876
    12070.006000       0.994507
    12084.592100       0.995103
    12099.213600       0.995663
    12113.870400       0.996188
    12128.562800       0.996679
    12143.290800       0.997135
    12158.054700       0.997556
    12172.854500       0.997943
    12187.690400       0.998296
    12202.562500       0.998615
    12217.471000       0.998900
    12232.415900       0.999152
    12247.397400       0.999371
    12262.415700       0.999557
    12277.470800       0.999710
    12292.563000       0.999831
    12307.692300       0.999919
    12322.858900       0.999975
    12338.062900       1.000000
    12353.304500       0.999993
    12368.583800       0.999955
    12383.900900       0.999886
    12399.256000       0.999787
    12414.649300       0.999657
    12430.080800       0.999497
    12445.550700       0.999307
    12461.059200       0.999088
    12476.606400       0.998840
    12492.192400       0.998563
    12507.817400       0.998257
    12523.481500       0.997923
    12539.185000       0.997562
    12554.927800       0.997172
    12570.710200       0.996756
    12586.532400       0.996313
    12602.394500       0.995843
    12618.296500       0.995347
    12634.238800       0.994825
    12650.221400       0.994278
    12666.244500       0.993706
    12682.308200       0.993109
    12698.412700       0.992487
    12714.558200       0.991842
    12730.744700       0.991173
    12746.972600       0.990481
    12763.241900       0.989766
    12779.552700       0.989028
    12795.905300       0.988268
    12812.299800       0.987487
    12828.736400       0.986684
    12845.215200       0.985861
    12861.736300       0.985017
    12878.300100       0.984153
    12894.906500       0.983269
    12911.555800       0.982366
    12928.248200       0.981444
    12944.983800       0.980504
    12961.762800       0.979546
    12978.585300       0.978570
    12995.451600       0.977577
    13012.361700       0.976567
    13029.316000       0.975541
    13046.314400       0.974499
    13063.357300       0.973442
    13080.444700       0.972370
    13097.576900       0.971283
    13114.754100       0.970182
    13131.976400       0.969067
    13149.243900       0.967939
    13166.556900       0.966799
    13183.915600       0.965646
    13201.320100       0.964481
    13218.770700       0.963304
    13236.267400       0.962117
    13253.810500       0.960919
    13271.400100       0.959710
    13289.036500       0.958493
    13306.719900       0.957266
    13324.450400       0.956030
    13342.228200       0.954786
    13360.053400       0.953534
    13377.926400       0.952274
    13395.847300       0.951008
    13413.816200       0.949735
    13431.833400       0.948456
    13449.899100       0.947171
    13468.013500       0.945882
    13486.176700       0.944587
    13504.388900       0.943288
    13522.650400       0.941986
    13540.961400       0.940680
    13559.322000       0.939371
    13577.732500       0.938060
    13596.193100       0.936747
    13614.703900       0.935432
    13633.265200       0.934116
    13651.877100       0.932799
    13670.540000       0.931483
    13689.253900       0.930166
    13708.019200       0.928850
    13726.836000       0.927535
    13745.704500       0.926221
    13764.624900       0.924909
    13783.597500       0.923600
    13802.622500       0.922293
    13821.700100       0.920990
    13840.830400       0.919690
    13860.013900       0.918395
    13879.250500       0.917103
    13898.540700       0.915817
    13917.884500       0.914536
    13937.282200       0.913260
    13956.734100       0.911991
    13976.240400       0.910728
    13995.801300       0.909472
    14015.417000       0.908223
    14035.087700       0.906982
    14054.813800       0.905749
    14074.595400       0.904524
    14094.432700       0.903308
    14114.326000       0.902101
    14134.275600       0.900904
    14154.281700       0.899717
    14174.344400       0.898540
    14194.464200       0.897373
    14214.641100       0.896218
    14234.875400       0.895073
    14255.167500       0.893941
    14275.517500       0.892820
    14295.925700       0.891712
    14316.392300       0.890616
    14336.917600       0.889534
    14357.501800       0.888464
    14378.145200       0.887408
    14398.848100       0.886366
    14419.610700       0.885339
    14440.433200       0.884325
    14461.316000       0.883327
    14482.259200       0.882343
    14503.263200       0.881375
    14524.328200       0.880423
    14545.454500       0.879486
    14566.642400       0.878565
    14587.892000       0.877661
    14609.203800       0.876773
    14630.577900       0.875902
    14652.014700       0.875049
    14673.514300       0.874212
    14695.077100       0.873393
    14716.703500       0.872592
    14738.393500       0.871808
    14760.147600       0.871043
    14781.966000       0.870296
    14803.849000       0.869567
    14825.796900       0.868857
    14847.809900       0.868166
    14869.888500       0.867494
    14892.032800       0.866841
    14914.243100       0.866207
    14936.519800       0.865592
    14958.863100       0.864997
    14981.273400       0.864422
    15003.750900       0.863866
    15026.296000       0.863330
    15048.909000       0.862814
    15071.590100       0.862318
    15094.339600       0.861842
    15117.158000       0.861387
    15140.045400       0.860951
    15163.002300       0.860536
    15186.028900       0.860141
    15209.125500       0.859766
    15232.292500       0.859411
    15255.530100       0.859077
    15278.838800       0.858763
    15302.218800       0.858470
    15325.670500       0.858197
    15349.194200       0.857944
    15372.790200       0.857712
    15396.458800       0.857499
    15420.200500       0.857307
    15444.015400       0.857135
    15467.904100       0.856983
    15491.866800       0.856851
    15515.903800       0.856739
    15540.015500       0.856647
    15564.202300       0.856574
    15588.464500       0.856521
    15612.802500       0.856487
    15637.216600       0.856473
    15661.707100       0.856477
    15686.274500       0.856501
    15710.919100       0.856544
    15735.641200       0.856605
    15760.441300       0.856684
    15785.319700       0.856782
    15810.276700       0.856898
    15835.312700       0.857032
    15860.428200       0.857183
    15885.623500       0.857351
    15910.899000       0.857537
    15936.255000       0.857740
    15961.691900       0.857959
    15987.210200       0.858194
    16012.810200       0.858446
    16038.492400       0.858713
    16064.257000       0.858996
    16090.104600       0.859293
    16116.035500       0.859606
    16142.050000       0.859932
    16168.148700       0.860273
    16194.332000       0.860628
    16220.600200       0.860996
    16246.953700       0.861377
    16273.393000       0.861770
    16299.918500       0.862176
    16326.530600       0.862593
    16353.229800       0.863022
    16380.016400       0.863462
    16406.890900       0.863912
    16433.853700       0.864372
    16460.905300       0.864842
    16488.046200       0.865320
    16515.276600       0.865808
    16542.597200       0.866303
    16570.008300       0.866806
    16597.510400       0.867317
    16625.103900       0.867834
    16652.789300       0.868356
    16680.567100       0.868885
    16708.437800       0.869418
    16736.401700       0.869956
    16764.459300       0.870498
    16792.611300       0.871042
    16820.857900       0.871590
    16849.199700       0.872140
    16877.637100       0.872691
    16906.170800       0.873243
    16934.801000       0.873795
    16963.528400       0.874347
    16992.353400       0.874898
    17021.276600       0.875447
    17050.298400       0.875994
    17079.419300       0.876538
    17108.639900       0.877078
    17137.960600       0.877614
    17167.382000       0.878145
    17196.904600       0.878670
    17226.528900       0.879188
    17256.255400       0.879700
    17286.084700       0.880203
    17316.017300       0.880698
    17346.053800       0.881184
    17376.194600       0.881659
    17406.440400       0.882124
    17436.791600       0.882577
    17467.248900       0.883018
    17497.812800       0.883445
    17528.483800       0.883859
    17559.262500       0.884258
    17590.149500       0.884641
    17621.145400       0.885008
    17652.250700       0.885358
    17683.466000       0.885690
