07, goes_15_sounder_07.flt GOESP_sdr_operational_srf_rev_F
Number of data points:
889
Wavenumber (cm-1)   Filter response
      783.400000       0.000000
      783.500000       0.000000
      783.600000       0.000000
      783.700000       0.000000
      783.800000       0.000000
      783.900000       0.000000
      784.000000       0.000000
      784.100000       0.000000
      784.200000       0.000000
      784.300000       0.000000
      784.400000       0.001208
      784.500000       0.001237
      784.600000       0.001267
      784.700000       0.001305
      784.800000       0.001351
      784.900000       0.001398
      785.000000       0.001442
      785.100000       0.001486
      785.200000       0.001531
      785.300000       0.001575
      785.400000       0.001620
      785.500000       0.001666
      785.600000       0.001712
      785.700000       0.001751
      785.800000       0.001784
      785.900000       0.001818
      786.000000       0.001854
      786.100000       0.001891
      786.200000       0.001927
      786.300000       0.001961
      786.400000       0.001996
      786.500000       0.002035
      786.600000       0.002072
      786.700000       0.002090
      786.800000       0.002091
      786.900000       0.002092
      787.000000       0.002095
      787.100000       0.002099
      787.200000       0.002102
      787.300000       0.002104
      787.400000       0.002106
      787.500000       0.002108
      787.600000       0.002110
      787.700000       0.002116
      787.800000       0.002124
      787.900000       0.002132
      788.000000       0.002141
      788.100000       0.002150
      788.200000       0.002159
      788.300000       0.002169
      788.400000       0.002179
      788.500000       0.002187
      788.600000       0.002196
      788.700000       0.002214
      788.800000       0.002237
      788.900000       0.002262
      789.000000       0.002284
      789.100000       0.002305
      789.200000       0.002327
      789.300000       0.002350
      789.400000       0.002371
      789.500000       0.002386
      789.600000       0.002406
      789.700000       0.002450
      789.800000       0.002516
      789.900000       0.002582
      790.000000       0.002643
      790.100000       0.002703
      790.200000       0.002765
      790.300000       0.002827
      790.400000       0.002888
      790.500000       0.002945
      790.600000       0.003006
      790.700000       0.003083
      790.800000       0.003175
      790.900000       0.003267
      791.000000       0.003357
      791.100000       0.003447
      791.200000       0.003538
      791.300000       0.003630
      791.400000       0.003722
      791.500000       0.003817
      791.600000       0.003909
      791.700000       0.003991
      791.800000       0.004064
      791.900000       0.004136
      792.000000       0.004209
      792.100000       0.004281
      792.200000       0.004351
      792.300000       0.004423
      792.400000       0.004493
      792.500000       0.004555
      792.600000       0.004621
      792.700000       0.004720
      792.800000       0.004848
      792.900000       0.004977
      793.000000       0.005099
      793.100000       0.005220
      793.200000       0.005343
      793.300000       0.005470
      793.400000       0.005595
      793.500000       0.005711
      793.600000       0.005833
      793.700000       0.005992
      793.800000       0.006183
      793.900000       0.006374
      794.000000       0.006557
      794.100000       0.006737
      794.200000       0.006920
      794.300000       0.007107
      794.400000       0.007291
      794.500000       0.007458
      794.600000       0.007636
      794.700000       0.007884
      794.800000       0.008191
      794.900000       0.008501
      795.000000       0.008796
      795.100000       0.009092
      795.200000       0.009393
      795.300000       0.009693
      795.400000       0.009993
      795.500000       0.010310
      795.600000       0.010810
      795.700000       0.011323
      795.800000       0.011733
      795.900000       0.012162
      796.000000       0.012577
      796.100000       0.012999
      796.200000       0.013365
      796.300000       0.013676
      796.400000       0.013985
      796.500000       0.014278
      796.600000       0.014558
      796.700000       0.014826
      796.800000       0.015081
      796.900000       0.015324
      797.000000       0.015556
      797.100000       0.015776
      797.200000       0.015988
      797.300000       0.016192
      797.400000       0.016390
      797.500000       0.016586
      797.600000       0.016781
      797.700000       0.016980
      797.800000       0.017186
      797.900000       0.017404
      798.000000       0.017638
      798.100000       0.017893
      798.200000       0.018175
      798.300000       0.018490
      798.400000       0.018846
      798.500000       0.019249
      798.600000       0.019706
      798.700000       0.020224
      798.800000       0.020811
      798.900000       0.021475
      799.000000       0.022223
      799.100000       0.023061
      799.200000       0.023997
      799.300000       0.025036
      799.400000       0.026183
      799.500000       0.027442
      799.600000       0.028817
      799.700000       0.030308
      799.800000       0.031919
      799.900000       0.033648
      800.000000       0.035492
      800.100000       0.037449
      800.200000       0.039516
      800.300000       0.041691
      800.400000       0.043968
      800.500000       0.046340
      800.600000       0.048806
      800.700000       0.051361
      800.800000       0.053999
      800.900000       0.056717
      801.000000       0.059513
      801.100000       0.062387
      801.200000       0.065341
      801.300000       0.068376
      801.400000       0.071492
      801.500000       0.074695
      801.600000       0.077994
      801.700000       0.081401
      801.800000       0.084926
      801.900000       0.088581
      802.000000       0.092384
      802.100000       0.096356
      802.200000       0.100515
      802.300000       0.104880
      802.400000       0.109477
      802.500000       0.114335
      802.600000       0.119473
      802.700000       0.124917
      802.800000       0.130692
      802.900000       0.136816
      803.000000       0.143316
      803.100000       0.150220
      803.200000       0.157540
      803.300000       0.165290
      803.400000       0.173486
      803.500000       0.182148
      803.600000       0.191279
      803.700000       0.200877
      803.800000       0.210955
      803.900000       0.221525
      804.000000       0.232573
      804.100000       0.244104
      804.200000       0.256115
      804.300000       0.268596
      804.400000       0.281550
      804.500000       0.294982
      804.600000       0.308874
      804.700000       0.323210
      804.800000       0.337983
      804.900000       0.353195
      805.000000       0.368816
      805.100000       0.384812
      805.200000       0.401195
      805.300000       0.417927
      805.400000       0.434978
      805.500000       0.452354
      805.600000       0.470014
      805.700000       0.487927
      805.800000       0.506072
      805.900000       0.524434
      806.000000       0.542966
      806.100000       0.561624
      806.200000       0.580352
      806.300000       0.599092
      806.400000       0.617749
      806.500000       0.636245
      806.600000       0.654499
      806.700000       0.672417
      806.800000       0.689925
      806.900000       0.706952
      807.000000       0.723394
      807.100000       0.739160
      807.200000       0.754211
      807.300000       0.768521
      807.400000       0.782054
      807.500000       0.794786
      807.600000       0.806715
      807.700000       0.817844
      807.800000       0.828170
      807.900000       0.837680
      808.000000       0.846386
      808.100000       0.854308
      808.200000       0.861464
      808.300000       0.867887
      808.400000       0.873600
      808.500000       0.878636
      808.600000       0.883032
      808.700000       0.886825
      808.800000       0.890048
      808.900000       0.892742
      809.000000       0.894960
      809.100000       0.896749
      809.200000       0.898142
      809.300000       0.899157
      809.400000       0.899821
      809.500000       0.900150
      809.600000       0.900162
      809.700000       0.899876
      809.800000       0.899311
      809.900000       0.898491
      810.000000       0.897429
      810.100000       0.896147
      810.200000       0.894672
      810.300000       0.893041
      810.400000       0.891274
      810.500000       0.889401
      810.600000       0.887438
      810.700000       0.885403
      810.800000       0.883308
      810.900000       0.881165
      811.000000       0.878984
      811.100000       0.876776
      811.200000       0.874555
      811.300000       0.872330
      811.400000       0.870110
      811.500000       0.867904
      811.600000       0.865722
      811.700000       0.863567
      811.800000       0.861445
      811.900000       0.859362
      812.000000       0.857316
      812.100000       0.855316
      812.200000       0.853389
      812.300000       0.851564
      812.400000       0.849866
      812.500000       0.848325
      812.600000       0.846970
      812.700000       0.845825
      812.800000       0.844915
      812.900000       0.844267
      813.000000       0.843902
      813.100000       0.843834
      813.200000       0.844042
      813.300000       0.844498
      813.400000       0.845177
      813.500000       0.846053
      813.600000       0.847095
      813.700000       0.848278
      813.800000       0.849570
      813.900000       0.850938
      814.000000       0.852349
      814.100000       0.853775
      814.200000       0.855213
      814.300000       0.856659
      814.400000       0.858112
      814.500000       0.859572
      814.600000       0.861038
      814.700000       0.862513
      814.800000       0.864001
      814.900000       0.865503
      815.000000       0.867024
      815.100000       0.868570
      815.200000       0.870138
      815.300000       0.871722
      815.400000       0.873320
      815.500000       0.874927
      815.600000       0.876541
      815.700000       0.878158
      815.800000       0.879778
      815.900000       0.881398
      816.000000       0.883019
      816.100000       0.884639
      816.200000       0.886265
      816.300000       0.887906
      816.400000       0.889568
      816.500000       0.891258
      816.600000       0.892989
      816.700000       0.894773
      816.800000       0.896619
      816.900000       0.898541
      817.000000       0.900546
      817.100000       0.902636
      817.200000       0.904798
      817.300000       0.907015
      817.400000       0.909275
      817.500000       0.911568
      817.600000       0.913884
      817.700000       0.916211
      817.800000       0.918532
      817.900000       0.920833
      818.000000       0.923098
      818.100000       0.925313
      818.200000       0.927476
      818.300000       0.929589
      818.400000       0.931655
      818.500000       0.933670
      818.600000       0.935637
      818.700000       0.937551
      818.800000       0.939411
      818.900000       0.941214
      819.000000       0.942961
      819.100000       0.944643
      819.200000       0.946250
      819.300000       0.947772
      819.400000       0.949197
      819.500000       0.950513
      819.600000       0.951710
      819.700000       0.952781
      819.800000       0.953716
      819.900000       0.954509
      820.000000       0.955158
      820.100000       0.955659
      820.200000       0.956031
      820.300000       0.956295
      820.400000       0.956470
      820.500000       0.956579
      820.600000       0.956652
      820.700000       0.956722
      820.800000       0.956817
      820.900000       0.956968
      821.000000       0.957204
      821.100000       0.957546
      821.200000       0.957982
      821.300000       0.958493
      821.400000       0.959062
      821.500000       0.959669
      821.600000       0.960294
      821.700000       0.960915
      821.800000       0.961513
      821.900000       0.962072
      822.000000       0.962569
      822.100000       0.962988
      822.200000       0.963334
      822.300000       0.963609
      822.400000       0.963823
      822.500000       0.963980
      822.600000       0.964086
      822.700000       0.964144
      822.800000       0.964162
      822.900000       0.964146
      823.000000       0.964105
      823.100000       0.964052
      823.200000       0.963997
      823.300000       0.963951
      823.400000       0.963920
      823.500000       0.963904
      823.600000       0.963909
      823.700000       0.963938
      823.800000       0.964005
      823.900000       0.964124
      824.000000       0.964308
      824.100000       0.964565
      824.200000       0.964881
      824.300000       0.965230
      824.400000       0.965594
      824.500000       0.965950
      824.600000       0.966283
      824.700000       0.966584
      824.800000       0.966836
      824.900000       0.967027
      825.000000       0.967134
      825.100000       0.967145
      825.200000       0.967074
      825.300000       0.966951
      825.400000       0.966810
      825.500000       0.966685
      825.600000       0.966612
      825.700000       0.966631
      825.800000       0.966764
      825.900000       0.967039
      826.000000       0.967482
      826.100000       0.968111
      826.200000       0.968911
      826.300000       0.969853
      826.400000       0.970916
      826.500000       0.972068
      826.600000       0.973280
      826.700000       0.974520
      826.800000       0.975755
      826.900000       0.976951
      827.000000       0.978078
      827.100000       0.979113
      827.200000       0.980047
      827.300000       0.980870
      827.400000       0.981575
      827.500000       0.982150
      827.600000       0.982584
      827.700000       0.982873
      827.800000       0.983014
      827.900000       0.983013
      828.000000       0.982875
      828.100000       0.982609
      828.200000       0.982223
      828.300000       0.981732
      828.400000       0.981148
      828.500000       0.980488
      828.600000       0.979771
      828.700000       0.979014
      828.800000       0.978237
      828.900000       0.977459
      829.000000       0.976694
      829.100000       0.975957
      829.200000       0.975265
      829.300000       0.974639
      829.400000       0.974096
      829.500000       0.973654
      829.600000       0.973323
      829.700000       0.973113
      829.800000       0.973034
      829.900000       0.973086
      830.000000       0.973272
      830.100000       0.973588
      830.200000       0.974018
      830.300000       0.974541
      830.400000       0.975137
      830.500000       0.975783
      830.600000       0.976462
      830.700000       0.977154
      830.800000       0.977839
      830.900000       0.978502
      831.000000       0.979130
      831.100000       0.979713
      831.200000       0.980258
      831.300000       0.980784
      831.400000       0.981304
      831.500000       0.981835
      831.600000       0.982398
      831.700000       0.983011
      831.800000       0.983703
      831.900000       0.984493
      832.000000       0.985413
      832.100000       0.986476
      832.200000       0.987664
      832.300000       0.988943
      832.400000       0.990283
      832.500000       0.991652
      832.600000       0.993014
      832.700000       0.994340
      832.800000       0.995591
      832.900000       0.996732
      833.000000       0.997720
      833.100000       0.998521
      833.200000       0.999137
      833.300000       0.999576
      833.400000       0.999855
      833.500000       0.999989
      833.600000       1.000000
      833.700000       0.999904
      833.800000       0.999718
      833.900000       0.999458
      834.000000       0.999144
      834.100000       0.998796
      834.200000       0.998419
      834.300000       0.998020
      834.400000       0.997604
      834.500000       0.997185
      834.600000       0.996774
      834.700000       0.996384
      834.800000       0.996033
      834.900000       0.995735
      835.000000       0.995495
      835.100000       0.995316
      835.200000       0.995190
      835.300000       0.995109
      835.400000       0.995068
      835.500000       0.995063
      835.600000       0.995084
      835.700000       0.995124
      835.800000       0.995162
      835.900000       0.995175
      836.000000       0.995139
      836.100000       0.995035
      836.200000       0.994853
      836.300000       0.994590
      836.400000       0.994240
      836.500000       0.993796
      836.600000       0.993249
      836.700000       0.992585
      836.800000       0.991793
      836.900000       0.990870
      837.000000       0.989811
      837.100000       0.988630
      837.200000       0.987352
      837.300000       0.986014
      837.400000       0.984645
      837.500000       0.983276
      837.600000       0.981935
      837.700000       0.980654
      837.800000       0.979469
      837.900000       0.978412
      838.000000       0.977520
      838.100000       0.976820
      838.200000       0.976298
      838.300000       0.975941
      838.400000       0.975725
      838.500000       0.975628
      838.600000       0.975628
      838.700000       0.975697
      838.800000       0.975805
      838.900000       0.975925
      839.000000       0.976029
      839.100000       0.976094
      839.200000       0.976103
      839.300000       0.976038
      839.400000       0.975889
      839.500000       0.975642
      839.600000       0.975285
      839.700000       0.974811
      839.800000       0.974208
      839.900000       0.973460
      840.000000       0.972561
      840.100000       0.971510
      840.200000       0.970334
      840.300000       0.969068
      840.400000       0.967755
      840.500000       0.966426
      840.600000       0.965122
      840.700000       0.963874
      840.800000       0.962720
      840.900000       0.961691
      841.000000       0.960822
      841.100000       0.960136
      841.200000       0.959614
      841.300000       0.959228
      841.400000       0.958952
      841.500000       0.958753
      841.600000       0.958600
      841.700000       0.958459
      841.800000       0.958286
      841.900000       0.958035
      842.000000       0.957661
      842.100000       0.957124
      842.200000       0.956443
      842.300000       0.955650
      842.400000       0.954772
      842.500000       0.953841
      842.600000       0.952885
      842.700000       0.951934
      842.800000       0.951019
      842.900000       0.950173
      843.000000       0.949430
      843.100000       0.948814
      843.200000       0.948302
      843.300000       0.947863
      843.400000       0.947467
      843.500000       0.947092
      843.600000       0.946711
      843.700000       0.946303
      843.800000       0.945846
      843.900000       0.945318
      844.000000       0.944695
      844.100000       0.943967
      844.200000       0.943151
      844.300000       0.942276
      844.400000       0.941367
      844.500000       0.940450
      844.600000       0.939545
      844.700000       0.938676
      844.800000       0.937861
      844.900000       0.937119
      845.000000       0.936472
      845.100000       0.935931
      845.200000       0.935485
      845.300000       0.935113
      845.400000       0.934798
