50,   50, MVIRI VIS channel from srf_MET2_1988123_1988124_1801-Release_S10EL_10.dat
Number of data points:
730
Wavenumber (cm-1)   Filter response
     8916.629500       0.000000
     8924.587200       0.000000
     8932.559200       0.000002
     8940.545400       0.000012
     8948.545900       0.000032
     8956.560700       0.000069
     8964.589900       0.000127
     8972.633500       0.000209
     8980.691500       0.000320
     8988.764000       0.000463
     8996.851100       0.000643
     9004.952700       0.000863
     9013.068900       0.001125
     9021.199800       0.001434
     9029.345400       0.001792
     9037.505600       0.002203
     9045.680700       0.002669
     9053.870500       0.003192
     9062.075200       0.003776
     9070.294800       0.004422
     9078.529300       0.005133
     9086.778700       0.005911
     9095.043200       0.006758
     9103.322700       0.007675
     9111.617300       0.008665
     9119.927000       0.009730
     9128.251900       0.010870
     9136.592100       0.012087
     9144.947400       0.013382
     9153.318100       0.014758
     9161.704100       0.016213
     9170.105500       0.017751
     9178.522300       0.019371
     9186.954500       0.021075
     9195.402300       0.022863
     9203.865600       0.024736
     9212.344500       0.026694
     9220.839100       0.028738
     9229.349300       0.030868
     9237.875300       0.033085
     9246.417000       0.035388
     9254.974500       0.037778
     9263.547900       0.040256
     9272.137200       0.042820
     9280.742500       0.045472
     9289.363700       0.048210
     9298.000900       0.051035
     9306.654300       0.053947
     9315.323700       0.056945
     9324.009300       0.060028
     9332.711200       0.063197
     9341.429200       0.066451
     9350.163600       0.069790
     9358.914400       0.073211
     9367.681500       0.076717
     9376.465100       0.080305
     9385.265100       0.083975
     9394.081700       0.087726
     9402.914900       0.091557
     9411.764700       0.095468
     9420.631200       0.099457
     9429.514400       0.103524
     9438.414300       0.107668
     9447.331100       0.111887
     9456.264800       0.116182
     9465.215300       0.120550
     9474.182900       0.124991
     9483.167400       0.129504
     9492.169000       0.134086
     9501.187600       0.138738
     9510.223500       0.143459
     9519.276500       0.148246
     9528.346800       0.153099
     9537.434400       0.158016
     9546.539400       0.162996
     9555.661700       0.168039
     9564.801500       0.173141
     9573.958800       0.178304
     9583.133700       0.183524
     9592.326100       0.188801
     9601.536200       0.194133
     9610.764100       0.199519
     9620.009600       0.204958
     9629.273000       0.210448
     9638.554200       0.215987
     9647.853400       0.221575
     9657.170400       0.227209
     9666.505600       0.232890
     9675.858700       0.238614
     9685.230000       0.244381
     9694.619500       0.250189
     9704.027200       0.256037
     9713.453100       0.261924
     9722.897400       0.267847
     9732.360100       0.273805
     9741.841200       0.279799
     9751.340800       0.285824
     9760.859000       0.291880
     9770.395700       0.297967
     9779.951100       0.304081
     9789.525200       0.310223
     9799.118100       0.316390
     9808.729800       0.322581
     9818.360300       0.328794
     9828.009800       0.335029
     9837.678300       0.341283
     9847.365800       0.347557
     9857.072400       0.353846
     9866.798200       0.360152
     9876.543200       0.366471
     9886.307500       0.372804
     9896.091000       0.379149
     9905.894000       0.385502
     9915.716400       0.391866
     9925.558300       0.398236
     9935.419800       0.404613
     9945.300800       0.410995
     9955.201600       0.417380
     9965.122100       0.423768
     9975.062300       0.430156
     9985.022500       0.436545
     9995.002500       0.442932
    10005.002500       0.449316
    10015.022500       0.455696
    10025.062700       0.462071
    10035.122900       0.468440
    10045.203400       0.474801
    10055.304200       0.481154
    10065.425300       0.487497
    10075.566800       0.493828
    10085.728700       0.500148
    10095.911200       0.506455
    10106.114200       0.512747
    10116.337900       0.519024
    10126.582300       0.525284
    10136.847400       0.531527
    10147.133400       0.537752
    10157.440300       0.543956
    10167.768200       0.550141
    10178.117000       0.556304
    10188.487000       0.562444
    10198.878100       0.568561
    10209.290500       0.574654
    10219.724100       0.580721
    10230.179000       0.586763
    10240.655400       0.592777
    10251.153300       0.598763
    10261.672700       0.604721
    10272.213700       0.610649
    10282.776300       0.616546
    10293.360800       0.622413
    10303.967000       0.628247
    10314.595200       0.634049
    10325.245200       0.639817
    10335.917300       0.645551
    10346.611500       0.651250
    10357.327800       0.656913
    10368.066400       0.662540
    10378.827200       0.668130
    10389.610400       0.673683
    10400.416000       0.679197
    10411.244100       0.684672
    10422.094800       0.690107
    10432.968200       0.695503
    10443.864200       0.700858
    10454.783100       0.706171
    10465.724800       0.711443
    10476.689400       0.716673
    10487.677000       0.721860
    10498.687700       0.727004
    10509.721500       0.732104
    10520.778500       0.737160
    10531.858900       0.742171
    10542.962600       0.747137
    10554.089700       0.752058
    10565.240400       0.756933
    10576.414600       0.761761
    10587.612500       0.766543
    10598.834100       0.771279
    10610.079600       0.775967
    10621.348900       0.780607
    10632.642200       0.785200
    10643.959600       0.789744
    10655.301000       0.794240
    10666.666700       0.798687
    10678.056600       0.803085
    10689.470900       0.807434
    10700.909600       0.811734
    10712.372800       0.815984
    10723.860600       0.820184
    10735.373100       0.824335
    10746.910300       0.828435
    10758.472300       0.832485
    10770.059200       0.836484
    10781.671200       0.840433
    10793.308100       0.844331
    10804.970300       0.848179
    10816.657700       0.851975
    10828.370300       0.855720
    10840.108400       0.859415
    10851.871900       0.863058
    10863.661100       0.866651
    10875.475800       0.870192
    10887.316300       0.873682
    10899.182600       0.877120
    10911.074700       0.880508
    10922.992900       0.883845
    10934.937100       0.887130
    10946.907500       0.890364
    10958.904100       0.893547
    10970.927000       0.896679
    10982.976400       0.899760
    10995.052200       0.902790
    11007.154700       0.905769
    11019.283700       0.908697
    11031.439600       0.911575
    11043.622300       0.914403
    11055.832000       0.917180
    11068.068600       0.919906
    11080.332400       0.922583
    11092.623400       0.925209
    11104.941700       0.927785
    11117.287400       0.930312
    11129.660500       0.932789
    11142.061300       0.935217
    11154.489700       0.937596
    11166.945800       0.939925
    11179.429800       0.942206
    11191.941800       0.944438
    11204.481800       0.946621
    11217.049900       0.948756
    11229.646300       0.950843
    11242.270900       0.952883
    11254.924000       0.954875
    11267.605600       0.956819
    11280.315800       0.958717
    11293.054800       0.960567
    11305.822500       0.962371
    11318.619100       0.964128
    11331.444800       0.965840
    11344.299500       0.967505
    11357.183400       0.969125
    11370.096600       0.970700
    11383.039300       0.972229
    11396.011400       0.973714
    11409.013100       0.975154
    11422.044500       0.976551
    11435.105800       0.977903
    11448.196900       0.979212
    11461.318100       0.980477
    11474.469300       0.981699
    11487.650800       0.982879
    11500.862600       0.984016
    11514.104800       0.985111
    11527.377500       0.986164
    11540.680900       0.987176
    11554.015000       0.988147
    11567.380000       0.989077
    11580.775900       0.989966
    11594.202900       0.990815
    11607.661100       0.991625
    11621.150500       0.992394
    11634.671300       0.993125
    11648.223600       0.993816
    11661.807600       0.994469
    11675.423200       0.995084
    11689.070700       0.995661
    11702.750100       0.996200
    11716.461600       0.996702
    11730.205300       0.997167
    11743.981200       0.997595
    11757.789500       0.997987
    11771.630400       0.998343
    11785.503800       0.998664
    11799.410000       0.998949
    11813.349100       0.999199
    11827.321100       0.999415
    11841.326200       0.999596
    11855.364600       0.999744
    11869.436200       0.999857
    11883.541300       0.999938
    11897.680000       0.999985
    11911.852300       1.000000
    11926.058400       0.999982
    11940.298500       0.999933
    11954.572600       0.999852
    11968.880900       0.999739
    11983.223500       0.999596
    11997.600500       0.999421
    12012.012000       0.999217
    12026.458200       0.998982
    12040.939200       0.998717
    12055.455100       0.998423
    12070.006000       0.998100
    12084.592100       0.997748
    12099.213600       0.997368
    12113.870400       0.996959
    12128.562800       0.996522
    12143.290800       0.996058
    12158.054700       0.995567
    12172.854500       0.995048
    12187.690400       0.994503
    12202.562500       0.993931
    12217.471000       0.993333
    12232.415900       0.992710
    12247.397400       0.992060
    12262.415700       0.991386
    12277.470800       0.990686
    12292.563000       0.989962
    12307.692300       0.989213
    12322.858900       0.988441
    12338.062900       0.987644
    12353.304500       0.986824
    12368.583800       0.985980
    12383.900900       0.985113
    12399.256000       0.984223
    12414.649300       0.983311
    12430.080800       0.982377
    12445.550700       0.981420
    12461.059200       0.980442
    12476.606400       0.979442
    12492.192400       0.978420
    12507.817400       0.977378
    12523.481500       0.976314
    12539.185000       0.975230
    12554.927800       0.974126
    12570.710200       0.973001
    12586.532400       0.971857
    12602.394500       0.970693
    12618.296500       0.969509
    12634.238800       0.968306
    12650.221400       0.967084
    12666.244500       0.965843
    12682.308200       0.964583
    12698.412700       0.963305
    12714.558200       0.962009
    12730.744700       0.960694
    12746.972600       0.959362
    12763.241900       0.958012
    12779.552700       0.956645
    12795.905300       0.955260
    12812.299800       0.953858
    12828.736400       0.952440
    12845.215200       0.951004
    12861.736300       0.949552
    12878.300100       0.948083
    12894.906500       0.946599
    12911.555800       0.945098
    12928.248200       0.943581
    12944.983800       0.942049
    12961.762800       0.940501
    12978.585300       0.938937
    12995.451600       0.937358
    13012.361700       0.935764
    13029.316000       0.934155
    13046.314400       0.932532
    13063.357300       0.930893
    13080.444700       0.929240
    13097.576900       0.927573
    13114.754100       0.925891
    13131.976400       0.924195
    13149.243900       0.922485
    13166.556900       0.920761
    13183.915600       0.919024
    13201.320100       0.917272
    13218.770700       0.915507
    13236.267400       0.913729
    13253.810500       0.911937
    13271.400100       0.910133
    13289.036500       0.908315
    13306.719900       0.906484
    13324.450400       0.904640
    13342.228200       0.902784
    13360.053400       0.900915
    13377.926400       0.899033
    13395.847300       0.897139
    13413.816200       0.895232
    13431.833400       0.893314
    13449.899100       0.891383
    13468.013500       0.889440
    13486.176700       0.887485
    13504.388900       0.885518
    13522.650400       0.883539
    13540.961400       0.881548
    13559.322000       0.879546
    13577.732500       0.877533
    13596.193100       0.875508
    13614.703900       0.873471
    13633.265200       0.871423
    13651.877100       0.869364
    13670.540000       0.867294
    13689.253900       0.865212
    13708.019200       0.863120
    13726.836000       0.861017
    13745.704500       0.858903
    13764.624900       0.856778
    13783.597500       0.854642
    13802.622500       0.852496
    13821.700100       0.850339
    13840.830400       0.848171
    13860.013900       0.845993
    13879.250500       0.843805
    13898.540700       0.841607
    13917.884500       0.839398
    13937.282200       0.837179
    13956.734100       0.834949
    13976.240400       0.832710
    13995.801300       0.830461
    14015.417000       0.828202
    14035.087700       0.825933
    14054.813800       0.823654
    14074.595400       0.821366
    14094.432700       0.819068
    14114.326000       0.816760
    14134.275600       0.814443
    14154.281700       0.812116
    14174.344400       0.809780
    14194.464200       0.807434
    14214.641100       0.805079
    14234.875400       0.802715
    14255.167500       0.800342
    14275.517500       0.797960
    14295.925700       0.795568
    14316.392300       0.793168
    14336.917600       0.790759
    14357.501800       0.788341
    14378.145200       0.785914
    14398.848100       0.783479
    14419.610700       0.781034
    14440.433200       0.778582
    14461.316000       0.776121
    14482.259200       0.773651
    14503.263200       0.771173
    14524.328200       0.768687
    14545.454500       0.766192
    14566.642400       0.763690
    14587.892000       0.761179
    14609.203800       0.758661
    14630.577900       0.756134
    14652.014700       0.753600
    14673.514300       0.751058
    14695.077100       0.748508
    14716.703500       0.745950
    14738.393500       0.743385
    14760.147600       0.740813
    14781.966000       0.738233
    14803.849000       0.735646
    14825.796900       0.733052
    14847.809900       0.730450
    14869.888500       0.727842
    14892.032800       0.725227
    14914.243100       0.722604
    14936.519800       0.719976
    14958.863100       0.717340
    14981.273400       0.714698
    15003.750900       0.712049
    15026.296000       0.709394
    15048.909000       0.706733
    15071.590100       0.704065
    15094.339600       0.701392
    15117.158000       0.698712
    15140.045400       0.696027
    15163.002300       0.693336
    15186.028900       0.690639
    15209.125500       0.687936
    15232.292500       0.685228
    15255.530100       0.682515
    15278.838800       0.679796
    15302.218800       0.677073
    15325.670500       0.674344
    15349.194200       0.671610
    15372.790200       0.668872
    15396.458800       0.666128
    15420.200500       0.663381
    15444.015400       0.660628
    15467.904100       0.657872
    15491.866800       0.655111
    15515.903800       0.652346
    15540.015500       0.649578
    15564.202300       0.646805
    15588.464500       0.644029
    15612.802500       0.641249
    15637.216600       0.638465
    15661.707100       0.635679
    15686.274500       0.632889
    15710.919100       0.630096
    15735.641200       0.627300
    15760.441300       0.624501
    15785.319700       0.621699
    15810.276700       0.618896
    15835.312700       0.616089
    15860.428200       0.613281
    15885.623500       0.610470
    15910.899000       0.607657
    15936.255000       0.604843
    15961.691900       0.602026
    15987.210200       0.599209
    16012.810200       0.596389
    16038.492400       0.593569
    16064.257000       0.590747
    16090.104600       0.587925
    16116.035500       0.585101
    16142.050000       0.582277
    16168.148700       0.579452
    16194.332000       0.576627
    16220.600200       0.573802
    16246.953700       0.570976
    16273.393000       0.568151
    16299.918500       0.565326
    16326.530600       0.562501
    16353.229800       0.559677
    16380.016400       0.556853
    16406.890900       0.554030
    16433.853700       0.551208
    16460.905300       0.548387
    16488.046200       0.545567
    16515.276600       0.542749
    16542.597200       0.539932
    16570.008300       0.537117
    16597.510400       0.534304
    16625.103900       0.531493
    16652.789300       0.528684
    16680.567100       0.525877
    16708.437800       0.523072
    16736.401700       0.520271
    16764.459300       0.517471
    16792.611300       0.514675
    16820.857900       0.511882
    16849.199700       0.509092
    16877.637100       0.506305
    16906.170800       0.503522
    16934.801000       0.500742
    16963.528400       0.497966
    16992.353400       0.495194
    17021.276600       0.492426
    17050.298400       0.489662
    17079.419300       0.486902
    17108.639900       0.484147
    17137.960600       0.481396
    17167.382000       0.478650
    17196.904600       0.475909
    17226.528900       0.473173
    17256.255400       0.470442
    17286.084700       0.467715
    17316.017300       0.464995
    17346.053800       0.462280
    17376.194600       0.459570
    17406.440400       0.456866
    17436.791600       0.454168
    17467.248900       0.451476
    17497.812800       0.448789
    17528.483800       0.446109
    17559.262500       0.443436
    17590.149500       0.440768
    17621.145400       0.438107
    17652.250700       0.435453
    17683.466000       0.432805
    17714.791900       0.430164
    17746.228900       0.427530
    17777.777800       0.424902
    17809.439000       0.422282
    17841.213200       0.419669
    17873.101000       0.417063
    17905.103000       0.414465
    17937.219700       0.411873
    17969.451900       0.409290
    18001.800200       0.406713
    18034.265100       0.404145
    18066.847300       0.401584
    18099.547500       0.399030
    18132.366300       0.396485
    18165.304300       0.393947
    18198.362100       0.391417
    18231.540600       0.388895
    18264.840200       0.386381
    18298.261700       0.383875
    18331.805700       0.381376
    18365.472900       0.378886
    18399.264000       0.376405
    18433.179700       0.373931
    18467.220700       0.371465
    18501.387600       0.369008
    18535.681200       0.366558
    18570.102100       0.364117
    18604.651200       0.361684
    18639.329000       0.359260
    18674.136300       0.356843
    18709.073900       0.354435
    18744.142500       0.352035
    18779.342700       0.349643
    18814.675400       0.347259
    18850.141400       0.344883
    18885.741300       0.342516
    18921.475900       0.340156
    18957.346000       0.337805
    18993.352300       0.335461
    19029.495700       0.333126
    19065.776900       0.330798
    19102.196800       0.328479
    19138.756000       0.326167
    19175.455400       0.323863
    19212.295900       0.321566
    19249.278200       0.319278
    19286.403100       0.316996
    19323.671500       0.314723
    19361.084200       0.312456
    19398.642100       0.310197
    19436.346000       0.307945
    19474.196700       0.305701
    19512.195100       0.303463
    19550.342100       0.301232
    19588.638600       0.299008
    19627.085400       0.296791
    19665.683400       0.294581
    19704.433500       0.292377
    19743.336600       0.290179
    19782.393700       0.287987
    19821.605600       0.285802
    19860.973200       0.283622
    19900.497500       0.281449
