4, FY2E VISSR Infrared channel (12.5 microns)
Number of data points:
268
Wavenumber (cm-1)   Filter response
      738.007400       0.007100
      738.552400       0.007500
      739.098300       0.007800
      739.645000       0.008100
      740.192500       0.008500
      740.740700       0.008900
      741.289800       0.009500
      741.839800       0.010200
      742.390500       0.010800
      742.942100       0.011500
      743.494400       0.012200
      744.047600       0.012900
      744.601600       0.013600
      745.156500       0.014600
      745.712200       0.015600
      746.268700       0.016600
      746.826000       0.017700
      747.384200       0.018700
      747.943200       0.019700
      748.503000       0.020900
      749.063700       0.022200
      749.625200       0.023600
      750.187500       0.025000
      750.750800       0.026400
      751.314800       0.027800
      751.879700       0.029200
      752.445400       0.031000
      753.012000       0.033400
      753.579500       0.035800
      754.147800       0.038200
      754.717000       0.040600
      755.287000       0.043100
      755.857900       0.045500
      756.429700       0.048200
      757.002300       0.051000
      757.575800       0.053900
      758.150100       0.056800
      758.725300       0.059700
      759.301400       0.062600
      759.878400       0.065600
      760.456300       0.069400
      761.035000       0.073400
      761.614600       0.077400
      762.195100       0.081400
      762.776500       0.085400
      763.358800       0.089500
      763.941900       0.094300
      764.526000       0.101400
      765.110900       0.108500
      765.696800       0.115700
      766.283500       0.122900
      766.871200       0.130200
      767.459700       0.137400
      768.049200       0.146200
      768.639500       0.155700
      769.230800       0.165300
      769.822900       0.174900
      770.416000       0.184600
      771.010000       0.194400
      771.604900       0.204500
      772.200800       0.216300
      772.797500       0.228200
      773.395200       0.240100
      773.993800       0.252100
      774.593300       0.264100
      775.193800       0.276100
      775.795200       0.293000
      776.397500       0.312300
      777.000800       0.331600
      777.605000       0.350900
      778.210100       0.370300
      778.816200       0.389700
      779.423200       0.410200
      780.031200       0.433100
      780.640100       0.456100
      781.250000       0.479300
      781.860800       0.502400
      782.472600       0.525600
      783.085400       0.548800
      783.699100       0.566600
      784.313700       0.584200
      784.929400       0.601900
      785.546000       0.619600
      786.163500       0.637300
      786.782100       0.655100
      787.401600       0.676000
      788.022100       0.698000
      788.643500       0.720100
      789.266000       0.742100
      789.889400       0.764200
      790.513800       0.786100
      791.139200       0.808400
      791.765600       0.831100
      792.393000       0.853700
      793.021400       0.876500
      793.650800       0.899300
      794.281200       0.922500
      794.912600       0.937900
      795.544900       0.940800
      796.178300       0.943700
      796.812700       0.946400
      797.448200       0.949100
      798.084600       0.951500
      798.722000       0.952900
      799.360500       0.951700
      800.000000       0.950600
      800.640500       0.949700
      801.282100       0.948800
      801.924600       0.948300
      802.568200       0.950500
      803.212900       0.959800
      803.858500       0.969200
      804.505200       0.978200
      805.153000       0.987300
      805.801800       0.996100
      806.451600       1.000000
      807.102500       0.993200
      807.754400       0.986500
      808.407400       0.979600
      809.061500       0.972700
      809.716600       0.965700
      810.372800       0.955800
      811.030000       0.942000
      811.688300       0.928200
      812.347700       0.914800
      813.008100       0.901200
      813.669700       0.887600
      814.332200       0.881700
      814.995900       0.881200
      815.660700       0.880700
      816.326500       0.880200
      816.993500       0.879600
      817.661500       0.879200
      818.330600       0.878200
      819.000800       0.876900
      819.672100       0.875700
      820.344500       0.874300
      821.018100       0.872900
      821.692700       0.871200
      822.368400       0.860100
      823.045300       0.848800
      823.723200       0.837600
      824.402300       0.826300
      825.082500       0.814900
      825.763800       0.805300
      826.446300       0.799100
      827.129900       0.792700
      827.814600       0.786300
      828.500400       0.779600
      829.187400       0.772800
      829.875500       0.773000
      830.564800       0.776100
      831.255200       0.779100
      831.946800       0.782100
      832.639500       0.785300
      833.333300       0.787800
      834.028400       0.785300
      834.724500       0.782900
      835.421900       0.780400
      836.120400       0.778100
      836.820100       0.775800
      837.520900       0.768500
      838.223000       0.758000
      838.926200       0.747500
      839.630600       0.737500
      840.336100       0.727500
      841.042900       0.719000
      841.750800       0.720300
      842.460000       0.721800
      843.170300       0.723300
      843.881900       0.724900
      844.594600       0.726600
      845.308500       0.730300
      846.023700       0.735200
      846.740100       0.740200
      847.457600       0.745400
      848.176400       0.750900
      848.896400       0.750700
      849.617700       0.737300
      850.340100       0.723900
      851.063800       0.710600
      851.788800       0.697300
      852.514900       0.683800
      853.242300       0.666700
      853.971000       0.649200
      854.700900       0.631600
      855.432000       0.613600
      856.164400       0.595600
      856.898000       0.584800
      857.632900       0.577300
      858.369100       0.569900
      859.106500       0.562400
      859.845200       0.554800
      860.585200       0.543600
      861.326400       0.527700
      862.069000       0.511700
      862.812800       0.495500
      863.557900       0.479200
      864.304200       0.460100
      865.051900       0.433200
      865.800900       0.406200
      866.551100       0.379200
      867.302700       0.352100
      868.055600       0.325800
      868.809700       0.306000
      869.565200       0.286200
      870.322000       0.266300
      871.080100       0.246300
      871.839600       0.226600
      872.600300       0.214300
      873.362400       0.202100
      874.125900       0.189900
      874.890600       0.177800
      875.656700       0.165700
      876.424200       0.154700
      877.193000       0.143800
      877.963100       0.132800
      878.734600       0.121700
      879.507500       0.110500
      880.281700       0.102500
      881.057300       0.094600
      881.834200       0.086700
      882.612500       0.078900
      883.392200       0.071000
      884.173300       0.066800
      884.955800       0.062600
      885.739600       0.058400
      886.524800       0.054100
      887.311400       0.050000
      888.099500       0.047200
      888.888900       0.044500
      889.679700       0.041700
      890.472000       0.039000
      891.265600       0.036500
      892.060700       0.034500
      892.857100       0.032600
      893.655000       0.030700
      894.454400       0.028700
      895.255100       0.027000
      896.057300       0.025600
      896.861000       0.024200
      897.666100       0.022800
      898.472600       0.021500
      899.280600       0.020300
      900.090000       0.019200
      900.900900       0.018200
      901.713300       0.017100
      902.527100       0.016100
      903.342400       0.015500
      904.159100       0.015000
      904.977400       0.014400
      905.797100       0.013900
      906.618300       0.013400
      907.441000       0.013000
      908.265200       0.012500
      909.090900       0.012100
      909.918100       0.011600
      910.746800       0.011200
      911.577000       0.010700
      912.408800       0.010200
      913.242000       0.009700
      914.076800       0.009300
      914.913100       0.009000
      915.750900       0.008800
      916.590300       0.008600
      917.431200       0.008400
      918.273600       0.008200
      919.117600       0.008000
