   3  ,noaa_16_hirs_03.flt
Number of data points:
85
Wavenumber (cm-1)   Filter response
      671.000000       0.000000
      674.470000       0.015153
      674.640000       0.018214
      674.940000       0.021311
      675.690000       0.020442
      675.900000       0.023554
      676.190000       0.025670
      676.490000       0.031915
      676.870000       0.039256
      677.120000       0.045684
      677.410000       0.049143
      677.710000       0.054758
      678.000000       0.060461
      678.300000       0.071587
      678.670000       0.086276
      679.100000       0.104610
      679.690000       0.131500
      680.060000       0.151330
      680.490000       0.175580
      680.950000       0.206930
      681.330000       0.237240
      681.840000       0.284090
      682.390000       0.335080
      682.900000       0.383070
      683.280000       0.410180
      683.570000       0.433610
      683.820000       0.452330
      684.120000       0.474890
      684.420000       0.506820
      684.750000       0.534980
      685.010000       0.556730
      685.260000       0.572070
      685.640000       0.589140
      686.020000       0.605120
      686.560000       0.628590
      686.900000       0.645790
      687.320000       0.661350
      687.570000       0.674440
      687.830000       0.678990
      688.460000       0.686580
      689.040000       0.690100
      689.500000       0.697640
      689.930000       0.706240
      690.340000       0.717170
      690.760000       0.729410
      691.270000       0.750110
      691.820000       0.781680
      692.280000       0.816750
      692.660000       0.848760
      693.120000       0.884450
      693.500000       0.917000
      693.800000       0.938340
      694.220000       0.966370
      694.520000       0.984520
      694.680000       0.992320
      695.020000       1.000000
      695.230000       0.997770
      695.560000       0.993340
      695.730000       0.980950
      695.940000       0.963680
      696.230000       0.935240
      696.520000       0.896930
      696.890000       0.823750
      697.640000       0.676500
      698.130000       0.567950
      698.710000       0.450340
      699.120000       0.364400
      699.410000       0.311460
      699.910000       0.237240
      700.410000       0.182360
      700.660000       0.152560
      700.950000       0.135670
      701.200000       0.122980
      701.450000       0.105870
      701.830000       0.087338
      702.160000       0.073017
      702.540000       0.054229
      702.910000       0.047071
      703.250000       0.039845
      703.580000       0.038494
      704.090000       0.032729
      704.510000       0.026886
      704.930000       0.023990
      705.300000       0.021054
      709.000000       0.000000
