54,   54, MVIRI VIS channel from srf_MET5_1997348_1997349_1801-Release_S10EL_10.dat
Number of data points:
806
Wavenumber (cm-1)   Filter response
     8350.730700       0.000000
     8357.710000       0.000000
     8364.701000       0.000000
     8371.703600       0.000002
     8378.718100       0.000004
     8385.744200       0.000009
     8392.782200       0.000016
     8399.832000       0.000027
     8406.893700       0.000041
     8413.967200       0.000059
     8421.052600       0.000082
     8428.150000       0.000111
     8435.259400       0.000144
     8442.380800       0.000184
     8449.514200       0.000230
     8456.659600       0.000283
     8463.817200       0.000343
     8470.986900       0.000411
     8478.168700       0.000487
     8485.362700       0.000571
     8492.569000       0.000664
     8499.787500       0.000765
     8507.018300       0.000876
     8514.261400       0.000997
     8521.516800       0.001128
     8528.784600       0.001269
     8536.064900       0.001420
     8543.357500       0.001582
     8550.662700       0.001755
     8557.980300       0.001939
     8565.310500       0.002135
     8572.653200       0.002343
     8580.008600       0.002562
     8587.376600       0.002794
     8594.757200       0.003038
     8602.150500       0.003295
     8609.556600       0.003565
     8616.975400       0.003848
     8624.407100       0.004144
     8631.851500       0.004453
     8639.308900       0.004776
     8646.779100       0.005113
     8654.262200       0.005463
     8661.758300       0.005828
     8669.267400       0.006207
     8676.789600       0.006600
     8684.324800       0.007008
     8691.873100       0.007431
     8699.434500       0.007869
     8707.009100       0.008322
     8714.596900       0.008789
     8722.198000       0.009273
     8729.812300       0.009771
     8737.439900       0.010285
     8745.080900       0.010815
     8752.735200       0.011361
     8760.403000       0.011923
     8768.084200       0.012500
     8775.778900       0.013095
     8783.487000       0.013705
     8791.208800       0.014332
     8798.944100       0.014975
     8806.693100       0.015635
     8814.455700       0.016312
     8822.232000       0.017006
     8830.022100       0.017717
     8837.825900       0.018445
     8845.643500       0.019190
     8853.475000       0.019953
     8861.320300       0.020733
     8869.179600       0.021531
     8877.052800       0.022346
     8884.940000       0.023180
     8892.841300       0.024031
     8900.756600       0.024900
     8908.686000       0.025788
     8916.629500       0.026693
     8924.587200       0.027617
     8932.559200       0.028560
     8940.545400       0.029521
     8948.545900       0.030500
     8956.560700       0.031499
     8964.589900       0.032516
     8972.633500       0.033552
     8980.691500       0.034608
     8988.764000       0.035682
     8996.851100       0.036776
     9004.952700       0.037889
     9013.068900       0.039022
     9021.199800       0.040174
     9029.345400       0.041346
     9037.505600       0.042537
     9045.680700       0.043749
     9053.870500       0.044980
     9062.075200       0.046232
     9070.294800       0.047503
     9078.529300       0.048795
     9086.778700       0.050108
     9095.043200       0.051440
     9103.322700       0.052794
     9111.617300       0.054168
     9119.927000       0.055562
     9128.251900       0.056978
     9136.592100       0.058414
     9144.947400       0.059872
     9153.318100       0.061350
     9161.704100       0.062850
     9170.105500       0.064371
     9178.522300       0.065914
     9186.954500       0.067477
     9195.402300       0.069063
     9203.865600       0.070670
     9212.344500       0.072299
     9220.839100       0.073950
     9229.349300       0.075622
     9237.875300       0.077317
     9246.417000       0.079033
     9254.974500       0.080772
     9263.547900       0.082533
     9272.137200       0.084316
     9280.742500       0.086122
     9289.363700       0.087950
     9298.000900       0.089800
     9306.654300       0.091673
     9315.323700       0.093569
     9324.009300       0.095487
     9332.711200       0.097429
     9341.429200       0.099393
     9350.163600       0.101380
     9358.914400       0.103389
     9367.681500       0.105422
     9376.465100       0.107478
     9385.265100       0.109557
     9394.081700       0.111660
     9402.914900       0.113785
     9411.764700       0.115934
     9420.631200       0.118106
     9429.514400       0.120301
     9438.414300       0.122520
     9447.331100       0.124762
     9456.264800       0.127028
     9465.215300       0.129317
     9474.182900       0.131629
     9483.167400       0.133966
     9492.169000       0.136325
     9501.187600       0.138709
     9510.223500       0.141116
     9519.276500       0.143546
     9528.346800       0.146000
     9537.434400       0.148478
     9546.539400       0.150979
     9555.661700       0.153504
     9564.801500       0.156053
     9573.958800       0.158625
     9583.133700       0.161221
     9592.326100       0.163840
     9601.536200       0.166484
     9610.764100       0.169150
     9620.009600       0.171841
     9629.273000       0.174554
     9638.554200       0.177291
     9647.853400       0.180052
     9657.170400       0.182836
     9666.505600       0.185644
     9675.858700       0.188475
     9685.230000       0.191329
     9694.619500       0.194207
     9704.027200       0.197107
     9713.453100       0.200031
     9722.897400       0.202978
     9732.360100       0.205948
     9741.841200       0.208941
     9751.340800       0.211956
     9760.859000       0.214995
     9770.395700       0.218056
     9779.951100       0.221140
     9789.525200       0.224246
     9799.118100       0.227375
     9808.729800       0.230526
     9818.360300       0.233699
     9828.009800       0.236895
     9837.678300       0.240112
     9847.365800       0.243352
     9857.072400       0.246613
     9866.798200       0.249896
     9876.543200       0.253200
     9886.307500       0.256526
     9896.091000       0.259874
     9905.894000       0.263242
     9915.716400       0.266631
     9925.558300       0.270041
     9935.419800       0.273472
     9945.300800       0.276924
     9955.201600       0.280395
     9965.122100       0.283887
     9975.062300       0.287399
     9985.022500       0.290931
     9995.002500       0.294483
    10005.002500       0.298054
    10015.022500       0.301644
    10025.062700       0.305254
    10035.122900       0.308883
    10045.203400       0.312530
    10055.304200       0.316196
    10065.425300       0.319880
    10075.566800       0.323582
    10085.728700       0.327302
    10095.911200       0.331041
    10106.114200       0.334796
    10116.337900       0.338568
    10126.582300       0.342358
    10136.847400       0.346165
    10147.133400       0.349988
    10157.440300       0.353827
    10167.768200       0.357682
    10178.117000       0.361553
    10188.487000       0.365440
    10198.878100       0.369342
    10209.290500       0.373259
    10219.724100       0.377191
    10230.179000       0.381137
    10240.655400       0.385098
    10251.153300       0.389072
    10261.672700       0.393060
    10272.213700       0.397062
    10282.776300       0.401076
    10293.360800       0.405103
    10303.967000       0.409143
    10314.595200       0.413195
    10325.245200       0.417259
    10335.917300       0.421335
    10346.611500       0.425421
    10357.327800       0.429519
    10368.066400       0.433627
    10378.827200       0.437746
    10389.610400       0.441875
    10400.416000       0.446013
    10411.244100       0.450161
    10422.094800       0.454317
    10432.968200       0.458483
    10443.864200       0.462657
    10454.783100       0.466838
    10465.724800       0.471028
    10476.689400       0.475224
    10487.677000       0.479428
    10498.687700       0.483638
    10509.721500       0.487855
    10520.778500       0.492077
    10531.858900       0.496305
    10542.962600       0.500538
    10554.089700       0.504776
    10565.240400       0.509019
    10576.414600       0.513265
    10587.612500       0.517515
    10598.834100       0.521769
    10610.079600       0.526025
    10621.348900       0.530284
    10632.642200       0.534545
    10643.959600       0.538809
    10655.301000       0.543073
    10666.666700       0.547339
    10678.056600       0.551605
    10689.470900       0.555871
    10700.909600       0.560138
    10712.372800       0.564404
    10723.860600       0.568669
    10735.373100       0.572933
    10746.910300       0.577195
    10758.472300       0.581455
    10770.059200       0.585712
    10781.671200       0.589967
    10793.308100       0.594218
    10804.970300       0.598466
    10816.657700       0.602710
    10828.370300       0.606949
    10840.108400       0.611183
    10851.871900       0.615412
    10863.661100       0.619636
    10875.475800       0.623853
    10887.316300       0.628064
    10899.182600       0.632268
    10911.074700       0.636465
    10922.992900       0.640654
    10934.937100       0.644835
    10946.907500       0.649008
    10958.904100       0.653171
    10970.927000       0.657326
    10982.976400       0.661470
    10995.052200       0.665605
    11007.154700       0.669729
    11019.283700       0.673842
    11031.439600       0.677944
    11043.622300       0.682034
    11055.832000       0.686112
    11068.068600       0.690177
    11080.332400       0.694230
    11092.623400       0.698270
    11104.941700       0.702295
    11117.287400       0.706307
    11129.660500       0.710304
    11142.061300       0.714286
    11154.489700       0.718253
    11166.945800       0.722205
    11179.429800       0.726140
    11191.941800       0.730059
    11204.481800       0.733962
    11217.049900       0.737847
    11229.646300       0.741714
    11242.270900       0.745564
    11254.924000       0.749395
    11267.605600       0.753208
    11280.315800       0.757001
    11293.054800       0.760776
    11305.822500       0.764530
    11318.619100       0.768265
    11331.444800       0.771978
    11344.299500       0.775671
    11357.183400       0.779343
    11370.096600       0.782994
    11383.039300       0.786622
    11396.011400       0.790228
    11409.013100       0.793811
    11422.044500       0.797372
    11435.105800       0.800909
    11448.196900       0.804423
    11461.318100       0.807913
    11474.469300       0.811378
    11487.650800       0.814819
    11500.862600       0.818235
    11514.104800       0.821626
    11527.377500       0.824991
    11540.680900       0.828331
    11554.015000       0.831644
    11567.380000       0.834931
    11580.775900       0.838191
    11594.202900       0.841424
    11607.661100       0.844630
    11621.150500       0.847808
    11634.671300       0.850958
    11648.223600       0.854080
    11661.807600       0.857173
    11675.423200       0.860238
    11689.070700       0.863274
    11702.750100       0.866281
    11716.461600       0.869258
    11730.205300       0.872205
    11743.981200       0.875123
    11757.789500       0.878010
    11771.630400       0.880866
    11785.503800       0.883692
    11799.410000       0.886487
    11813.349100       0.889251
    11827.321100       0.891984
    11841.326200       0.894685
    11855.364600       0.897354
    11869.436200       0.899991
    11883.541300       0.902596
    11897.680000       0.905169
    11911.852300       0.907709
    11926.058400       0.910216
    11940.298500       0.912691
    11954.572600       0.915132
    11968.880900       0.917540
    11983.223500       0.919914
    11997.600500       0.922256
    12012.012000       0.924563
    12026.458200       0.926837
    12040.939200       0.929076
    12055.455100       0.931281
    12070.006000       0.933453
    12084.592100       0.935589
    12099.213600       0.937692
    12113.870400       0.939759
    12128.562800       0.941792
    12143.290800       0.943791
    12158.054700       0.945754
    12172.854500       0.947683
    12187.690400       0.949576
    12202.562500       0.951434
    12217.471000       0.953257
    12232.415900       0.955045
    12247.397400       0.956798
    12262.415700       0.958515
    12277.470800       0.960197
    12292.563000       0.961843
    12307.692300       0.963454
    12322.858900       0.965029
    12338.062900       0.966569
    12353.304500       0.968074
    12368.583800       0.969542
    12383.900900       0.970976
    12399.256000       0.972374
    12414.649300       0.973736
    12430.080800       0.975063
    12445.550700       0.976354
    12461.059200       0.977610
    12476.606400       0.978831
    12492.192400       0.980016
    12507.817400       0.981166
    12523.481500       0.982281
    12539.185000       0.983360
    12554.927800       0.984404
    12570.710200       0.985414
    12586.532400       0.986388
    12602.394500       0.987327
    12618.296500       0.988232
    12634.238800       0.989102
    12650.221400       0.989937
    12666.244500       0.990738
    12682.308200       0.991505
    12698.412700       0.992237
    12714.558200       0.992935
    12730.744700       0.993599
    12746.972600       0.994230
    12763.241900       0.994826
    12779.552700       0.995389
    12795.905300       0.995919
    12812.299800       0.996415
    12828.736400       0.996878
    12845.215200       0.997309
    12861.736300       0.997707
    12878.300100       0.998072
    12894.906500       0.998405
    12911.555800       0.998705
    12928.248200       0.998974
    12944.983800       0.999211
    12961.762800       0.999416
    12978.585300       0.999591
    12995.451600       0.999734
    13012.361700       0.999846
    13029.316000       0.999928
    13046.314400       0.999979
    13063.357300       1.000000
    13080.444700       0.999991
    13097.576900       0.999953
    13114.754100       0.999885
    13131.976400       0.999788
    13149.243900       0.999662
    13166.556900       0.999508
    13183.915600       0.999326
    13201.320100       0.999115
    13218.770700       0.998877
    13236.267400       0.998611
    13253.810500       0.998318
    13271.400100       0.997999
    13289.036500       0.997653
    13306.719900       0.997280
    13324.450400       0.996882
    13342.228200       0.996458
    13360.053400       0.996009
    13377.926400       0.995535
    13395.847300       0.995037
    13413.816200       0.994514
    13431.833400       0.993968
    13449.899100       0.993397
    13468.013500       0.992804
    13486.176700       0.992188
    13504.388900       0.991549
    13522.650400       0.990888
    13540.961400       0.990205
    13559.322000       0.989501
    13577.732500       0.988776
    13596.193100       0.988030
    13614.703900       0.987264
    13633.265200       0.986478
    13651.877100       0.985672
    13670.540000       0.984847
    13689.253900       0.984004
    13708.019200       0.983142
    13726.836000       0.982262
    13745.704500       0.981364
    13764.624900       0.980449
    13783.597500       0.979517
    13802.622500       0.978569
    13821.700100       0.977605
    13840.830400       0.976625
    13860.013900       0.975630
    13879.250500       0.974620
    13898.540700       0.973596
    13917.884500       0.972558
    13937.282200       0.971506
    13956.734100       0.970441
    13976.240400       0.969363
    13995.801300       0.968273
    14015.417000       0.967171
    14035.087700       0.966057
    14054.813800       0.964933
    14074.595400       0.963797
    14094.432700       0.962652
    14114.326000       0.961496
    14134.275600       0.960331
    14154.281700       0.959158
    14174.344400       0.957975
    14194.464200       0.956784
    14214.641100       0.955586
    14234.875400       0.954380
    14255.167500       0.953168
    14275.517500       0.951949
    14295.925700       0.950723
    14316.392300       0.949493
    14336.917600       0.948256
    14357.501800       0.947016
    14378.145200       0.945770
    14398.848100       0.944521
    14419.610700       0.943268
    14440.433200       0.942012
    14461.316000       0.940753
    14482.259200       0.939492
    14503.263200       0.938228
    14524.328200       0.936964
    14545.454500       0.935698
    14566.642400       0.934431
    14587.892000       0.933164
    14609.203800       0.931897
    14630.577900       0.930631
    14652.014700       0.929365
    14673.514300       0.928100
    14695.077100       0.926837
    14716.703500       0.925576
    14738.393500       0.924318
    14760.147600       0.923062
    14781.966000       0.921809
    14803.849000       0.920560
    14825.796900       0.919314
    14847.809900       0.918073
    14869.888500       0.916836
    14892.032800       0.915604
    14914.243100       0.914377
    14936.519800       0.913156
    14958.863100       0.911941
    14981.273400       0.910732
    15003.750900       0.909530
    15026.296000       0.908335
    15048.909000       0.907147
    15071.590100       0.905966
    15094.339600       0.904794
    15117.158000       0.903629
    15140.045400       0.902473
    15163.002300       0.901326
    15186.028900       0.900188
    15209.125500       0.899059
    15232.292500       0.897940
    15255.530100       0.896831
    15278.838800       0.895732
    15302.218800       0.894644
    15325.670500       0.893566
    15349.194200       0.892499
    15372.790200       0.891444
    15396.458800       0.890400
    15420.200500       0.889367
    15444.015400       0.888347
    15467.904100       0.887338
    15491.866800       0.886342
    15515.903800       0.885359
    15540.015500       0.884388
    15564.202300       0.883430
    15588.464500       0.882485
    15612.802500       0.881553
    15637.216600       0.880635
    15661.707100       0.879731
    15686.274500       0.878840
    15710.919100       0.877963
    15735.641200       0.877101
    15760.441300       0.876252
    15785.319700       0.875418
    15810.276700       0.874598
    15835.312700       0.873792
    15860.428200       0.873002
    15885.623500       0.872225
    15910.899000       0.871464
    15936.255000       0.870718
    15961.691900       0.869986
    15987.210200       0.869269
    16012.810200       0.868568
    16038.492400       0.867881
    16064.257000       0.867210
    16090.104600       0.866553
    16116.035500       0.865912
    16142.050000       0.865286
    16168.148700       0.864675
    16194.332000       0.864078
    16220.600200       0.863497
    16246.953700       0.862931
    16273.393000       0.862380
    16299.918500       0.861844
    16326.530600       0.861322
    16353.229800       0.860816
    16380.016400       0.860324
    16406.890900       0.859846
    16433.853700       0.859383
    16460.905300       0.858934
    16488.046200       0.858500
    16515.276600       0.858080
    16542.597200       0.857673
    16570.008300       0.857280
    16597.510400       0.856901
    16625.103900       0.856536
    16652.789300       0.856183
    16680.567100       0.855844
    16708.437800       0.855517
    16736.401700       0.855203
    16764.459300       0.854901
    16792.611300       0.854612
    16820.857900       0.854334
    16849.199700       0.854069
    16877.637100       0.853814
    16906.170800       0.853571
    16934.801000       0.853338
    16963.528400       0.853116
    16992.353400       0.852904
    17021.276600       0.852701
    17050.298400       0.852509
    17079.419300       0.852325
    17108.639900       0.852151
    17137.960600       0.851984
    17167.382000       0.851826
    17196.904600       0.851676
    17226.528900       0.851533
    17256.255400       0.851396
    17286.084700       0.851266
