81,   81, MVIRI VIS channel from srf_MET5_2001123_2001124_1801-Release_S10EL_10.dat
Number of data points:
806
Wavenumber (cm-1)   Filter response
     8350.730700       0.000000
     8357.710000       0.000000
     8364.701000       0.000000
     8371.703600       0.000002
     8378.718100       0.000004
     8385.744200       0.000009
     8392.782200       0.000017
     8399.832000       0.000027
     8406.893700       0.000042
     8413.967200       0.000060
     8421.052600       0.000084
     8428.150000       0.000112
     8435.259400       0.000147
     8442.380800       0.000187
     8449.514200       0.000234
     8456.659600       0.000288
     8463.817200       0.000349
     8470.986900       0.000418
     8478.168700       0.000495
     8485.362700       0.000581
     8492.569000       0.000675
     8499.787500       0.000778
     8507.018300       0.000891
     8514.261400       0.001014
     8521.516800       0.001147
     8528.784600       0.001290
     8536.064900       0.001444
     8543.357500       0.001609
     8550.662700       0.001785
     8557.980300       0.001972
     8565.310500       0.002171
     8572.653200       0.002382
     8580.008600       0.002605
     8587.376600       0.002841
     8594.757200       0.003089
     8602.150500       0.003350
     8609.556600       0.003624
     8616.975400       0.003912
     8624.407100       0.004212
     8631.851500       0.004527
     8639.308900       0.004855
     8646.779100       0.005197
     8654.262200       0.005553
     8661.758300       0.005924
     8669.267400       0.006309
     8676.789600       0.006709
     8684.324800       0.007123
     8691.873100       0.007553
     8699.434500       0.007997
     8707.009100       0.008457
     8714.596900       0.008932
     8722.198000       0.009423
     8729.812300       0.009929
     8737.439900       0.010452
     8745.080900       0.010990
     8752.735200       0.011544
     8760.403000       0.012114
     8768.084200       0.012701
     8775.778900       0.013304
     8783.487000       0.013924
     8791.208800       0.014560
     8798.944100       0.015213
     8806.693100       0.015884
     8814.455700       0.016571
     8822.232000       0.017275
     8830.022100       0.017997
     8837.825900       0.018736
     8845.643500       0.019492
     8853.475000       0.020266
     8861.320300       0.021058
     8869.179600       0.021868
     8877.052800       0.022696
     8884.940000       0.023541
     8892.841300       0.024405
     8900.756600       0.025287
     8908.686000       0.026187
     8916.629500       0.027106
     8924.587200       0.028044
     8932.559200       0.029000
     8940.545400       0.029975
     8948.545900       0.030969
     8956.560700       0.031981
     8964.589900       0.033013
     8972.633500       0.034064
     8980.691500       0.035135
     8988.764000       0.036224
     8996.851100       0.037333
     9004.952700       0.038462
     9013.068900       0.039611
     9021.199800       0.040779
     9029.345400       0.041967
     9037.505600       0.043175
     9045.680700       0.044404
     9053.870500       0.045652
     9062.075200       0.046921
     9070.294800       0.048210
     9078.529300       0.049520
     9086.778700       0.050850
     9095.043200       0.052201
     9103.322700       0.053573
     9111.617300       0.054965
     9119.927000       0.056378
     9128.251900       0.057813
     9136.592100       0.059269
     9144.947400       0.060746
     9153.318100       0.062244
     9161.704100       0.063763
     9170.105500       0.065304
     9178.522300       0.066867
     9186.954500       0.068451
     9195.402300       0.070057
     9203.865600       0.071685
     9212.344500       0.073335
     9220.839100       0.075007
     9229.349300       0.076701
     9237.875300       0.078417
     9246.417000       0.080156
     9254.974500       0.081917
     9263.547900       0.083700
     9272.137200       0.085505
     9280.742500       0.087333
     9289.363700       0.089184
     9298.000900       0.091058
     9306.654300       0.092954
     9315.323700       0.094873
     9324.009300       0.096815
     9332.711200       0.098780
     9341.429200       0.100768
     9350.163600       0.102779
     9358.914400       0.104813
     9367.681500       0.106870
     9376.465100       0.108951
     9385.265100       0.111055
     9394.081700       0.113182
     9402.914900       0.115332
     9411.764700       0.117507
     9420.631200       0.119704
     9429.514400       0.121925
     9438.414300       0.124169
     9447.331100       0.126437
     9456.264800       0.128729
     9465.215300       0.131045
     9474.182900       0.133383
     9483.167400       0.135746
     9492.169000       0.138132
     9501.187600       0.140543
     9510.223500       0.142976
     9519.276500       0.145434
     9528.346800       0.147915
     9537.434400       0.150420
     9546.539400       0.152949
     9555.661700       0.155502
     9564.801500       0.158078
     9573.958800       0.160678
     9583.133700       0.163302
     9592.326100       0.165949
     9601.536200       0.168620
     9610.764100       0.171315
     9620.009600       0.174034
     9629.273000       0.176776
     9638.554200       0.179542
     9647.853400       0.182331
     9657.170400       0.185144
     9666.505600       0.187980
     9675.858700       0.190840
     9685.230000       0.193723
     9694.619500       0.196630
     9704.027200       0.199559
     9713.453100       0.202512
     9722.897400       0.205488
     9732.360100       0.208487
     9741.841200       0.211509
     9751.340800       0.214554
     9760.859000       0.217622
     9770.395700       0.220713
     9779.951100       0.223826
     9789.525200       0.226962
     9799.118100       0.230120
     9808.729800       0.233301
     9818.360300       0.236504
     9828.009800       0.239729
     9837.678300       0.242976
     9847.365800       0.246245
     9857.072400       0.249536
     9866.798200       0.252848
     9876.543200       0.256182
     9886.307500       0.259538
     9896.091000       0.262914
     9905.894000       0.266312
     9915.716400       0.269731
     9925.558300       0.273170
     9935.419800       0.276631
     9945.300800       0.280111
     9955.201600       0.283612
     9965.122100       0.287134
     9975.062300       0.290675
     9985.022500       0.294236
     9995.002500       0.297817
    10005.002500       0.301417
    10015.022500       0.305036
    10025.062700       0.308674
    10035.122900       0.312332
    10045.203400       0.316007
    10055.304200       0.319702
    10065.425300       0.323414
    10075.566800       0.327145
    10085.728700       0.330893
    10095.911200       0.334660
    10106.114200       0.338443
    10116.337900       0.342243
    10126.582300       0.346061
    10136.847400       0.349895
    10147.133400       0.353745
    10157.440300       0.357612
    10167.768200       0.361494
    10178.117000       0.365392
    10188.487000       0.369305
    10198.878100       0.373234
    10209.290500       0.377177
    10219.724100       0.381135
    10230.179000       0.385108
    10240.655400       0.389094
    10251.153300       0.393094
    10261.672700       0.397107
    10272.213700       0.401134
    10282.776300       0.405173
    10293.360800       0.409226
    10303.967000       0.413290
    10314.595200       0.417366
    10325.245200       0.421454
    10335.917300       0.425553
    10346.611500       0.429663
    10357.327800       0.433784
    10368.066400       0.437916
    10378.827200       0.442057
    10389.610400       0.446208
    10400.416000       0.450369
    10411.244100       0.454538
    10422.094800       0.458716
    10432.968200       0.462903
    10443.864200       0.467098
    10454.783100       0.471300
    10465.724800       0.475510
    10476.689400       0.479727
    10487.677000       0.483950
    10498.687700       0.488180
    10509.721500       0.492415
    10520.778500       0.496656
    10531.858900       0.500903
    10542.962600       0.505154
    10554.089700       0.509410
    10565.240400       0.513669
    10576.414600       0.517933
    10587.612500       0.522199
    10598.834100       0.526469
    10610.079600       0.530741
    10621.348900       0.535016
    10632.642200       0.539292
    10643.959600       0.543570
    10655.301000       0.547849
    10666.666700       0.552128
    10678.056600       0.556408
    10689.470900       0.560687
    10700.909600       0.564966
    10712.372800       0.569244
    10723.860600       0.573521
    10735.373100       0.577796
    10746.910300       0.582069
    10758.472300       0.586340
    10770.059200       0.590607
    10781.671200       0.594872
    10793.308100       0.599132
    10804.970300       0.603389
    10816.657700       0.607640
    10828.370300       0.611887
    10840.108400       0.616129
    10851.871900       0.620365
    10863.661100       0.624595
    10875.475800       0.628818
    10887.316300       0.633034
    10899.182600       0.637243
    10911.074700       0.641444
    10922.992900       0.645637
    10934.937100       0.649821
    10946.907500       0.653997
    10958.904100       0.658163
    10970.927000       0.662319
    10982.976400       0.666465
    10995.052200       0.670600
    11007.154700       0.674725
    11019.283700       0.678838
    11031.439600       0.682939
    11043.622300       0.687028
    11055.832000       0.691104
    11068.068600       0.695167
    11080.332400       0.699218
    11092.623400       0.703254
    11104.941700       0.707275
    11117.287400       0.711283
    11129.660500       0.715275
    11142.061300       0.719252
    11154.489700       0.723213
    11166.945800       0.727158
    11179.429800       0.731086
    11191.941800       0.734998
    11204.481800       0.738892
    11217.049900       0.742768
    11229.646300       0.746626
    11242.270900       0.750466
    11254.924000       0.754287
    11267.605600       0.758089
    11280.315800       0.761871
    11293.054800       0.765633
    11305.822500       0.769375
    11318.619100       0.773097
    11331.444800       0.776797
    11344.299500       0.780475
    11357.183400       0.784132
    11370.096600       0.787767
    11383.039300       0.791380
    11396.011400       0.794969
    11409.013100       0.798536
    11422.044500       0.802079
    11435.105800       0.805598
    11448.196900       0.809093
    11461.318100       0.812564
    11474.469300       0.816009
    11487.650800       0.819430
    11500.862600       0.822825
    11514.104800       0.826194
    11527.377500       0.829538
    11540.680900       0.832854
    11554.015000       0.836145
    11567.380000       0.839408
    11580.775900       0.842644
    11594.202900       0.845852
    11607.661100       0.849032
    11621.150500       0.852185
    11634.671300       0.855308
    11648.223600       0.858403
    11661.807600       0.861469
    11675.423200       0.864506
    11689.070700       0.867514
    11702.750100       0.870491
    11716.461600       0.873439
    11730.205300       0.876356
    11743.981200       0.879243
    11757.789500       0.882099
    11771.630400       0.884924
    11785.503800       0.887717
    11799.410000       0.890480
    11813.349100       0.893210
    11827.321100       0.895909
    11841.326200       0.898576
    11855.364600       0.901210
    11869.436200       0.903812
    11883.541300       0.906381
    11897.680000       0.908918
    11911.852300       0.911421
    11926.058400       0.913891
    11940.298500       0.916328
    11954.572600       0.918731
    11968.880900       0.921100
    11983.223500       0.923436
    11997.600500       0.925737
    12012.012000       0.928005
    12026.458200       0.930238
    12040.939200       0.932436
    12055.455100       0.934600
    12070.006000       0.936730
    12084.592100       0.938824
    12099.213600       0.940884
    12113.870400       0.942908
    12128.562800       0.944898
    12143.290800       0.946852
    12158.054700       0.948771
    12172.854500       0.950654
    12187.690400       0.952502
    12202.562500       0.954315
    12217.471000       0.956092
    12232.415900       0.957833
    12247.397400       0.959539
    12262.415700       0.961209
    12277.470800       0.962843
    12292.563000       0.964441
    12307.692300       0.966004
    12322.858900       0.967530
    12338.062900       0.969021
    12353.304500       0.970476
    12368.583800       0.971895
    12383.900900       0.973278
    12399.256000       0.974626
    12414.649300       0.975937
    12430.080800       0.977213
    12445.550700       0.978453
    12461.059200       0.979657
    12476.606400       0.980825
    12492.192400       0.981958
    12507.817400       0.983055
    12523.481500       0.984116
    12539.185000       0.985143
    12554.927800       0.986133
    12570.710200       0.987089
    12586.532400       0.988009
    12602.394500       0.988894
    12618.296500       0.989743
    12634.238800       0.990558
    12650.221400       0.991339
    12666.244500       0.992084
    12682.308200       0.992795
    12698.412700       0.993471
    12714.558200       0.994113
    12730.744700       0.994720
    12746.972600       0.995294
    12763.241900       0.995834
    12779.552700       0.996340
    12795.905300       0.996812
    12812.299800       0.997251
    12828.736400       0.997656
    12845.215200       0.998029
    12861.736300       0.998368
    12878.300100       0.998675
    12894.906500       0.998950
    12911.555800       0.999192
    12928.248200       0.999402
    12944.983800       0.999580
    12961.762800       0.999726
    12978.585300       0.999841
    12995.451600       0.999925
    13012.361700       0.999978
    13029.316000       1.000000
    13046.314400       0.999992
    13063.357300       0.999953
    13080.444700       0.999884
    13097.576900       0.999786
    13114.754100       0.999658
    13131.976400       0.999501
    13149.243900       0.999315
    13166.556900       0.999100
    13183.915600       0.998857
    13201.320100       0.998586
    13218.770700       0.998287
    13236.267400       0.997960
    13253.810500       0.997607
    13271.400100       0.997226
    13289.036500       0.996819
    13306.719900       0.996386
    13324.450400       0.995927
    13342.228200       0.995442
    13360.053400       0.994932
    13377.926400       0.994397
    13395.847300       0.993837
    13413.816200       0.993254
    13431.833400       0.992646
    13449.899100       0.992014
    13468.013500       0.991360
    13486.176700       0.990682
    13504.388900       0.989982
    13522.650400       0.989260
    13540.961400       0.988516
    13559.322000       0.987751
    13577.732500       0.986965
    13596.193100       0.986157
    13614.703900       0.985330
    13633.265200       0.984483
    13651.877100       0.983616
    13670.540000       0.982730
    13689.253900       0.981825
    13708.019200       0.980902
    13726.836000       0.979961
    13745.704500       0.979003
    13764.624900       0.978027
    13783.597500       0.977034
    13802.622500       0.976025
    13821.700100       0.975000
    13840.830400       0.973960
    13860.013900       0.972904
    13879.250500       0.971834
    13898.540700       0.970749
    13917.884500       0.969650
    13937.282200       0.968538
    13956.734100       0.967412
    13976.240400       0.966274
    13995.801300       0.965124
    14015.417000       0.963961
    14035.087700       0.962788
    14054.813800       0.961603
    14074.595400       0.960408
    14094.432700       0.959202
    14114.326000       0.957987
    14134.275600       0.956762
    14154.281700       0.955528
    14174.344400       0.954286
    14194.464200       0.953036
    14214.641100       0.951778
    14234.875400       0.950513
    14255.167500       0.949241
    14275.517500       0.947963
    14295.925700       0.946678
    14316.392300       0.945388
    14336.917600       0.944093
    14357.501800       0.942793
    14378.145200       0.941489
    14398.848100       0.940180
    14419.610700       0.938869
    14440.433200       0.937554
    14461.316000       0.936236
    14482.259200       0.934916
    14503.263200       0.933594
    14524.328200       0.932271
    14545.454500       0.930947
    14566.642400       0.929622
    14587.892000       0.928296
    14609.203800       0.926971
    14630.577900       0.925646
    14652.014700       0.924322
    14673.514300       0.923000
    14695.077100       0.921679
    14716.703500       0.920360
    14738.393500       0.919043
    14760.147600       0.917729
    14781.966000       0.916418
    14803.849000       0.915111
    14825.796900       0.913808
    14847.809900       0.912509
    14869.888500       0.911214
    14892.032800       0.909924
    14914.243100       0.908640
    14936.519800       0.907361
    14958.863100       0.906088
    14981.273400       0.904822
    15003.750900       0.903562
    15026.296000       0.902309
    15048.909000       0.901063
    15071.590100       0.899825
    15094.339600       0.898594
    15117.158000       0.897372
    15140.045400       0.896159
    15163.002300       0.894954
    15186.028900       0.893758
    15209.125500       0.892571
    15232.292500       0.891395
    15255.530100       0.890228
    15278.838800       0.889071
    15302.218800       0.887924
    15325.670500       0.886789
    15349.194200       0.885664
    15372.790200       0.884550
    15396.458800       0.883448
    15420.200500       0.882357
    15444.015400       0.881279
    15467.904100       0.880212
    15491.866800       0.879157
    15515.903800       0.878115
    15540.015500       0.877086
    15564.202300       0.876069
    15588.464500       0.875066
    15612.802500       0.874075
    15637.216600       0.873098
    15661.707100       0.872135
    15686.274500       0.871185
    15710.919100       0.870249
    15735.641200       0.869327
    15760.441300       0.868419
    15785.319700       0.867525
    15810.276700       0.866645
    15835.312700       0.865780
    15860.428200       0.864929
    15885.623500       0.864093
    15910.899000       0.863271
    15936.255000       0.862465
    15961.691900       0.861672
    15987.210200       0.860895
    16012.810200       0.860133
    16038.492400       0.859385
    16064.257000       0.858652
    16090.104600       0.857934
    16116.035500       0.857231
    16142.050000       0.856543
    16168.148700       0.855870
    16194.332000       0.855212
    16220.600200       0.854569
    16246.953700       0.853940
    16273.393000       0.853326
    16299.918500       0.852727
    16326.530600       0.852143
    16353.229800       0.851573
    16380.016400       0.851017
    16406.890900       0.850476
    16433.853700       0.849949
    16460.905300       0.849436
    16488.046200       0.848937
    16515.276600       0.848452
    16542.597200       0.847981
    16570.008300       0.847523
    16597.510400       0.847079
    16625.103900       0.846648
    16652.789300       0.846230
    16680.567100       0.845825
    16708.437800       0.845432
    16736.401700       0.845052
    16764.459300       0.844683
    16792.611300       0.844327
    16820.857900       0.843983
    16849.199700       0.843649
    16877.637100       0.843327
    16906.170800       0.843016
    16934.801000       0.842716
    16963.528400       0.842425
    16992.353400       0.842145
    17021.276600       0.841874
    17050.298400       0.841613
    17079.419300       0.841360
    17108.639900       0.841116
    17137.960600       0.840881
    17167.382000       0.840653
    17196.904600       0.840432
    17226.528900       0.840219
    17256.255400       0.840013
    17286.084700       0.839812
