05  , Filter noaa_16_avhrr_05.flt
Number of data points:
261
Wavenumber (cm-1)   Filter response
      770.000000       0.000000
      770.500000       0.000000
      771.000000       0.001657
      771.500000       0.003087
      772.000000       0.001614
      772.500000       0.000000
      773.000000       0.000000
      773.500000       0.000000
      774.000000       0.000000
      774.500000       0.000000
      775.000000       0.000394
      775.500000       0.000000
      776.000000       0.000000
      776.500000       0.000000
      777.000000       0.001031
      777.500000       0.003481
      778.000000       0.004794
      778.500000       0.004742
      779.000000       0.003634
      779.500000       0.002090
      780.000000       0.001294
      780.500000       0.002128
      781.000000       0.003556
      781.500000       0.004056
      782.000000       0.003737
      782.500000       0.004368
      783.000000       0.006876
      783.500000       0.008957
      784.000000       0.007822
      784.500000       0.004729
      785.000000       0.004100
      785.500000       0.008243
      786.000000       0.013473
      786.500000       0.015527
      787.000000       0.014394
      787.500000       0.012584
      788.000000       0.011822
      788.500000       0.012286
      789.000000       0.014020
      789.500000       0.016741
      790.000000       0.020016
      790.500000       0.023721
      791.000000       0.028288
      791.500000       0.034234
      792.000000       0.041302
      792.500000       0.048847
      793.000000       0.056841
      793.500000       0.066507
      794.000000       0.079240
      794.500000       0.094936
      795.000000       0.112608
      795.500000       0.132255
      796.000000       0.155644
      796.500000       0.184933
      797.000000       0.219289
      797.500000       0.255939
      798.000000       0.293546
      798.500000       0.334502
      799.000000       0.381667
      799.500000       0.433028
      800.000000       0.481923
      800.500000       0.523450
      801.000000       0.560582
      801.500000       0.597825
      802.000000       0.634731
      802.500000       0.664976
      803.000000       0.682887
      803.500000       0.693292
      804.000000       0.704412
      804.500000       0.718958
      805.000000       0.730140
      805.500000       0.730687
      806.000000       0.721997
      806.500000       0.710337
      807.000000       0.700477
      807.500000       0.693469
      808.000000       0.689931
      808.500000       0.689386
      809.000000       0.690169
      809.500000       0.690826
      810.000000       0.690585
      810.500000       0.688826
      811.000000       0.685266
      811.500000       0.680421
      812.000000       0.674819
      812.500000       0.669777
      813.000000       0.667318
      813.500000       0.668543
      814.000000       0.669848
      814.500000       0.666352
      815.000000       0.657668
      815.500000       0.650693
      816.000000       0.652275
      816.500000       0.660772
      817.000000       0.669395
      817.500000       0.672997
      818.000000       0.672333
      818.500000       0.669245
      819.000000       0.665232
      819.500000       0.661658
      820.000000       0.659740
      820.500000       0.659004
      821.000000       0.657843
      821.500000       0.655016
      822.000000       0.650984
      822.500000       0.646624
      823.000000       0.643701
      823.500000       0.645922
      824.000000       0.657341
      824.500000       0.675362
      825.000000       0.691423
      825.500000       0.698055
      826.000000       0.696718
      826.500000       0.692054
      827.000000       0.687513
      827.500000       0.684328
      828.000000       0.683429
      828.500000       0.685296
      829.000000       0.689719
      829.500000       0.696607
      830.000000       0.704704
      830.500000       0.711831
      831.000000       0.716244
      831.500000       0.719118
      832.000000       0.722684
      832.500000       0.728307
      833.000000       0.734892
      833.500000       0.740970
      834.000000       0.745618
      834.500000       0.748682
      835.000000       0.750130
      835.500000       0.753684
      836.000000       0.766787
      836.500000       0.796034
      837.000000       0.832637
      837.500000       0.859902
      838.000000       0.865139
      838.500000       0.856013
      839.000000       0.845112
      839.500000       0.840818
      840.000000       0.842128
      840.500000       0.847026
      841.000000       0.854697
      841.500000       0.865835
      842.000000       0.881531
      842.500000       0.900522
      843.000000       0.919019
      843.500000       0.933437
      844.000000       0.943905
      844.500000       0.953007
      845.000000       0.962777
      845.500000       0.972532
      846.000000       0.980350
      846.500000       0.984615
      847.000000       0.985730
      847.500000       0.984434
      848.000000       0.981800
      848.500000       0.980614
      849.000000       0.984187
      849.500000       0.992875
      850.000000       1.000000
      850.500000       0.997784
      851.000000       0.985184
      851.500000       0.972485
      852.000000       0.970858
      852.500000       0.981015
      853.000000       0.990838
      853.500000       0.987930
      854.000000       0.971803
      854.500000       0.953311
      855.000000       0.942862
      855.500000       0.941608
      856.000000       0.943859
      856.500000       0.944499
      857.000000       0.942466
      857.500000       0.939081
      858.000000       0.935472
      858.500000       0.932039
      859.000000       0.928826
      859.500000       0.925850
      860.000000       0.922802
      860.500000       0.919217
      861.000000       0.914528
      861.500000       0.907925
      862.000000       0.898310
      862.500000       0.884631
      863.000000       0.867771
      863.500000       0.849148
      864.000000       0.829456
      864.500000       0.806805
      865.000000       0.777895
      865.500000       0.739770
      866.000000       0.694000
      866.500000       0.643187
      867.000000       0.589241
      867.500000       0.533319
      868.000000       0.476083
      868.500000       0.418636
      869.000000       0.362974
      869.500000       0.311881
      870.000000       0.267837
      870.500000       0.229240
      871.000000       0.193307
      871.500000       0.158104
      872.000000       0.125040
      872.500000       0.097353
      873.000000       0.077924
      873.500000       0.065012
      874.000000       0.055080
      874.500000       0.045265
      875.000000       0.035424
      875.500000       0.026825
      876.000000       0.020724
      876.500000       0.016854
      877.000000       0.014082
      877.500000       0.011449
      878.000000       0.008868
      878.500000       0.006899
      879.000000       0.006137
      879.500000       0.006357
      880.000000       0.006548
      880.500000       0.005695
      881.000000       0.003708
      881.500000       0.001584
      882.000000       0.000366
      882.500000       0.000435
      883.000000       0.001136
      883.500000       0.001782
      884.000000       0.001998
      884.500000       0.002016
      885.000000       0.002138
      885.500000       0.002511
      886.000000       0.002826
      886.500000       0.002666
      887.000000       0.001753
      887.500000       0.000580
      888.000000       0.000000
      888.500000       0.000243
      889.000000       0.001266
      889.500000       0.002066
      890.000000       0.001828
      890.500000       0.000718
      891.000000       0.000000
      891.500000       0.000000
      892.000000       0.000000
      892.500000       0.000473
      893.000000       0.001000
      893.500000       0.001022
      894.000000       0.000941
      894.500000       0.001222
      895.000000       0.002098
      895.500000       0.003059
      896.000000       0.003442
      896.500000       0.002737
      897.000000       0.001529
      897.500000       0.000782
      898.000000       0.001384
      898.500000       0.002976
      899.000000       0.004406
      899.500000       0.004524
      900.000000       0.003138
