13,   channel 13 SRF from file SRF_SSH-1_Delivery_220520/SRF_DMSP-F3_SSH_Chan13.asc received June 2022 from SPASCIA
Number of data points:
255
Wavenumber (cm-1)   Filter response
      712.700000       0.000930
      712.800000       0.001040
      712.900000       0.001160
      713.000000       0.001290
      713.100000       0.001430
      713.200000       0.001590
      713.300000       0.001770
      713.400000       0.001960
      713.500000       0.002180
      713.600000       0.002410
      713.700000       0.002670
      713.800000       0.002960
      713.900000       0.003270
      714.000000       0.003610
      714.100000       0.003980
      714.200000       0.004380
      714.300000       0.004830
      714.400000       0.005310
      714.500000       0.005840
      714.600000       0.006410
      714.700000       0.007040
      714.800000       0.007720
      714.900000       0.008460
      715.000000       0.009260
      715.100000       0.010120
      715.200000       0.011060
      715.300000       0.012080
      715.400000       0.013170
      715.500000       0.014360
      715.600000       0.015640
      715.700000       0.017010
      715.800000       0.018490
      715.900000       0.020080
      716.000000       0.021800
      716.100000       0.023630
      716.200000       0.025600
      716.300000       0.027710
      716.400000       0.029970
      716.500000       0.032380
      716.600000       0.034960
      716.700000       0.037700
      716.800000       0.040630
      716.900000       0.043750
      717.000000       0.047070
      717.100000       0.050600
      717.200000       0.054340
      717.300000       0.058310
      717.400000       0.062520
      717.500000       0.066970
      717.600000       0.071680
      717.700000       0.076650
      717.800000       0.081900
      717.900000       0.087430
      718.000000       0.093250
      718.100000       0.099370
      718.200000       0.110130
      718.300000       0.121900
      718.400000       0.134200
      718.500000       0.147040
      718.600000       0.160410
      718.700000       0.174310
      718.800000       0.188730
      718.900000       0.203660
      719.000000       0.219090
      719.100000       0.235000
      719.200000       0.251370
      719.300000       0.268200
      719.400000       0.285460
      719.500000       0.303120
      719.600000       0.321170
      719.700000       0.339580
      719.800000       0.358310
      719.900000       0.377350
      720.000000       0.396650
      720.100000       0.416190
      720.200000       0.435920
      720.300000       0.455830
      720.400000       0.475850
      720.500000       0.495970
      720.600000       0.511370
      720.700000       0.525680
      720.800000       0.540080
      720.900000       0.554550
      721.000000       0.569070
      721.100000       0.583640
      721.200000       0.598230
      721.300000       0.612840
      721.400000       0.627430
      721.500000       0.642000
      721.600000       0.656530
      721.700000       0.671000
      721.800000       0.685390
      721.900000       0.699680
      722.000000       0.713860
      722.100000       0.727900
      722.200000       0.741790
      722.300000       0.755510
      722.400000       0.769030
      722.500000       0.782340
      722.600000       0.795420
      722.700000       0.808250
      722.800000       0.820810
      722.900000       0.833080
      723.000000       0.845050
      723.100000       0.856690
      723.200000       0.867990
      723.300000       0.878930
      723.400000       0.889490
      723.500000       0.899650
      723.600000       0.909400
      723.700000       0.918730
      723.800000       0.927620
      723.900000       0.936040
      724.000000       0.944000
      724.100000       0.951470
      724.200000       0.958450
      724.300000       0.964920
      724.400000       0.970860
      724.500000       0.976280
      724.600000       0.981160
      724.700000       0.985490
      724.800000       0.989270
      724.900000       0.992490
      725.000000       0.995140
      725.100000       0.997220
      725.200000       0.998720
      725.300000       0.999650
      725.400000       1.000000
      725.500000       0.999770
      725.600000       0.998950
      725.700000       0.997570
      725.800000       0.995600
      725.900000       0.993060
      726.000000       0.989960
      726.100000       0.986290
      726.200000       0.982070
      726.300000       0.977300
      726.400000       0.971990
      726.500000       0.966150
      726.600000       0.959780
      726.700000       0.952910
      726.800000       0.945530
      726.900000       0.937670
      727.000000       0.929340
      727.100000       0.920540
      727.200000       0.911300
      727.300000       0.901630
      727.400000       0.891550
      727.500000       0.881070
      727.600000       0.870210
      727.700000       0.858980
      727.800000       0.847400
      727.900000       0.835500
      728.000000       0.823290
      728.100000       0.810780
      728.200000       0.798010
      728.300000       0.784970
      728.400000       0.771710
      728.500000       0.758230
      728.600000       0.744550
      728.700000       0.730690
      728.800000       0.716680
      728.900000       0.702530
      729.000000       0.688260
      729.100000       0.673890
      729.200000       0.659430
      729.300000       0.644910
      729.400000       0.630350
      729.500000       0.615760
      729.600000       0.601150
      729.700000       0.586560
      729.800000       0.571980
      729.900000       0.557450
      730.000000       0.542970
      730.100000       0.528560
      730.200000       0.514230
      730.300000       0.500000
      730.400000       0.479870
      730.500000       0.459820
      730.600000       0.439890
      730.700000       0.420120
      730.800000       0.400540
      730.900000       0.381190
      731.000000       0.362100
      731.100000       0.343300
      731.200000       0.324820
      731.300000       0.306700
      731.400000       0.288960
      731.500000       0.271620
      731.600000       0.254700
      731.700000       0.238240
      731.800000       0.222230
      731.900000       0.206710
      732.000000       0.191680
      732.100000       0.177160
      732.200000       0.163150
      732.300000       0.149670
      732.400000       0.136730
      732.500000       0.124310
      732.600000       0.112440
      732.700000       0.101100
      732.800000       0.094450
      732.900000       0.088570
      733.000000       0.082980
      733.100000       0.077680
      733.200000       0.072650
      733.300000       0.067890
      733.400000       0.063390
      733.500000       0.059140
      733.600000       0.055120
      733.700000       0.051330
      733.800000       0.047760
      733.900000       0.044400
      734.000000       0.041240
      734.100000       0.038280
      734.200000       0.035490
      734.300000       0.032880
      734.400000       0.030440
      734.500000       0.028150
      734.600000       0.026010
      734.700000       0.024010
      734.800000       0.022150
      734.900000       0.020420
      735.000000       0.018800
      735.100000       0.017300
      735.200000       0.015900
      735.300000       0.014610
      735.400000       0.013400
      735.500000       0.012290
      735.600000       0.011260
      735.700000       0.010310
      735.800000       0.009420
      735.900000       0.008610
      736.000000       0.007860
      736.100000       0.007170
      736.200000       0.006540
      736.300000       0.005950
      736.400000       0.005410
      736.500000       0.004920
      736.600000       0.004470
      736.700000       0.004060
      736.800000       0.003680
      736.900000       0.003330
      737.000000       0.003020
      737.100000       0.002730
      737.200000       0.002460
      737.300000       0.002220
      737.400000       0.002010
      737.500000       0.001810
      737.600000       0.001630
      737.700000       0.001460
      737.800000       0.001320
      737.900000       0.001180
      738.000000       0.001060
      738.100000       0.000950
