12,   from S2-SRF_COPE-GSEG-EOPG-TN-15-0007_3.0.xlsx (column S2B_SR_AV_B11)
Number of data points:
144
Wavenumber (cm-1)   Filter response
     5952.381000       0.000000
     5955.926100       0.000133
     5959.475600       0.000281
     5963.029200       0.000541
     5966.587100       0.000783
     5970.149300       0.001123
     5973.715700       0.001501
     5977.286300       0.001991
     5980.861200       0.002463
     5984.440500       0.003359
     5988.024000       0.004583
     5991.611700       0.006316
     5995.203800       0.008789
     5998.800200       0.012463
     6002.401000       0.018580
     6006.006000       0.029060
     6009.615400       0.046528
     6013.229100       0.073513
     6016.847200       0.115843
     6020.469600       0.176281
     6024.096400       0.256913
     6027.727500       0.353764
     6031.363100       0.457566
     6035.003000       0.565755
     6038.647300       0.670393
     6042.296100       0.756843
     6045.949200       0.813526
     6049.606800       0.840540
     6053.268800       0.848702
     6056.935200       0.847025
     6060.606100       0.843448
     6064.281400       0.844206
     6067.961200       0.850890
     6071.645400       0.864272
     6075.334100       0.884087
     6079.027400       0.908002
     6082.725100       0.932369
     6086.427300       0.953187
     6090.134000       0.970157
     6093.845200       0.982102
     6097.561000       0.989392
     6101.281300       0.992201
     6105.006100       0.991723
     6108.735500       0.989562
     6112.469400       0.986001
     6116.208000       0.982465
     6119.951000       0.980263
     6123.698700       0.979473
     6127.451000       0.979817
     6131.207800       0.982153
     6134.969300       0.985798
     6138.735400       0.989674
     6142.506100       0.993294
     6146.281500       0.996642
     6150.061500       0.999036
     6153.846200       1.000000
     6157.635500       0.999061
     6161.429500       0.996436
     6165.228100       0.992663
     6169.031500       0.988085
     6172.839500       0.982971
     6176.652300       0.978553
     6180.469700       0.975244
     6184.291900       0.972383
     6188.118800       0.970436
     6191.950500       0.970536
     6195.786900       0.971948
     6199.628000       0.973546
     6203.473900       0.976805
     6207.324600       0.981102
     6211.180100       0.984908
     6215.040400       0.988592
     6218.905500       0.992102
     6222.775400       0.994773
     6226.650100       0.995903
     6230.529600       0.995898
     6234.414000       0.994805
     6238.303200       0.992332
     6242.197300       0.988659
     6246.096200       0.985209
     6250.000000       0.981999
     6253.908700       0.978986
     6257.822300       0.976805
     6261.740800       0.975709
     6265.664200       0.975393
     6269.592500       0.976263
     6273.525700       0.978058
     6277.463900       0.979392
     6281.407000       0.981459
     6285.355100       0.983373
     6289.308200       0.983920
     6293.266200       0.984404
     6297.229200       0.984837
     6301.197200       0.983514
     6305.170200       0.981011
     6309.148300       0.978945
     6313.131300       0.976139
     6317.119400       0.972736
     6321.112500       0.970522
     6325.110700       0.969697
     6329.113900       0.969095
     6333.122200       0.969740
     6337.135600       0.971481
     6341.154100       0.973393
     6345.177700       0.975338
     6349.206300       0.976890
     6353.240200       0.977796
     6357.279100       0.977057
     6361.323200       0.973065
     6365.372400       0.963893
     6369.426800       0.946609
     6373.486300       0.916284
     6377.551000       0.869867
     6381.620900       0.803515
     6385.696000       0.714558
     6389.776400       0.606204
     6393.861900       0.490210
     6397.952700       0.380880
     6402.048700       0.281513
     6406.149900       0.200761
     6410.256400       0.139743
     6414.368200       0.094492
     6418.485200       0.062905
     6422.607600       0.041389
     6426.735200       0.026703
     6430.868200       0.017131
     6435.006400       0.011246
     6439.150000       0.007573
     6443.299000       0.005217
     6447.453300       0.003682
     6451.612900       0.002661
     6455.777900       0.001959
     6459.948300       0.001429
     6464.124100       0.001077
     6468.305300       0.000822
     6472.491900       0.000652
     6476.683900       0.000460
     6480.881400       0.000344
     6485.084300       0.000273
     6489.292700       0.000170
     6493.506500       0.000081
     6497.725800       0.000027
     6501.950600       0.000012
     6506.180900       0.000000
