122,   122, MVIRI VIS channel from srf_MET5_2006168_2006169_1801-Release_S10EL_10.dat
Number of data points:
806
Wavenumber (cm-1)   Filter response
     8350.730700       0.000000
     8357.710000       0.000000
     8364.701000       0.000000
     8371.703600       0.000002
     8378.718100       0.000004
     8385.744200       0.000009
     8392.782200       0.000017
     8399.832000       0.000028
     8406.893700       0.000043
     8413.967200       0.000062
     8421.052600       0.000086
     8428.150000       0.000115
     8435.259400       0.000151
     8442.380800       0.000192
     8449.514200       0.000240
     8456.659600       0.000295
     8463.817200       0.000358
     8470.986900       0.000429
     8478.168700       0.000508
     8485.362700       0.000596
     8492.569000       0.000692
     8499.787500       0.000798
     8507.018300       0.000914
     8514.261400       0.001040
     8521.516800       0.001176
     8528.784600       0.001323
     8536.064900       0.001481
     8543.357500       0.001650
     8550.662700       0.001830
     8557.980300       0.002022
     8565.310500       0.002226
     8572.653200       0.002442
     8580.008600       0.002671
     8587.376600       0.002913
     8594.757200       0.003167
     8602.150500       0.003434
     8609.556600       0.003715
     8616.975400       0.004010
     8624.407100       0.004318
     8631.851500       0.004640
     8639.308900       0.004976
     8646.779100       0.005326
     8654.262200       0.005691
     8661.758300       0.006071
     8669.267400       0.006465
     8676.789600       0.006874
     8684.324800       0.007299
     8691.873100       0.007738
     8699.434500       0.008194
     8707.009100       0.008664
     8714.596900       0.009151
     8722.198000       0.009653
     8729.812300       0.010171
     8737.439900       0.010706
     8745.080900       0.011257
     8752.735200       0.011824
     8760.403000       0.012407
     8768.084200       0.013008
     8775.778900       0.013625
     8783.487000       0.014259
     8791.208800       0.014910
     8798.944100       0.015578
     8806.693100       0.016264
     8814.455700       0.016967
     8822.232000       0.017687
     8830.022100       0.018425
     8837.825900       0.019181
     8845.643500       0.019954
     8853.475000       0.020746
     8861.320300       0.021555
     8869.179600       0.022383
     8877.052800       0.023229
     8884.940000       0.024094
     8892.841300       0.024977
     8900.756600       0.025878
     8908.686000       0.026798
     8916.629500       0.027737
     8924.587200       0.028695
     8932.559200       0.029672
     8940.545400       0.030669
     8948.545900       0.031684
     8956.560700       0.032719
     8964.589900       0.033773
     8972.633500       0.034846
     8980.691500       0.035939
     8988.764000       0.037053
     8996.851100       0.038185
     9004.952700       0.039338
     9013.068900       0.040511
     9021.199800       0.041704
     9029.345400       0.042917
     9037.505600       0.044150
     9045.680700       0.045404
     9053.870500       0.046679
     9062.075200       0.047974
     9070.294800       0.049289
     9078.529300       0.050626
     9086.778700       0.051983
     9095.043200       0.053362
     9103.322700       0.054761
     9111.617300       0.056182
     9119.927000       0.057624
     9128.251900       0.059088
     9136.592100       0.060572
     9144.947400       0.062079
     9153.318100       0.063607
     9161.704100       0.065156
     9170.105500       0.066728
     9178.522300       0.068321
     9186.954500       0.069937
     9195.402300       0.071574
     9203.865600       0.073234
     9212.344500       0.074916
     9220.839100       0.076620
     9229.349300       0.078347
     9237.875300       0.080096
     9246.417000       0.081867
     9254.974500       0.083661
     9263.547900       0.085478
     9272.137200       0.087318
     9280.742500       0.089181
     9289.363700       0.091066
     9298.000900       0.092975
     9306.654300       0.094906
     9315.323700       0.096860
     9324.009300       0.098838
     9332.711200       0.100839
     9341.429200       0.102863
     9350.163600       0.104911
     9358.914400       0.106982
     9367.681500       0.109076
     9376.465100       0.111194
     9385.265100       0.113335
     9394.081700       0.115501
     9402.914900       0.117689
     9411.764700       0.119901
     9420.631200       0.122138
     9429.514400       0.124397
     9438.414300       0.126681
     9447.331100       0.128988
     9456.264800       0.131319
     9465.215300       0.133674
     9474.182900       0.136053
     9483.167400       0.138456
     9492.169000       0.140882
     9501.187600       0.143333
     9510.223500       0.145808
     9519.276500       0.148306
     9528.346800       0.150829
     9537.434400       0.153375
     9546.539400       0.155945
     9555.661700       0.158540
     9564.801500       0.161158
     9573.958800       0.163800
     9583.133700       0.166466
     9592.326100       0.169156
     9601.536200       0.171869
     9610.764100       0.174607
     9620.009600       0.177368
     9629.273000       0.180153
     9638.554200       0.182962
     9647.853400       0.185795
     9657.170400       0.188651
     9666.505600       0.191530
     9675.858700       0.194434
     9685.230000       0.197360
     9694.619500       0.200311
     9704.027200       0.203284
     9713.453100       0.206281
     9722.897400       0.209301
     9732.360100       0.212344
     9741.841200       0.215410
     9751.340800       0.218499
     9760.859000       0.221612
     9770.395700       0.224747
     9779.951100       0.227904
     9789.525200       0.231084
     9799.118100       0.234287
     9808.729800       0.237512
     9818.360300       0.240760
     9828.009800       0.244029
     9837.678300       0.247321
     9847.365800       0.250634
     9857.072400       0.253969
     9866.798200       0.257327
     9876.543200       0.260705
     9886.307500       0.264105
     9896.091000       0.267526
     9905.894000       0.270968
     9915.716400       0.274431
     9925.558300       0.277914
     9935.419800       0.281419
     9945.300800       0.284944
     9955.201600       0.288489
     9965.122100       0.292054
     9975.062300       0.295639
     9985.022500       0.299243
     9995.002500       0.302868
    10005.002500       0.306511
    10015.022500       0.310174
    10025.062700       0.313855
    10035.122900       0.317556
    10045.203400       0.321274
    10055.304200       0.325012
    10065.425300       0.328767
    10075.566800       0.332540
    10085.728700       0.336330
    10095.911200       0.340138
    10106.114200       0.343963
    10116.337900       0.347805
    10126.582300       0.351664
    10136.847400       0.355539
    10147.133400       0.359430
    10157.440300       0.363338
    10167.768200       0.367260
    10178.117000       0.371198
    10188.487000       0.375152
    10198.878100       0.379120
    10209.290500       0.383102
    10219.724100       0.387099
    10230.179000       0.391110
    10240.655400       0.395135
    10251.153300       0.399173
    10261.672700       0.403224
    10272.213700       0.407288
    10282.776300       0.411365
    10293.360800       0.415453
    10303.967000       0.419554
    10314.595200       0.423666
    10325.245200       0.427790
    10335.917300       0.431924
    10346.611500       0.436069
    10357.327800       0.440224
    10368.066400       0.444390
    10378.827200       0.448564
    10389.610400       0.452749
    10400.416000       0.456942
    10411.244100       0.461144
    10422.094800       0.465354
    10432.968200       0.469572
    10443.864200       0.473797
    10454.783100       0.478030
    10465.724800       0.482270
    10476.689400       0.486516
    10487.677000       0.490768
    10498.687700       0.495026
    10509.721500       0.499290
    10520.778500       0.503558
    10531.858900       0.507831
    10542.962600       0.512109
    10554.089700       0.516390
    10565.240400       0.520675
    10576.414600       0.524963
    10587.612500       0.529254
    10598.834100       0.533547
    10610.079600       0.537842
    10621.348900       0.542139
    10632.642200       0.546437
    10643.959600       0.550736
    10655.301000       0.555035
    10666.666700       0.559334
    10678.056600       0.563633
    10689.470900       0.567931
    10700.909600       0.572228
    10712.372800       0.576524
    10723.860600       0.580817
    10735.373100       0.585108
    10746.910300       0.589396
    10758.472300       0.593681
    10770.059200       0.597963
    10781.671200       0.602240
    10793.308100       0.606513
    10804.970300       0.610782
    10816.657700       0.615045
    10828.370300       0.619302
    10840.108400       0.623554
    10851.871900       0.627798
    10863.661100       0.632037
    10875.475800       0.636267
    10887.316300       0.640490
    10899.182600       0.644705
    10911.074700       0.648912
    10922.992900       0.653110
    10934.937100       0.657298
    10946.907500       0.661476
    10958.904100       0.665644
    10970.927000       0.669802
    10982.976400       0.673949
    10995.052200       0.678084
    11007.154700       0.682208
    11019.283700       0.686319
    11031.439600       0.690418
    11043.622300       0.694504
    11055.832000       0.698576
    11068.068600       0.702635
    11080.332400       0.706679
    11092.623400       0.710709
    11104.941700       0.714724
    11117.287400       0.718723
    11129.660500       0.722706
    11142.061300       0.726674
    11154.489700       0.730624
    11166.945800       0.734558
    11179.429800       0.738474
    11191.941800       0.742373
    11204.481800       0.746253
    11217.049900       0.750115
    11229.646300       0.753957
    11242.270900       0.757781
    11254.924000       0.761585
    11267.605600       0.765369
    11280.315800       0.769132
    11293.054800       0.772875
    11305.822500       0.776596
    11318.619100       0.780296
    11331.444800       0.783974
    11344.299500       0.787630
    11357.183400       0.791263
    11370.096600       0.794873
    11383.039300       0.798460
    11396.011400       0.802024
    11409.013100       0.805563
    11422.044500       0.809078
    11435.105800       0.812568
    11448.196900       0.816034
    11461.318100       0.819473
    11474.469300       0.822888
    11487.650800       0.826276
    11500.862600       0.829638
    11514.104800       0.832974
    11527.377500       0.836282
    11540.680900       0.839563
    11554.015000       0.842817
    11567.380000       0.846043
    11580.775900       0.849241
    11594.202900       0.852410
    11607.661100       0.855551
    11621.150500       0.858663
    11634.671300       0.861745
    11648.223600       0.864798
    11661.807600       0.867821
    11675.423200       0.870815
    11689.070700       0.873777
    11702.750100       0.876710
    11716.461600       0.879611
    11730.205300       0.882481
    11743.981200       0.885321
    11757.789500       0.888128
    11771.630400       0.890904
    11785.503800       0.893647
    11799.410000       0.896359
    11813.349100       0.899038
    11827.321100       0.901685
    11841.326200       0.904298
    11855.364600       0.906879
    11869.436200       0.909426
    11883.541300       0.911940
    11897.680000       0.914420
    11911.852300       0.916867
    11926.058400       0.919279
    11940.298500       0.921658
    11954.572600       0.924002
    11968.880900       0.926312
    11983.223500       0.928587
    11997.600500       0.930827
    12012.012000       0.933033
    12026.458200       0.935204
    12040.939200       0.937339
    12055.455100       0.939439
    12070.006000       0.941504
    12084.592100       0.943534
    12099.213600       0.945527
    12113.870400       0.947485
    12128.562800       0.949408
    12143.290800       0.951294
    12158.054700       0.953145
    12172.854500       0.954960
    12187.690400       0.956738
    12202.562500       0.958481
    12217.471000       0.960187
    12232.415900       0.961857
    12247.397400       0.963491
    12262.415700       0.965088
    12277.470800       0.966649
    12292.563000       0.968174
    12307.692300       0.969662
    12322.858900       0.971114
    12338.062900       0.972530
    12353.304500       0.973909
    12368.583800       0.975252
    12383.900900       0.976558
    12399.256000       0.977828
    12414.649300       0.979062
    12430.080800       0.980259
    12445.550700       0.981420
    12461.059200       0.982545
    12476.606400       0.983634
    12492.192400       0.984687
    12507.817400       0.985703
    12523.481500       0.986684
    12539.185000       0.987629
    12554.927800       0.988538
    12570.710200       0.989411
    12586.532400       0.990248
    12602.394500       0.991050
    12618.296500       0.991817
    12634.238800       0.992548
    12650.221400       0.993244
    12666.244500       0.993904
    12682.308200       0.994530
    12698.412700       0.995121
    12714.558200       0.995678
    12730.744700       0.996200
    12746.972600       0.996687
    12763.241900       0.997140
    12779.552700       0.997559
    12795.905300       0.997945
    12812.299800       0.998296
    12828.736400       0.998614
    12845.215200       0.998899
    12861.736300       0.999150
    12878.300100       0.999369
    12894.906500       0.999555
    12911.555800       0.999708
    12928.248200       0.999829
    12944.983800       0.999918
    12961.762800       0.999975
    12978.585300       1.000000
    12995.451600       0.999994
    13012.361700       0.999957
    13029.316000       0.999888
    13046.314400       0.999790
    13063.357300       0.999660
    13080.444700       0.999501
    13097.576900       0.999312
    13114.754100       0.999093
    13131.976400       0.998845
    13149.243900       0.998567
    13166.556900       0.998261
    13183.915600       0.997927
    13201.320100       0.997564
    13218.770700       0.997174
    13236.267400       0.996756
    13253.810500       0.996310
    13271.400100       0.995838
    13289.036500       0.995339
    13306.719900       0.994814
    13324.450400       0.994263
    13342.228200       0.993686
    13360.053400       0.993084
    13377.926400       0.992457
    13395.847300       0.991805
    13413.816200       0.991129
    13431.833400       0.990429
    13449.899100       0.989705
    13468.013500       0.988959
    13486.176700       0.988189
    13504.388900       0.987397
    13522.650400       0.986583
    13540.961400       0.985747
    13559.322000       0.984889
    13577.732500       0.984011
    13596.193100       0.983112
    13614.703900       0.982193
    13633.265200       0.981254
    13651.877100       0.980295
    13670.540000       0.979317
    13689.253900       0.978321
    13708.019200       0.977306
    13726.836000       0.976274
    13745.704500       0.975224
    13764.624900       0.974156
    13783.597500       0.973072
    13802.622500       0.971972
    13821.700100       0.970856
    13840.830400       0.969724
    13860.013900       0.968578
    13879.250500       0.967416
    13898.540700       0.966241
    13917.884500       0.965051
    13937.282200       0.963849
    13956.734100       0.962633
    13976.240400       0.961404
    13995.801300       0.960164
    14015.417000       0.958911
    14035.087700       0.957648
    14054.813800       0.956373
    14074.595400       0.955088
    14094.432700       0.953793
    14114.326000       0.952488
    14134.275600       0.951174
    14154.281700       0.949851
    14174.344400       0.948520
    14194.464200       0.947180
    14214.641100       0.945834
    14234.875400       0.944480
    14255.167500       0.943119
    14275.517500       0.941752
    14295.925700       0.940379
    14316.392300       0.939001
    14336.917600       0.937618
    14357.501800       0.936230
    14378.145200       0.934837
    14398.848100       0.933441
    14419.610700       0.932042
    14440.433200       0.930640
    14461.316000       0.929235
    14482.259200       0.927827
    14503.263200       0.926418
    14524.328200       0.925008
    14545.454500       0.923597
    14566.642400       0.922185
    14587.892000       0.920772
    14609.203800       0.919360
    14630.577900       0.917949
    14652.014700       0.916539
    14673.514300       0.915130
    14695.077100       0.913722
    14716.703500       0.912317
    14738.393500       0.910914
    14760.147600       0.909514
    14781.966000       0.908117
    14803.849000       0.906724
    14825.796900       0.905335
    14847.809900       0.903950
    14869.888500       0.902570
    14892.032800       0.901194
    14914.243100       0.899824
    14936.519800       0.898460
    14958.863100       0.897101
    14981.273400       0.895749
    15003.750900       0.894404
    15026.296000       0.893065
    15048.909000       0.891734
    15071.590100       0.890410
    15094.339600       0.889094
    15117.158000       0.887787
    15140.045400       0.886488
    15163.002300       0.885197
    15186.028900       0.883916
    15209.125500       0.882644
    15232.292500       0.881382
    15255.530100       0.880129
    15278.838800       0.878887
    15302.218800       0.877655
    15325.670500       0.876433
    15349.194200       0.875223
    15372.790200       0.874023
    15396.458800       0.872835
    15420.200500       0.871659
    15444.015400       0.870494
    15467.904100       0.869341
    15491.866800       0.868200
    15515.903800       0.867072
    15540.015500       0.865956
    15564.202300       0.864853
    15588.464500       0.863763
    15612.802500       0.862685
    15637.216600       0.861622
    15661.707100       0.860571
    15686.274500       0.859534
    15710.919100       0.858511
    15735.641200       0.857501
    15760.441300       0.856505
    15785.319700       0.855523
    15810.276700       0.854556
    15835.312700       0.853602
    15860.428200       0.852663
    15885.623500       0.851738
    15910.899000       0.850828
    15936.255000       0.849932
    15961.691900       0.849051
    15987.210200       0.848184
    16012.810200       0.847332
    16038.492400       0.846494
    16064.257000       0.845672
    16090.104600       0.844864
    16116.035500       0.844070
    16142.050000       0.843291
    16168.148700       0.842527
    16194.332000       0.841778
    16220.600200       0.841043
    16246.953700       0.840322
    16273.393000       0.839616
    16299.918500       0.838925
    16326.530600       0.838247
    16353.229800       0.837584
    16380.016400       0.836936
    16406.890900       0.836301
    16433.853700       0.835680
    16460.905300       0.835073
    16488.046200       0.834480
    16515.276600       0.833900
    16542.597200       0.833334
    16570.008300       0.832781
    16597.510400       0.832241
    16625.103900       0.831714
    16652.789300       0.831199
    16680.567100       0.830697
    16708.437800       0.830208
    16736.401700       0.829730
    16764.459300       0.829264
    16792.611300       0.828810
    16820.857900       0.828367
    16849.199700       0.827936
    16877.637100       0.827515
    16906.170800       0.827105
    16934.801000       0.826705
    16963.528400       0.826314
    16992.353400       0.825934
    17021.276600       0.825563
    17050.298400       0.825201
    17079.419300       0.824847
    17108.639900       0.824502
    17137.960600       0.824165
    17167.382000       0.823835
    17196.904600       0.823512
    17226.528900       0.823197
    17256.255400       0.822887
    17286.084700       0.822584
