   3  ,noaa_11_hirs_03.flt
Number of data points:
101
Wavenumber (cm-1)   Filter response
      660.010000       0.000000
      660.600000       0.006052
      661.200000       0.006118
      661.790000       0.008183
      662.390000       0.006380
      662.980000       0.006452
      663.570000       0.006588
      664.170000       0.006726
      664.760000       0.006868
      665.360000       0.005131
      665.950000       0.007291
      666.540000       0.007439
      667.140000       0.005775
      667.730000       0.005914
      668.320000       0.007954
      668.920000       0.010019
      669.510000       0.011658
      670.100000       0.010977
      670.690000       0.011027
      671.290000       0.009086
      671.890000       0.011282
      672.480000       0.011483
      673.080000       0.014229
      673.680000       0.015655
      674.280000       0.018120
      674.870000       0.020131
      675.470000       0.023494
      676.070000       0.030203
      676.670000       0.036083
      677.270000       0.042800
      677.870000       0.055590
      678.470000       0.074016
      679.070000       0.099681
      679.680000       0.128930
      680.220000       0.174040
      680.820000       0.225220
      681.420000       0.283910
      681.990000       0.348690
      682.590000       0.413030
      683.160000       0.480860
      683.750000       0.534400
      684.340000       0.600510
      684.930000       0.668390
      685.520000       0.724910
      686.100000       0.787620
      686.690000       0.850960
      687.280000       0.903980
      687.850000       0.950200
      688.440000       0.981260
      689.030000       1.000000
      689.630000       0.992750
      690.260000       0.971010
      690.870000       0.942100
      691.470000       0.911780
      692.080000       0.878160
      692.690000       0.849190
      693.340000       0.818350
      693.940000       0.776970
      694.530000       0.724800
      695.180000       0.656450
      695.770000       0.561250
      696.410000       0.457220
      696.970000       0.351430
      697.640000       0.262650
      698.210000       0.188040
      698.880000       0.140510
      699.480000       0.103100
      700.050000       0.080129
      700.660000       0.059434
      701.270000       0.046498
      701.890000       0.035627
      702.500000       0.031278
      703.100000       0.025922
      703.710000       0.024848
      704.320000       0.021170
      704.930000       0.021448
      705.530000       0.021728
      706.140000       0.022011
      706.750000       0.022297
      707.360000       0.019881
      707.960000       0.018160
      708.570000       0.015898
      709.180000       0.015534
      709.780000       0.018194
      710.400000       0.016444
      711.000000       0.016496
      711.600000       0.015473
      712.200000       0.016527
      712.800000       0.016558
      713.400000       0.016590
      714.000000       0.016621
      714.600000       0.011977
      715.200000       0.012005
      715.800000       0.012061
      716.400000       0.012119
      717.000000       0.012184
      717.600000       0.015194
      718.200000       0.013098
      718.800000       0.016151
      719.400000       0.013502
      720.000000       0.000000
