6,   6, MVIRI VIS channel from srf_MET3_1989213_1989214_1801-Release_S10EE_10.dat
Number of data points:
743
Wavenumber (cm-1)   Filter response
     8814.455700       0.000000
     8822.232000       0.000000
     8830.022100       0.000701
     8837.825900       0.002941
     8845.643500       0.005201
     8853.475000       0.007479
     8861.320300       0.009774
     8869.179600       0.012086
     8877.052800       0.014412
     8884.940000       0.016753
     8892.841300       0.019106
     8900.756600       0.021471
     8908.686000       0.023848
     8916.629500       0.026235
     8924.587200       0.028632
     8932.559200       0.031038
     8940.545400       0.033452
     8948.545900       0.035874
     8956.560700       0.038303
     8964.589900       0.040739
     8972.633500       0.043181
     8980.691500       0.045629
     8988.764000       0.048082
     8996.851100       0.050539
     9004.952700       0.053002
     9013.068900       0.055468
     9021.199800       0.057939
     9029.345400       0.060414
     9037.505600       0.062892
     9045.680700       0.065373
     9053.870500       0.067858
     9062.075200       0.070345
     9070.294800       0.072836
     9078.529300       0.075329
     9086.778700       0.077826
     9095.043200       0.080326
     9103.322700       0.082828
     9111.617300       0.085333
     9119.927000       0.087841
     9128.251900       0.090352
     9136.592100       0.092866
     9144.947400       0.095383
     9153.318100       0.097904
     9161.704100       0.100428
     9170.105500       0.102955
     9178.522300       0.105487
     9186.954500       0.108021
     9195.402300       0.110561
     9203.865600       0.113104
     9212.344500       0.115652
     9220.839100       0.118204
     9229.349300       0.120761
     9237.875300       0.123324
     9246.417000       0.125892
     9254.974500       0.128465
     9263.547900       0.131045
     9272.137200       0.133630
     9280.742500       0.136223
     9289.363700       0.138821
     9298.000900       0.141427
     9306.654300       0.144040
     9315.323700       0.146661
     9324.009300       0.149289
     9332.711200       0.151926
     9341.429200       0.154571
     9350.163600       0.157225
     9358.914400       0.159888
     9367.681500       0.162560
     9376.465100       0.165242
     9385.265100       0.167934
     9394.081700       0.170636
     9402.914900       0.173349
     9411.764700       0.176073
     9420.631200       0.178808
     9429.514400       0.181554
     9438.414300       0.184312
     9447.331100       0.187082
     9456.264800       0.189864
     9465.215300       0.192659
     9474.182900       0.195467
     9483.167400       0.198288
     9492.169000       0.201123
     9501.187600       0.203971
     9510.223500       0.206833
     9519.276500       0.209709
     9528.346800       0.212600
     9537.434400       0.215506
     9546.539400       0.218426
     9555.661700       0.221362
     9564.801500       0.224313
     9573.958800       0.227280
     9583.133700       0.230262
     9592.326100       0.233261
     9601.536200       0.236276
     9610.764100       0.239307
     9620.009600       0.242355
     9629.273000       0.245419
     9638.554200       0.248501
     9647.853400       0.251599
     9657.170400       0.254715
     9666.505600       0.257848
     9675.858700       0.260999
     9685.230000       0.264168
     9694.619500       0.267354
     9704.027200       0.270558
     9713.453100       0.273780
     9722.897400       0.277020
     9732.360100       0.280278
     9741.841200       0.283555
     9751.340800       0.286850
     9760.859000       0.290163
     9770.395700       0.293495
     9779.951100       0.296845
     9789.525200       0.300213
     9799.118100       0.303601
     9808.729800       0.307006
     9818.360300       0.310430
     9828.009800       0.313872
     9837.678300       0.317333
     9847.365800       0.320813
     9857.072400       0.324311
     9866.798200       0.327827
     9876.543200       0.331361
     9886.307500       0.334914
     9896.091000       0.338485
     9905.894000       0.342074
     9915.716400       0.345682
     9925.558300       0.349306
     9935.419800       0.352949
     9945.300800       0.356610
     9955.201600       0.360288
     9965.122100       0.363984
     9975.062300       0.367697
     9985.022500       0.371427
     9995.002500       0.375174
    10005.002500       0.378938
    10015.022500       0.382718
    10025.062700       0.386515
    10035.122900       0.390329
    10045.203400       0.394158
    10055.304200       0.398004
    10065.425300       0.401864
    10075.566800       0.405741
    10085.728700       0.409632
    10095.911200       0.413539
    10106.114200       0.417460
    10116.337900       0.421396
    10126.582300       0.425346
    10136.847400       0.429310
    10147.133400       0.433288
    10157.440300       0.437279
    10167.768200       0.441283
    10178.117000       0.445300
    10188.487000       0.449329
    10198.878100       0.453371
    10209.290500       0.457424
    10219.724100       0.461489
    10230.179000       0.465566
    10240.655400       0.469653
    10251.153300       0.473751
    10261.672700       0.477859
    10272.213700       0.481977
    10282.776300       0.486104
    10293.360800       0.490241
    10303.967000       0.494386
    10314.595200       0.498540
    10325.245200       0.502702
    10335.917300       0.506871
    10346.611500       0.511048
    10357.327800       0.515232
    10368.066400       0.519422
    10378.827200       0.523618
    10389.610400       0.527820
    10400.416000       0.532028
    10411.244100       0.536240
    10422.094800       0.540456
    10432.968200       0.544677
    10443.864200       0.548901
    10454.783100       0.553129
    10465.724800       0.557359
    10476.689400       0.561592
    10487.677000       0.565826
    10498.687700       0.570062
    10509.721500       0.574299
    10520.778500       0.578537
    10531.858900       0.582775
    10542.962600       0.587013
    10554.089700       0.591250
    10565.240400       0.595485
    10576.414600       0.599719
    10587.612500       0.603951
    10598.834100       0.608181
    10610.079600       0.612407
    10621.348900       0.616630
    10632.642200       0.620850
    10643.959600       0.625065
    10655.301000       0.629275
    10666.666700       0.633479
    10678.056600       0.637678
    10689.470900       0.641871
    10700.909600       0.646058
    10712.372800       0.650237
    10723.860600       0.654408
    10735.373100       0.658572
    10746.910300       0.662727
    10758.472300       0.666873
    10770.059200       0.671010
    10781.671200       0.675137
    10793.308100       0.679254
    10804.970300       0.683360
    10816.657700       0.687454
    10828.370300       0.691537
    10840.108400       0.695608
    10851.871900       0.699667
    10863.661100       0.703712
    10875.475800       0.707744
    10887.316300       0.711762
    10899.182600       0.715766
    10911.074700       0.719755
    10922.992900       0.723729
    10934.937100       0.727687
    10946.907500       0.731629
    10958.904100       0.735555
    10970.927000       0.739464
    10982.976400       0.743355
    10995.052200       0.747228
    11007.154700       0.751084
    11019.283700       0.754920
    11031.439600       0.758738
    11043.622300       0.762536
    11055.832000       0.766315
    11068.068600       0.770073
    11080.332400       0.773811
    11092.623400       0.777527
    11104.941700       0.781222
    11117.287400       0.784895
    11129.660500       0.788546
    11142.061300       0.792175
    11154.489700       0.795780
    11166.945800       0.799362
    11179.429800       0.802921
    11191.941800       0.806455
    11204.481800       0.809965
    11217.049900       0.813451
    11229.646300       0.816911
    11242.270900       0.820345
    11254.924000       0.823754
    11267.605600       0.827137
    11280.315800       0.830493
    11293.054800       0.833822
    11305.822500       0.837125
    11318.619100       0.840400
    11331.444800       0.843647
    11344.299500       0.846866
    11357.183400       0.850056
    11370.096600       0.853219
    11383.039300       0.856352
    11396.011400       0.859455
    11409.013100       0.862530
    11422.044500       0.865574
    11435.105800       0.868589
    11448.196900       0.871573
    11461.318100       0.874526
    11474.469300       0.877449
    11487.650800       0.880341
    11500.862600       0.883201
    11514.104800       0.886030
    11527.377500       0.888827
    11540.680900       0.891592
    11554.015000       0.894324
    11567.380000       0.897025
    11580.775900       0.899692
    11594.202900       0.902327
    11607.661100       0.904929
    11621.150500       0.907497
    11634.671300       0.910033
    11648.223600       0.912534
    11661.807600       0.915002
    11675.423200       0.917435
    11689.070700       0.919835
    11702.750100       0.922201
    11716.461600       0.924532
    11730.205300       0.926828
    11743.981200       0.929090
    11757.789500       0.931317
    11771.630400       0.933509
    11785.503800       0.935666
    11799.410000       0.937788
    11813.349100       0.939875
    11827.321100       0.941926
    11841.326200       0.943942
    11855.364600       0.945922
    11869.436200       0.947867
    11883.541300       0.949776
    11897.680000       0.951649
    11911.852300       0.953487
    11926.058400       0.955288
    11940.298500       0.957054
    11954.572600       0.958783
    11968.880900       0.960477
    11983.223500       0.962134
    11997.600500       0.963756
    12012.012000       0.965341
    12026.458200       0.966890
    12040.939200       0.968403
    12055.455100       0.969880
    12070.006000       0.971321
    12084.592100       0.972725
    12099.213600       0.974094
    12113.870400       0.975426
    12128.562800       0.976722
    12143.290800       0.977983
    12158.054700       0.979207
    12172.854500       0.980395
    12187.690400       0.981547
    12202.562500       0.982664
    12217.471000       0.983744
    12232.415900       0.984789
    12247.397400       0.985798
    12262.415700       0.986771
    12277.470800       0.987709
    12292.563000       0.988611
    12307.692300       0.989478
    12322.858900       0.990310
    12338.062900       0.991106
    12353.304500       0.991868
    12368.583800       0.992594
    12383.900900       0.993286
    12399.256000       0.993942
    12414.649300       0.994564
    12430.080800       0.995152
    12445.550700       0.995705
    12461.059200       0.996224
    12476.606400       0.996709
    12492.192400       0.997159
    12507.817400       0.997576
    12523.481500       0.997960
    12539.185000       0.998309
    12554.927800       0.998626
    12570.710200       0.998909
    12586.532400       0.999159
    12602.394500       0.999376
    12618.296500       0.999561
    12634.238800       0.999713
    12650.221400       0.999833
    12666.244500       0.999920
    12682.308200       0.999976
    12698.412700       1.000000
    12714.558200       0.999992
    12730.744700       0.999953
    12746.972600       0.999883
    12763.241900       0.999782
    12779.552700       0.999651
    12795.905300       0.999488
    12812.299800       0.999296
    12828.736400       0.999073
    12845.215200       0.998821
    12861.736300       0.998539
    12878.300100       0.998227
    12894.906500       0.997886
    12911.555800       0.997517
    12928.248200       0.997119
    12944.983800       0.996692
    12961.762800       0.996237
    12978.585300       0.995754
    12995.451600       0.995243
    13012.361700       0.994705
    13029.316000       0.994140
    13046.314400       0.993548
    13063.357300       0.992929
    13080.444700       0.992283
    13097.576900       0.991611
    13114.754100       0.990914
    13131.976400       0.990190
    13149.243900       0.989442
    13166.556900       0.988668
    13183.915600       0.987869
    13201.320100       0.987046
    13218.770700       0.986198
    13236.267400       0.985326
    13253.810500       0.984430
    13271.400100       0.983511
    13289.036500       0.982568
    13306.719900       0.981603
    13324.450400       0.980615
    13342.228200       0.979604
    13360.053400       0.978571
    13377.926400       0.977516
    13395.847300       0.976440
    13413.816200       0.975342
    13431.833400       0.974223
    13449.899100       0.973083
    13468.013500       0.971923
    13486.176700       0.970742
    13504.388900       0.969542
    13522.650400       0.968322
    13540.961400       0.967082
    13559.322000       0.965823
    13577.732500       0.964546
    13596.193100       0.963249
    13614.703900       0.961935
    13633.265200       0.960602
    13651.877100       0.959252
    13670.540000       0.957884
    13689.253900       0.956498
    13708.019200       0.955096
    13726.836000       0.953677
    13745.704500       0.952242
    13764.624900       0.950791
    13783.597500       0.949323
    13802.622500       0.947840
    13821.700100       0.946342
    13840.830400       0.944829
    13860.013900       0.943300
    13879.250500       0.941758
    13898.540700       0.940201
    13917.884500       0.938629
    13937.282200       0.937044
    13956.734100       0.935446
    13976.240400       0.933834
    13995.801300       0.932209
    14015.417000       0.930571
    14035.087700       0.928921
    14054.813800       0.927258
    14074.595400       0.925584
    14094.432700       0.923897
    14114.326000       0.922199
    14134.275600       0.920490
    14154.281700       0.918770
    14174.344400       0.917038
    14194.464200       0.915296
    14214.641100       0.913544
    14234.875400       0.911781
    14255.167500       0.910008
    14275.517500       0.908226
    14295.925700       0.906434
    14316.392300       0.904633
    14336.917600       0.902822
    14357.501800       0.901003
    14378.145200       0.899175
    14398.848100       0.897338
    14419.610700       0.895493
    14440.433200       0.893641
    14461.316000       0.891780
    14482.259200       0.889911
    14503.263200       0.888035
    14524.328200       0.886152
    14545.454500       0.884261
    14566.642400       0.882363
    14587.892000       0.880459
    14609.203800       0.878548
    14630.577900       0.876630
    14652.014700       0.874707
    14673.514300       0.872777
    14695.077100       0.870841
    14716.703500       0.868899
    14738.393500       0.866951
    14760.147600       0.864999
    14781.966000       0.863040
    14803.849000       0.861077
    14825.796900       0.859108
    14847.809900       0.857134
    14869.888500       0.855156
    14892.032800       0.853173
    14914.243100       0.851185
    14936.519800       0.849193
    14958.863100       0.847197
    14981.273400       0.845196
    15003.750900       0.843191
    15026.296000       0.841182
    15048.909000       0.839170
    15071.590100       0.837153
    15094.339600       0.835133
    15117.158000       0.833109
    15140.045400       0.831082
    15163.002300       0.829051
    15186.028900       0.827017
    15209.125500       0.824980
    15232.292500       0.822939
    15255.530100       0.820896
    15278.838800       0.818849
    15302.218800       0.816799
    15325.670500       0.814747
    15349.194200       0.812691
    15372.790200       0.810633
    15396.458800       0.808572
    15420.200500       0.806509
    15444.015400       0.804442
    15467.904100       0.802373
    15491.866800       0.800301
    15515.903800       0.798227
    15540.015500       0.796151
    15564.202300       0.794071
    15588.464500       0.791990
    15612.802500       0.789906
    15637.216600       0.787819
    15661.707100       0.785730
    15686.274500       0.783638
    15710.919100       0.781545
    15735.641200       0.779448
    15760.441300       0.777350
    15785.319700       0.775248
    15810.276700       0.773145
    15835.312700       0.771039
    15860.428200       0.768930
    15885.623500       0.766819
    15910.899000       0.764706
    15936.255000       0.762590
    15961.691900       0.760472
    15987.210200       0.758351
    16012.810200       0.756227
    16038.492400       0.754101
    16064.257000       0.751972
    16090.104600       0.749841
    16116.035500       0.747706
    16142.050000       0.745569
    16168.148700       0.743429
    16194.332000       0.741287
    16220.600200       0.739141
    16246.953700       0.736992
    16273.393000       0.734840
    16299.918500       0.732686
    16326.530600       0.730528
    16353.229800       0.728366
    16380.016400       0.726202
    16406.890900       0.724034
    16433.853700       0.721863
    16460.905300       0.719688
    16488.046200       0.717510
    16515.276600       0.715327
    16542.597200       0.713142
    16570.008300       0.710952
    16597.510400       0.708759
    16625.103900       0.706561
    16652.789300       0.704360
    16680.567100       0.702154
    16708.437800       0.699944
    16736.401700       0.697730
    16764.459300       0.695512
    16792.611300       0.693288
    16820.857900       0.691061
    16849.199700       0.688829
    16877.637100       0.686591
    16906.170800       0.684349
    16934.801000       0.682102
    16963.528400       0.679850
    16992.353400       0.677593
    17021.276600       0.675331
    17050.298400       0.673063
    17079.419300       0.670789
    17108.639900       0.668511
    17137.960600       0.666226
    17167.382000       0.663936
    17196.904600       0.661640
    17226.528900       0.659338
    17256.255400       0.657029
    17286.084700       0.654715
    17316.017300       0.652394
    17346.053800       0.650067
    17376.194600       0.647734
    17406.440400       0.645394
    17436.791600       0.643047
    17467.248900       0.640694
    17497.812800       0.638333
    17528.483800       0.635966
    17559.262500       0.633592
    17590.149500       0.631210
    17621.145400       0.628821
    17652.250700       0.626425
    17683.466000       0.624022
    17714.791900       0.621610
    17746.228900       0.619192
    17777.777800       0.616765
    17809.439000       0.614331
    17841.213200       0.611889
    17873.101000       0.609439
    17905.103000       0.606980
    17937.219700       0.604514
    17969.451900       0.602040
    18001.800200       0.599556
    18034.265100       0.597065
    18066.847300       0.594565
    18099.547500       0.592057
    18132.366300       0.589540
    18165.304300       0.587015
    18198.362100       0.584480
    18231.540600       0.581937
    18264.840200       0.579385
    18298.261700       0.576824
    18331.805700       0.574254
    18365.472900       0.571675
    18399.264000       0.569087
    18433.179700       0.566490
    18467.220700       0.563884
    18501.387600       0.561268
    18535.681200       0.558644
    18570.102100       0.556010
    18604.651200       0.553366
    18639.329000       0.550713
    18674.136300       0.548051
    18709.073900       0.545379
    18744.142500       0.542698
    18779.342700       0.540008
    18814.675400       0.537308
    18850.141400       0.534599
    18885.741300       0.531880
    18921.475900       0.529152
    18957.346000       0.526414
    18993.352300       0.523666
    19029.495700       0.520910
    19065.776900       0.518144
    19102.196800       0.515368
    19138.756000       0.512583
    19175.455400       0.509789
    19212.295900       0.506985
    19249.278200       0.504172
    19286.403100       0.501350
    19323.671500       0.498519
    19361.084200       0.495678
    19398.642100       0.492829
