12,   channel 12 SRF from file SRF_SSH-1_Delivery_220520/SRF_DMSP-F3_SSH_Chan12.asc received June 2022 from SPASCIA
Number of data points:
250
Wavenumber (cm-1)   Filter response
      695.500000       0.000940
      695.600000       0.001050
      695.700000       0.001180
      695.800000       0.001310
      695.900000       0.001460
      696.000000       0.001630
      696.100000       0.001810
      696.200000       0.002020
      696.300000       0.002240
      696.400000       0.002490
      696.500000       0.002760
      696.600000       0.003060
      696.700000       0.003390
      696.800000       0.003750
      696.900000       0.004140
      697.000000       0.004570
      697.100000       0.005040
      697.200000       0.005560
      697.300000       0.006120
      697.400000       0.006730
      697.500000       0.007400
      697.600000       0.008120
      697.700000       0.008910
      697.800000       0.009770
      697.900000       0.010700
      698.000000       0.011710
      698.100000       0.012800
      698.200000       0.013980
      698.300000       0.015260
      698.400000       0.016630
      698.500000       0.018120
      698.600000       0.019720
      698.700000       0.021440
      698.800000       0.023290
      698.900000       0.025280
      699.000000       0.027410
      699.100000       0.029700
      699.200000       0.032150
      699.300000       0.034760
      699.400000       0.037560
      699.500000       0.040550
      699.600000       0.043730
      699.700000       0.047120
      699.800000       0.050730
      699.900000       0.054570
      700.000000       0.058640
      700.100000       0.062960
      700.200000       0.067540
      700.300000       0.072380
      700.400000       0.077500
      700.500000       0.082910
      700.600000       0.088620
      700.700000       0.094640
      700.800000       0.101880
      700.900000       0.114780
      701.000000       0.128270
      701.100000       0.142360
      701.200000       0.157050
      701.300000       0.172310
      701.400000       0.188150
      701.500000       0.204540
      701.600000       0.221480
      701.700000       0.238940
      701.800000       0.256910
      701.900000       0.275360
      702.000000       0.294260
      702.100000       0.313590
      702.200000       0.333310
      702.300000       0.353400
      702.400000       0.373820
      702.500000       0.394540
      702.600000       0.415510
      702.700000       0.436690
      702.800000       0.458040
      702.900000       0.479520
      703.000000       0.500700
      703.100000       0.514810
      703.200000       0.529010
      703.300000       0.543290
      703.400000       0.557640
      703.500000       0.572040
      703.600000       0.586480
      703.700000       0.600950
      703.800000       0.615420
      703.900000       0.629880
      704.000000       0.644310
      704.100000       0.658700
      704.200000       0.673020
      704.300000       0.687270
      704.400000       0.701420
      704.500000       0.715450
      704.600000       0.729350
      704.700000       0.743090
      704.800000       0.756670
      704.900000       0.770050
      705.000000       0.783220
      705.100000       0.796170
      705.200000       0.808870
      705.300000       0.821300
      705.400000       0.833450
      705.500000       0.845300
      705.600000       0.856830
      705.700000       0.868030
      705.800000       0.878860
      705.900000       0.889330
      706.000000       0.899410
      706.100000       0.909090
      706.200000       0.918350
      706.300000       0.927170
      706.400000       0.935550
      706.500000       0.943460
      706.600000       0.950900
      706.700000       0.957860
      706.800000       0.964310
      706.900000       0.970260
      707.000000       0.975680
      707.100000       0.980580
      707.200000       0.984950
      707.300000       0.988770
      707.400000       0.992040
      707.500000       0.994750
      707.600000       0.996910
      707.700000       0.998500
      707.800000       0.999520
      707.900000       0.999970
      708.000000       0.999860
      708.100000       0.999180
      708.200000       0.997930
      708.300000       0.996110
      708.400000       0.993730
      708.500000       0.990800
      708.600000       0.987310
      708.700000       0.983270
      708.800000       0.978690
      708.900000       0.973580
      709.000000       0.967940
      709.100000       0.961790
      709.200000       0.955130
      709.300000       0.947980
      709.400000       0.940350
      709.500000       0.932250
      709.600000       0.923690
      709.700000       0.914690
      709.800000       0.905270
      709.900000       0.895430
      710.000000       0.885190
      710.100000       0.874570
      710.200000       0.863590
      710.300000       0.852260
      710.400000       0.840600
      710.500000       0.828630
      710.600000       0.816360
      710.700000       0.803820
      710.800000       0.791020
      710.900000       0.777980
      711.000000       0.764720
      711.100000       0.751260
      711.200000       0.737620
      711.300000       0.723810
      711.400000       0.709850
      711.500000       0.695770
      711.600000       0.681580
      711.700000       0.667300
      711.800000       0.652950
      711.900000       0.638540
      712.000000       0.624090
      712.100000       0.609630
      712.200000       0.595160
      712.300000       0.580700
      712.400000       0.566270
      712.500000       0.551890
      712.600000       0.537570
      712.700000       0.523310
      712.800000       0.509150
      712.900000       0.492450
      713.000000       0.470910
      713.100000       0.449480
      713.200000       0.428190
      713.300000       0.407090
      713.400000       0.386220
      713.500000       0.365620
      713.600000       0.345330
      713.700000       0.325380
      713.800000       0.305810
      713.900000       0.286640
      714.000000       0.267920
      714.100000       0.249660
      714.200000       0.231900
      714.300000       0.214640
      714.400000       0.197920
      714.500000       0.181750
      714.600000       0.166140
      714.700000       0.151100
      714.800000       0.136660
      714.900000       0.122800
      715.000000       0.109550
      715.100000       0.098400
      715.200000       0.092190
      715.300000       0.086300
      715.400000       0.080720
      715.500000       0.075420
      715.600000       0.070410
      715.700000       0.065680
      715.800000       0.061200
      715.900000       0.056980
      716.000000       0.053010
      716.100000       0.049260
      716.200000       0.045740
      716.300000       0.042430
      716.400000       0.039330
      716.500000       0.036420
      716.600000       0.033700
      716.700000       0.031150
      716.800000       0.028760
      716.900000       0.026540
      717.000000       0.024470
      717.100000       0.022530
      717.200000       0.020740
      717.300000       0.019060
      717.400000       0.017510
      717.500000       0.016070
      717.600000       0.014730
      717.700000       0.013500
      717.800000       0.012350
      717.900000       0.011300
      718.000000       0.010320
      718.100000       0.009420
      718.200000       0.008590
      718.300000       0.007830
      718.400000       0.007120
      718.500000       0.006480
      718.600000       0.005890
      718.700000       0.005340
      718.800000       0.004850
      718.900000       0.004390
      719.000000       0.003980
      719.100000       0.003600
      719.200000       0.003250
      719.300000       0.002940
      719.400000       0.002650
      719.500000       0.002390
      719.600000       0.002150
      719.700000       0.001930
      719.800000       0.001740
      719.900000       0.001560
      720.000000       0.001400
      720.100000       0.001260
      720.200000       0.001120
      720.300000       0.001010
      720.400000       0.000900
