105,   105, MVIRI VIS channel from srf_MET5_2004123_2004124_1801-Release_S10EL_10.dat
Number of data points:
806
Wavenumber (cm-1)   Filter response
     8350.730700       0.000000
     8357.710000       0.000000
     8364.701000       0.000000
     8371.703600       0.000002
     8378.718100       0.000004
     8385.744200       0.000009
     8392.782200       0.000017
     8399.832000       0.000028
     8406.893700       0.000042
     8413.967200       0.000061
     8421.052600       0.000085
     8428.150000       0.000114
     8435.259400       0.000149
     8442.380800       0.000190
     8449.514200       0.000238
     8456.659600       0.000292
     8463.817200       0.000354
     8470.986900       0.000424
     8478.168700       0.000503
     8485.362700       0.000589
     8492.569000       0.000685
     8499.787500       0.000790
     8507.018300       0.000905
     8514.261400       0.001029
     8521.516800       0.001164
     8528.784600       0.001309
     8536.064900       0.001465
     8543.357500       0.001633
     8550.662700       0.001811
     8557.980300       0.002001
     8565.310500       0.002203
     8572.653200       0.002417
     8580.008600       0.002644
     8587.376600       0.002883
     8594.757200       0.003135
     8602.150500       0.003399
     8609.556600       0.003677
     8616.975400       0.003969
     8624.407100       0.004274
     8631.851500       0.004593
     8639.308900       0.004925
     8646.779100       0.005272
     8654.262200       0.005634
     8661.758300       0.006010
     8669.267400       0.006400
     8676.789600       0.006805
     8684.324800       0.007226
     8691.873100       0.007661
     8699.434500       0.008112
     8707.009100       0.008578
     8714.596900       0.009060
     8722.198000       0.009557
     8729.812300       0.010071
     8737.439900       0.010600
     8745.080900       0.011145
     8752.735200       0.011707
     8760.403000       0.012285
     8768.084200       0.012880
     8775.778900       0.013491
     8783.487000       0.014120
     8791.208800       0.014764
     8798.944100       0.015426
     8806.693100       0.016106
     8814.455700       0.016802
     8822.232000       0.017516
     8830.022100       0.018247
     8837.825900       0.018996
     8845.643500       0.019762
     8853.475000       0.020546
     8861.320300       0.021349
     8869.179600       0.022169
     8877.052800       0.023007
     8884.940000       0.023864
     8892.841300       0.024739
     8900.756600       0.025632
     8908.686000       0.026544
     8916.629500       0.027475
     8924.587200       0.028424
     8932.559200       0.029393
     8940.545400       0.030380
     8948.545900       0.031386
     8956.560700       0.032412
     8964.589900       0.033457
     8972.633500       0.034521
     8980.691500       0.035605
     8988.764000       0.036708
     8996.851100       0.037831
     9004.952700       0.038974
     9013.068900       0.040136
     9021.199800       0.041319
     9029.345400       0.042522
     9037.505600       0.043745
     9045.680700       0.044988
     9053.870500       0.046252
     9062.075200       0.047536
     9070.294800       0.048841
     9078.529300       0.050166
     9086.778700       0.051512
     9095.043200       0.052879
     9103.322700       0.054267
     9111.617300       0.055676
     9119.927000       0.057106
     9128.251900       0.058557
     9136.592100       0.060030
     9144.947400       0.061524
     9153.318100       0.063040
     9161.704100       0.064577
     9170.105500       0.066136
     9178.522300       0.067717
     9186.954500       0.069319
     9195.402300       0.070944
     9203.865600       0.072590
     9212.344500       0.074259
     9220.839100       0.075950
     9229.349300       0.077663
     9237.875300       0.079398
     9246.417000       0.081156
     9254.974500       0.082936
     9263.547900       0.084739
     9272.137200       0.086565
     9280.742500       0.088413
     9289.363700       0.090284
     9298.000900       0.092178
     9306.654300       0.094095
     9315.323700       0.096034
     9324.009300       0.097997
     9332.711200       0.099984
     9341.429200       0.101993
     9350.163600       0.104025
     9358.914400       0.106081
     9367.681500       0.108160
     9376.465100       0.110262
     9385.265100       0.112388
     9394.081700       0.114537
     9402.914900       0.116710
     9411.764700       0.118906
     9420.631200       0.121127
     9429.514400       0.123370
     9438.414300       0.125637
     9447.331100       0.127928
     9456.264800       0.130243
     9465.215300       0.132582
     9474.182900       0.134944
     9483.167400       0.137330
     9492.169000       0.139740
     9501.187600       0.142174
     9510.223500       0.144632
     9519.276500       0.147113
     9528.346800       0.149619
     9537.434400       0.152148
     9546.539400       0.154701
     9555.661700       0.157278
     9564.801500       0.159879
     9573.958800       0.162503
     9583.133700       0.165152
     9592.326100       0.167824
     9601.536200       0.170520
     9610.764100       0.173240
     9620.009600       0.175984
     9629.273000       0.178751
     9638.554200       0.181542
     9647.853400       0.184357
     9657.170400       0.187195
     9666.505600       0.190056
     9675.858700       0.192942
     9685.230000       0.195850
     9694.619500       0.198782
     9704.027200       0.201738
     9713.453100       0.204716
     9722.897400       0.207718
     9732.360100       0.210743
     9741.841200       0.213791
     9751.340800       0.216862
     9760.859000       0.219956
     9770.395700       0.223072
     9779.951100       0.226212
     9789.525200       0.229374
     9799.118100       0.232558
     9808.729800       0.235764
     9818.360300       0.238994
     9828.009800       0.242244
     9837.678300       0.245518
     9847.365800       0.248813
     9857.072400       0.252130
     9866.798200       0.255468
     9876.543200       0.258828
     9886.307500       0.262210
     9896.091000       0.265613
     9905.894000       0.269036
     9915.716400       0.272481
     9925.558300       0.275946
     9935.419800       0.279433
     9945.300800       0.282939
     9955.201600       0.286466
     9965.122100       0.290013
     9975.062300       0.293580
     9985.022500       0.297166
     9995.002500       0.300773
    10005.002500       0.304398
    10015.022500       0.308043
    10025.062700       0.311707
    10035.122900       0.315389
    10045.203400       0.319090
    10055.304200       0.322810
    10065.425300       0.326547
    10075.566800       0.330303
    10085.728700       0.334076
    10095.911200       0.337867
    10106.114200       0.341675
    10116.337900       0.345500
    10126.582300       0.349341
    10136.847400       0.353199
    10147.133400       0.357074
    10157.440300       0.360964
    10167.768200       0.364870
    10178.117000       0.368792
    10188.487000       0.372729
    10198.878100       0.376681
    10209.290500       0.380647
    10219.724100       0.384628
    10230.179000       0.388623
    10240.655400       0.392632
    10251.153300       0.396654
    10261.672700       0.400690
    10272.213700       0.404738
    10282.776300       0.408799
    10293.360800       0.412873
    10303.967000       0.416959
    10314.595200       0.421056
    10325.245200       0.425165
    10335.917300       0.429285
    10346.611500       0.433416
    10357.327800       0.437557
    10368.066400       0.441708
    10378.827200       0.445869
    10389.610400       0.450040
    10400.416000       0.454220
    10411.244100       0.458408
    10422.094800       0.462605
    10432.968200       0.466810
    10443.864200       0.471024
    10454.783100       0.475244
    10465.724800       0.479471
    10476.689400       0.483705
    10487.677000       0.487946
    10498.687700       0.492192
    10509.721500       0.496444
    10520.778500       0.500701
    10531.858900       0.504963
    10542.962600       0.509230
    10554.089700       0.513501
    10565.240400       0.517776
    10576.414600       0.522054
    10587.612500       0.526335
    10598.834100       0.530618
    10610.079600       0.534904
    10621.348900       0.539192
    10632.642200       0.543481
    10643.959600       0.547771
    10655.301000       0.552062
    10666.666700       0.556353
    10678.056600       0.560644
    10689.470900       0.564935
    10700.909600       0.569225
    10712.372800       0.573513
    10723.860600       0.577800
    10735.373100       0.582084
    10746.910300       0.586367
    10758.472300       0.590646
    10770.059200       0.594922
    10781.671200       0.599194
    10793.308100       0.603462
    10804.970300       0.607726
    10816.657700       0.611984
    10828.370300       0.616237
    10840.108400       0.620485
    10851.871900       0.624726
    10863.661100       0.628961
    10875.475800       0.633189
    10887.316300       0.637409
    10899.182600       0.641622
    10911.074700       0.645827
    10922.992900       0.650022
    10934.937100       0.654209
    10946.907500       0.658386
    10958.904100       0.662554
    10970.927000       0.666711
    10982.976400       0.670858
    10995.052200       0.674994
    11007.154700       0.679118
    11019.283700       0.683230
    11031.439600       0.687330
    11043.622300       0.691417
    11055.832000       0.695491
    11068.068600       0.699552
    11080.332400       0.703599
    11092.623400       0.707632
    11104.941700       0.711650
    11117.287400       0.715652
    11129.660500       0.719640
    11142.061300       0.723611
    11154.489700       0.727566
    11166.945800       0.731505
    11179.429800       0.735426
    11191.941800       0.739330
    11204.481800       0.743217
    11217.049900       0.747085
    11229.646300       0.750934
    11242.270900       0.754765
    11254.924000       0.758576
    11267.605600       0.762367
    11280.315800       0.766139
    11293.054800       0.769890
    11305.822500       0.773620
    11318.619100       0.777329
    11331.444800       0.781016
    11344.299500       0.784682
    11357.183400       0.788325
    11370.096600       0.791946
    11383.039300       0.795544
    11396.011400       0.799118
    11409.013100       0.802669
    11422.044500       0.806195
    11435.105800       0.809698
    11448.196900       0.813176
    11461.318100       0.816629
    11474.469300       0.820056
    11487.650800       0.823458
    11500.862600       0.826834
    11514.104800       0.830184
    11527.377500       0.833507
    11540.680900       0.836803
    11554.015000       0.840072
    11567.380000       0.843314
    11580.775900       0.846528
    11594.202900       0.849713
    11607.661100       0.852871
    11621.150500       0.856000
    11634.671300       0.859099
    11648.223600       0.862170
    11661.807600       0.865211
    11675.423200       0.868223
    11689.070700       0.871204
    11702.750100       0.874155
    11716.461600       0.877076
    11730.205300       0.879966
    11743.981200       0.882825
    11757.789500       0.885653
    11771.630400       0.888449
    11785.503800       0.891214
    11799.410000       0.893947
    11813.349100       0.896647
    11827.321100       0.899316
    11841.326200       0.901951
    11855.364600       0.904555
    11869.436200       0.907125
    11883.541300       0.909662
    11897.680000       0.912166
    11911.852300       0.914636
    11926.058400       0.917072
    11940.298500       0.919475
    11954.572600       0.921844
    11968.880900       0.924179
    11983.223500       0.926479
    11997.600500       0.928745
    12012.012000       0.930976
    12026.458200       0.933173
    12040.939200       0.935335
    12055.455100       0.937462
    12070.006000       0.939553
    12084.592100       0.941610
    12099.213600       0.943631
    12113.870400       0.945617
    12128.562800       0.947567
    12143.290800       0.949482
    12158.054700       0.951361
    12172.854500       0.953205
    12187.690400       0.955012
    12202.562500       0.956784
    12217.471000       0.958519
    12232.415900       0.960219
    12247.397400       0.961883
    12262.415700       0.963510
    12277.470800       0.965102
    12292.563000       0.966657
    12307.692300       0.968177
    12322.858900       0.969660
    12338.062900       0.971107
    12353.304500       0.972517
    12368.583800       0.973892
    12383.900900       0.975230
    12399.256000       0.976532
    12414.649300       0.977798
    12430.080800       0.979028
    12445.550700       0.980222
    12461.059200       0.981380
    12476.606400       0.982502
    12492.192400       0.983588
    12507.817400       0.984638
    12523.481500       0.985652
    12539.185000       0.986631
    12554.927800       0.987574
    12570.710200       0.988481
    12586.532400       0.989353
    12602.394500       0.990189
    12618.296500       0.990990
    12634.238800       0.991756
    12650.221400       0.992487
    12666.244500       0.993183
    12682.308200       0.993844
    12698.412700       0.994471
    12714.558200       0.995063
    12730.744700       0.995620
    12746.972600       0.996143
    12763.241900       0.996632
    12779.552700       0.997088
    12795.905300       0.997509
    12812.299800       0.997897
    12828.736400       0.998251
    12845.215200       0.998572
    12861.736300       0.998860
    12878.300100       0.999116
    12894.906500       0.999338
    12911.555800       0.999528
    12928.248200       0.999686
    12944.983800       0.999812
    12961.762800       0.999906
    12978.585300       0.999969
    12995.451600       1.000000
    13012.361700       1.000000
    13029.316000       0.999969
    13046.314400       0.999908
    13063.357300       0.999816
    13080.444700       0.999694
    13097.576900       0.999543
    13114.754100       0.999362
    13131.976400       0.999151
    13149.243900       0.998912
    13166.556900       0.998644
    13183.915600       0.998347
    13201.320100       0.998022
    13218.770700       0.997670
    13236.267400       0.997290
    13253.810500       0.996882
    13271.400100       0.996448
    13289.036500       0.995987
    13306.719900       0.995500
    13324.450400       0.994987
    13342.228200       0.994448
    13360.053400       0.993884
    13377.926400       0.993295
    13395.847300       0.992682
    13413.816200       0.992044
    13431.833400       0.991382
    13449.899100       0.990697
    13468.013500       0.989988
    13486.176700       0.989257
    13504.388900       0.988503
    13522.650400       0.987726
    13540.961400       0.986929
    13559.322000       0.986109
    13577.732500       0.985269
    13596.193100       0.984408
    13614.703900       0.983527
    13633.265200       0.982626
    13651.877100       0.981705
    13670.540000       0.980765
    13689.253900       0.979807
    13708.019200       0.978830
    13726.836000       0.977835
    13745.704500       0.976823
    13764.624900       0.975793
    13783.597500       0.974747
    13802.622500       0.973685
    13821.700100       0.972606
    13840.830400       0.971512
    13860.013900       0.970403
    13879.250500       0.969279
    13898.540700       0.968141
    13917.884500       0.966989
    13937.282200       0.965824
    13956.734100       0.964645
    13976.240400       0.963454
    13995.801300       0.962251
    14015.417000       0.961036
    14035.087700       0.959809
    14054.813800       0.958572
    14074.595400       0.957324
    14094.432700       0.956066
    14114.326000       0.954798
    14134.275600       0.953520
    14154.281700       0.952234
    14174.344400       0.950940
    14194.464200       0.949637
    14214.641100       0.948327
    14234.875400       0.947010
    14255.167500       0.945686
    14275.517500       0.944356
    14295.925700       0.943019
    14316.392300       0.941677
    14336.917600       0.940330
    14357.501800       0.938979
    14378.145200       0.937623
    14398.848100       0.936263
    14419.610700       0.934900
    14440.433200       0.933533
    14461.316000       0.932164
    14482.259200       0.930793
    14503.263200       0.929420
    14524.328200       0.928045
    14545.454500       0.926670
    14566.642400       0.925294
    14587.892000       0.923917
    14609.203800       0.922541
    14630.577900       0.921165
    14652.014700       0.919791
    14673.514300       0.918417
    14695.077100       0.917045
    14716.703500       0.915676
    14738.393500       0.914308
    14760.147600       0.912944
    14781.966000       0.911582
    14803.849000       0.910225
    14825.796900       0.908871
    14847.809900       0.907521
    14869.888500       0.906176
    14892.032800       0.904836
    14914.243100       0.903501
    14936.519800       0.902172
    14958.863100       0.900849
    14981.273400       0.899532
    15003.750900       0.898222
    15026.296000       0.896918
    15048.909000       0.895622
    15071.590100       0.894334
    15094.339600       0.893053
    15117.158000       0.891781
    15140.045400       0.890517
    15163.002300       0.889262
    15186.028900       0.888015
    15209.125500       0.886779
    15232.292500       0.885551
    15255.530100       0.884334
    15278.838800       0.883127
    15302.218800       0.881930
    15325.670500       0.880744
    15349.194200       0.879569
    15372.790200       0.878404
    15396.458800       0.877252
    15420.200500       0.876110
    15444.015400       0.874981
    15467.904100       0.873863
    15491.866800       0.872758
    15515.903800       0.871665
    15540.015500       0.870585
    15564.202300       0.869517
    15588.464500       0.868463
    15612.802500       0.867421
    15637.216600       0.866393
    15661.707100       0.865378
    15686.274500       0.864377
    15710.919100       0.863390
    15735.641200       0.862416
    15760.441300       0.861456
    15785.319700       0.860511
    15810.276700       0.859579
    15835.312700       0.858662
    15860.428200       0.857759
    15885.623500       0.856871
    15910.899000       0.855997
    15936.255000       0.855137
    15961.691900       0.854293
    15987.210200       0.853463
    16012.810200       0.852647
    16038.492400       0.851847
    16064.257000       0.851061
    16090.104600       0.850290
    16116.035500       0.849533
    16142.050000       0.848792
    16168.148700       0.848065
    16194.332000       0.847353
    16220.600200       0.846656
    16246.953700       0.845973
    16273.393000       0.845305
    16299.918500       0.844651
    16326.530600       0.844012
    16353.229800       0.843387
    16380.016400       0.842777
    16406.890900       0.842180
    16433.853700       0.841598
    16460.905300       0.841030
    16488.046200       0.840475
    16515.276600       0.839934
    16542.597200       0.839407
    16570.008300       0.838893
    16597.510400       0.838392
    16625.103900       0.837904
    16652.789300       0.837429
    16680.567100       0.836967
    16708.437800       0.836517
    16736.401700       0.836080
    16764.459300       0.835654
    16792.611300       0.835240
    16820.857900       0.834837
    16849.199700       0.834446
    16877.637100       0.834066
    16906.170800       0.833696
    16934.801000       0.833337
    16963.528400       0.832987
    16992.353400       0.832648
    17021.276600       0.832318
    17050.298400       0.831997
    17079.419300       0.831685
    17108.639900       0.831381
    17137.960600       0.831086
    17167.382000       0.830798
    17196.904600       0.830517
    17226.528900       0.830243
    17256.255400       0.829976
    17286.084700       0.829715
