11,   channel 11 SRF from file SRF_SSH-1_Delivery_220520/SRF_DMSP-F2_SSH_Chan11.asc received June 2022 from SPASCIA
Number of data points:
285
Wavenumber (cm-1)   Filter response
      679.800000       0.000990
      679.900000       0.001100
      680.000000       0.001210
      680.100000       0.001330
      680.200000       0.001460
      680.300000       0.001600
      680.400000       0.001760
      680.500000       0.001930
      680.600000       0.002120
      680.700000       0.002320
      680.800000       0.002540
      680.900000       0.002780
      681.000000       0.003040
      681.100000       0.003330
      681.200000       0.003630
      681.300000       0.003970
      681.400000       0.004330
      681.500000       0.004710
      681.600000       0.005130
      681.700000       0.005590
      681.800000       0.006080
      681.900000       0.006610
      682.000000       0.007170
      682.100000       0.007790
      682.200000       0.008450
      682.300000       0.009160
      682.400000       0.009920
      682.500000       0.010730
      682.600000       0.011610
      682.700000       0.012550
      682.800000       0.013560
      682.900000       0.014630
      683.000000       0.015790
      683.100000       0.017020
      683.200000       0.018330
      683.300000       0.019730
      683.400000       0.021230
      683.500000       0.022820
      683.600000       0.024520
      683.700000       0.026320
      683.800000       0.028240
      683.900000       0.030270
      684.000000       0.032430
      684.100000       0.034720
      684.200000       0.037150
      684.300000       0.039720
      684.400000       0.042430
      684.500000       0.045310
      684.600000       0.048340
      684.700000       0.051540
      684.800000       0.054910
      684.900000       0.058470
      685.000000       0.062210
      685.100000       0.066150
      685.200000       0.070290
      685.300000       0.074640
      685.400000       0.079200
      685.500000       0.083980
      685.600000       0.088990
      685.700000       0.094230
      685.800000       0.099720
      685.900000       0.111280
      686.000000       0.123620
      686.100000       0.136420
      686.200000       0.149700
      686.300000       0.163440
      686.400000       0.177630
      686.500000       0.192270
      686.600000       0.207340
      686.700000       0.222840
      686.800000       0.238740
      686.900000       0.255030
      687.000000       0.271710
      687.100000       0.288740
      687.200000       0.306110
      687.300000       0.323800
      687.400000       0.341780
      687.500000       0.360040
      687.600000       0.378540
      687.700000       0.397270
      687.800000       0.416190
      687.900000       0.435270
      688.000000       0.454490
      688.100000       0.473810
      688.200000       0.493200
      688.300000       0.507830
      688.400000       0.519940
      688.500000       0.532120
      688.600000       0.544350
      688.700000       0.556640
      688.800000       0.568960
      688.900000       0.581320
      689.000000       0.593690
      689.100000       0.606080
      689.200000       0.618460
      689.300000       0.630840
      689.400000       0.643190
      689.500000       0.655520
      689.600000       0.667800
      689.700000       0.680030
      689.800000       0.692190
      689.900000       0.704280
      690.000000       0.716270
      690.100000       0.728170
      690.200000       0.739960
      690.300000       0.751630
      690.400000       0.763160
      690.500000       0.774540
      690.600000       0.785770
      690.700000       0.796830
      690.800000       0.807700
      690.900000       0.818380
      691.000000       0.828860
      691.100000       0.839120
      691.200000       0.849160
      691.300000       0.858950
      691.400000       0.868500
      691.500000       0.877790
      691.600000       0.886810
      691.700000       0.895540
      691.800000       0.903990
      691.900000       0.912130
      692.000000       0.919960
      692.100000       0.927480
      692.200000       0.934660
      692.300000       0.941510
      692.400000       0.948010
      692.500000       0.954160
      692.600000       0.959950
      692.700000       0.965370
      692.800000       0.970410
      692.900000       0.975080
      693.000000       0.979360
      693.100000       0.983250
      693.200000       0.986740
      693.300000       0.989830
      693.400000       0.992520
      693.500000       0.994800
      693.600000       0.996670
      693.700000       0.998120
      693.800000       0.999170
      693.900000       0.999790
      694.000000       1.000000
      694.100000       0.999790
      694.200000       0.999170
      694.300000       0.998120
      694.400000       0.996670
      694.500000       0.994800
      694.600000       0.992520
      694.700000       0.989830
      694.800000       0.986740
      694.900000       0.983250
      695.000000       0.979360
      695.100000       0.975080
      695.200000       0.970410
      695.300000       0.965370
      695.400000       0.959950
      695.500000       0.954160
      695.600000       0.948010
      695.700000       0.941510
      695.800000       0.934660
      695.900000       0.927480
      696.000000       0.919960
      696.100000       0.912130
      696.200000       0.903990
      696.300000       0.895540
      696.400000       0.886810
      696.500000       0.877790
      696.600000       0.868500
      696.700000       0.858950
      696.800000       0.849160
      696.900000       0.839120
      697.000000       0.828860
      697.100000       0.818380
      697.200000       0.807700
      697.300000       0.796830
      697.400000       0.785770
      697.500000       0.774540
      697.600000       0.763160
      697.700000       0.751630
      697.800000       0.739960
      697.900000       0.728170
      698.000000       0.716270
      698.100000       0.704280
      698.200000       0.692190
      698.300000       0.680030
      698.400000       0.667800
      698.500000       0.655520
      698.600000       0.643190
      698.700000       0.630840
      698.800000       0.618460
      698.900000       0.606080
      699.000000       0.593690
      699.100000       0.581320
      699.200000       0.568960
      699.300000       0.556640
      699.400000       0.544350
      699.500000       0.532120
      699.600000       0.519940
      699.700000       0.507830
      699.800000       0.493200
      699.900000       0.473810
      700.000000       0.454490
      700.100000       0.435270
      700.200000       0.416190
      700.300000       0.397270
      700.400000       0.378540
      700.500000       0.360040
      700.600000       0.341780
      700.700000       0.323800
      700.800000       0.306110
      700.900000       0.288740
      701.000000       0.271710
      701.100000       0.255030
      701.200000       0.238740
      701.300000       0.222840
      701.400000       0.207340
      701.500000       0.192270
      701.600000       0.177630
      701.700000       0.163440
      701.800000       0.149700
      701.900000       0.136420
      702.000000       0.123620
      702.100000       0.111280
      702.200000       0.099720
      702.300000       0.094230
      702.400000       0.088990
      702.500000       0.083980
      702.600000       0.079200
      702.700000       0.074640
      702.800000       0.070290
      702.900000       0.066150
      703.000000       0.062210
      703.100000       0.058470
      703.200000       0.054910
      703.300000       0.051540
      703.400000       0.048340
      703.500000       0.045310
      703.600000       0.042430
      703.700000       0.039720
      703.800000       0.037150
      703.900000       0.034720
      704.000000       0.032430
      704.100000       0.030270
      704.200000       0.028240
      704.300000       0.026320
      704.400000       0.024520
      704.500000       0.022820
      704.600000       0.021230
      704.700000       0.019730
      704.800000       0.018330
      704.900000       0.017020
      705.000000       0.015790
      705.100000       0.014630
      705.200000       0.013560
      705.300000       0.012550
      705.400000       0.011610
      705.500000       0.010730
      705.600000       0.009920
      705.700000       0.009160
      705.800000       0.008450
      705.900000       0.007790
      706.000000       0.007170
      706.100000       0.006610
      706.200000       0.006080
      706.300000       0.005590
      706.400000       0.005130
      706.500000       0.004710
      706.600000       0.004330
      706.700000       0.003970
      706.800000       0.003630
      706.900000       0.003330
      707.000000       0.003040
      707.100000       0.002780
      707.200000       0.002540
      707.300000       0.002320
      707.400000       0.002120
      707.500000       0.001930
      707.600000       0.001760
      707.700000       0.001600
      707.800000       0.001460
      707.900000       0.001330
      708.000000       0.001210
      708.100000       0.001100
      708.200000       0.000990
