86,   86, MVIRI VIS channel from srf_MET5_2001348_2001349_1801-Release_S10EL_10.dat
Number of data points:
806
Wavenumber (cm-1)   Filter response
     8350.730700       0.000000
     8357.710000       0.000000
     8364.701000       0.000000
     8371.703600       0.000002
     8378.718100       0.000004
     8385.744200       0.000009
     8392.782200       0.000017
     8399.832000       0.000027
     8406.893700       0.000042
     8413.967200       0.000061
     8421.052600       0.000084
     8428.150000       0.000113
     8435.259400       0.000147
     8442.380800       0.000188
     8449.514200       0.000235
     8456.659600       0.000289
     8463.817200       0.000350
     8470.986900       0.000419
     8478.168700       0.000497
     8485.362700       0.000582
     8492.569000       0.000677
     8499.787500       0.000781
     8507.018300       0.000894
     8514.261400       0.001017
     8521.516800       0.001150
     8528.784600       0.001294
     8536.064900       0.001448
     8543.357500       0.001614
     8550.662700       0.001790
     8557.980300       0.001978
     8565.310500       0.002178
     8572.653200       0.002389
     8580.008600       0.002613
     8587.376600       0.002850
     8594.757200       0.003099
     8602.150500       0.003360
     8609.556600       0.003635
     8616.975400       0.003923
     8624.407100       0.004225
     8631.851500       0.004540
     8639.308900       0.004869
     8646.779100       0.005212
     8654.262200       0.005570
     8661.758300       0.005941
     8669.267400       0.006328
     8676.789600       0.006728
     8684.324800       0.007144
     8691.873100       0.007575
     8699.434500       0.008021
     8707.009100       0.008482
     8714.596900       0.008958
     8722.198000       0.009450
     8729.812300       0.009958
     8737.439900       0.010482
     8745.080900       0.011022
     8752.735200       0.011577
     8760.403000       0.012149
     8768.084200       0.012738
     8775.778900       0.013343
     8783.487000       0.013964
     8791.208800       0.014602
     8798.944100       0.015257
     8806.693100       0.015929
     8814.455700       0.016618
     8822.232000       0.017324
     8830.022100       0.018048
     8837.825900       0.018789
     8845.643500       0.019548
     8853.475000       0.020324
     8861.320300       0.021118
     8869.179600       0.021930
     8877.052800       0.022759
     8884.940000       0.023607
     8892.841300       0.024473
     8900.756600       0.025358
     8908.686000       0.026261
     8916.629500       0.027182
     8924.587200       0.028122
     8932.559200       0.029080
     8940.545400       0.030058
     8948.545900       0.031054
     8956.560700       0.032070
     8964.589900       0.033104
     8972.633500       0.034158
     8980.691500       0.035231
     8988.764000       0.036324
     8996.851100       0.037435
     9004.952700       0.038567
     9013.068900       0.039718
     9021.199800       0.040890
     9029.345400       0.042081
     9037.505600       0.043292
     9045.680700       0.044524
     9053.870500       0.045775
     9062.075200       0.047047
     9070.294800       0.048339
     9078.529300       0.049652
     9086.778700       0.050986
     9095.043200       0.052340
     9103.322700       0.053715
     9111.617300       0.055111
     9119.927000       0.056528
     9128.251900       0.057966
     9136.592100       0.059425
     9144.947400       0.060905
     9153.318100       0.062407
     9161.704100       0.063930
     9170.105500       0.065475
     9178.522300       0.067041
     9186.954500       0.068629
     9195.402300       0.070239
     9203.865600       0.071871
     9212.344500       0.073525
     9220.839100       0.075201
     9229.349300       0.076898
     9237.875300       0.078618
     9246.417000       0.080361
     9254.974500       0.082126
     9263.547900       0.083913
     9272.137200       0.085722
     9280.742500       0.087555
     9289.363700       0.089410
     9298.000900       0.091287
     9306.654300       0.093188
     9315.323700       0.095111
     9324.009300       0.097058
     9332.711200       0.099027
     9341.429200       0.101019
     9350.163600       0.103034
     9358.914400       0.105073
     9367.681500       0.107135
     9376.465100       0.109220
     9385.265100       0.111328
     9394.081700       0.113460
     9402.914900       0.115615
     9411.764700       0.117794
     9420.631200       0.119996
     9429.514400       0.122221
     9438.414300       0.124471
     9447.331100       0.126743
     9456.264800       0.129040
     9465.215300       0.131360
     9474.182900       0.133703
     9483.167400       0.136071
     9492.169000       0.138462
     9501.187600       0.140877
     9510.223500       0.143316
     9519.276500       0.145778
     9528.346800       0.148265
     9537.434400       0.150775
     9546.539400       0.153308
     9555.661700       0.155866
     9564.801500       0.158447
     9573.958800       0.161052
     9583.133700       0.163681
     9592.326100       0.166334
     9601.536200       0.169010
     9610.764100       0.171710
     9620.009600       0.174434
     9629.273000       0.177181
     9638.554200       0.179952
     9647.853400       0.182747
     9657.170400       0.185564
     9666.505600       0.188406
     9675.858700       0.191271
     9685.230000       0.194159
     9694.619500       0.197071
     9704.027200       0.200006
     9713.453100       0.202964
     9722.897400       0.205946
     9732.360100       0.208950
     9741.841200       0.211978
     9751.340800       0.215028
     9760.859000       0.218101
     9770.395700       0.221197
     9779.951100       0.224315
     9789.525200       0.227457
     9799.118100       0.230621
     9808.729800       0.233806
     9818.360300       0.237015
     9828.009800       0.240245
     9837.678300       0.243498
     9847.365800       0.246772
     9857.072400       0.250068
     9866.798200       0.253386
     9876.543200       0.256725
     9886.307500       0.260086
     9896.091000       0.263468
     9905.894000       0.266871
     9915.716400       0.270295
     9925.558300       0.273740
     9935.419800       0.277206
     9945.300800       0.280692
     9955.201600       0.284198
     9965.122100       0.287725
     9975.062300       0.291271
     9985.022500       0.294837
     9995.002500       0.298424
    10005.002500       0.302029
    10015.022500       0.305653
    10025.062700       0.309297
    10035.122900       0.312959
    10045.203400       0.316640
    10055.304200       0.320340
    10065.425300       0.324058
    10075.566800       0.327794
    10085.728700       0.331547
    10095.911200       0.335318
    10106.114200       0.339107
    10116.337900       0.342912
    10126.582300       0.346734
    10136.847400       0.350573
    10147.133400       0.354429
    10157.440300       0.358300
    10167.768200       0.362187
    10178.117000       0.366090
    10188.487000       0.370009
    10198.878100       0.373942
    10209.290500       0.377890
    10219.724100       0.381853
    10230.179000       0.385830
    10240.655400       0.389821
    10251.153300       0.393825
    10261.672700       0.397843
    10272.213700       0.401874
    10282.776300       0.405918
    10293.360800       0.409975
    10303.967000       0.414044
    10314.595200       0.418124
    10325.245200       0.422216
    10335.917300       0.426320
    10346.611500       0.430435
    10357.327800       0.434560
    10368.066400       0.438695
    10378.827200       0.442840
    10389.610400       0.446996
    10400.416000       0.451160
    10411.244100       0.455334
    10422.094800       0.459516
    10432.968200       0.463706
    10443.864200       0.467905
    10454.783100       0.472111
    10465.724800       0.476324
    10476.689400       0.480544
    10487.677000       0.484772
    10498.687700       0.489005
    10509.721500       0.493244
    10520.778500       0.497488
    10531.858900       0.501738
    10542.962600       0.505992
    10554.089700       0.510251
    10565.240400       0.514514
    10576.414600       0.518780
    10587.612500       0.523050
    10598.834100       0.527322
    10610.079600       0.531597
    10621.348900       0.535875
    10632.642200       0.540154
    10643.959600       0.544434
    10655.301000       0.548715
    10666.666700       0.552997
    10678.056600       0.557279
    10689.470900       0.561561
    10700.909600       0.565842
    10712.372800       0.570123
    10723.860600       0.574401
    10735.373100       0.578678
    10746.910300       0.582954
    10758.472300       0.587226
    10770.059200       0.591495
    10781.671200       0.595761
    10793.308100       0.600023
    10804.970300       0.604281
    10816.657700       0.608534
    10828.370300       0.612783
    10840.108400       0.617025
    10851.871900       0.621262
    10863.661100       0.625493
    10875.475800       0.629718
    10887.316300       0.633935
    10899.182600       0.638144
    10911.074700       0.642346
    10922.992900       0.646540
    10934.937100       0.650725
    10946.907500       0.654901
    10958.904100       0.659067
    10970.927000       0.663223
    10982.976400       0.667370
    10995.052200       0.671505
    11007.154700       0.675629
    11019.283700       0.679742
    11031.439600       0.683843
    11043.622300       0.687932
    11055.832000       0.692008
    11068.068600       0.696071
    11080.332400       0.700120
    11092.623400       0.704155
    11104.941700       0.708176
    11117.287400       0.712183
    11129.660500       0.716174
    11142.061300       0.720150
    11154.489700       0.724110
    11166.945800       0.728054
    11179.429800       0.731980
    11191.941800       0.735891
    11204.481800       0.739783
    11217.049900       0.743658
    11229.646300       0.747514
    11242.270900       0.751352
    11254.924000       0.755171
    11267.605600       0.758971
    11280.315800       0.762751
    11293.054800       0.766511
    11305.822500       0.770250
    11318.619100       0.773969
    11331.444800       0.777667
    11344.299500       0.781343
    11357.183400       0.784997
    11370.096600       0.788629
    11383.039300       0.792239
    11396.011400       0.795825
    11409.013100       0.799388
    11422.044500       0.802928
    11435.105800       0.806444
    11448.196900       0.809935
    11461.318100       0.813402
    11474.469300       0.816844
    11487.650800       0.820261
    11500.862600       0.823652
    11514.104800       0.827018
    11527.377500       0.830357
    11540.680900       0.833669
    11554.015000       0.836955
    11567.380000       0.840214
    11580.775900       0.843446
    11594.202900       0.846649
    11607.661100       0.849825
    11621.150500       0.852972
    11634.671300       0.856091
    11648.223600       0.859181
    11661.807600       0.862242
    11675.423200       0.865274
    11689.070700       0.868276
    11702.750100       0.871248
    11716.461600       0.874190
    11730.205300       0.877102
    11743.981200       0.879983
    11757.789500       0.882833
    11771.630400       0.885652
    11785.503800       0.888440
    11799.410000       0.891197
    11813.349100       0.893921
    11827.321100       0.896614
    11841.326200       0.899274
    11855.364600       0.901902
    11869.436200       0.904498
    11883.541300       0.907060
    11897.680000       0.909590
    11911.852300       0.912087
    11926.058400       0.914550
    11940.298500       0.916980
    11954.572600       0.919376
    11968.880900       0.921738
    11983.223500       0.924066
    11997.600500       0.926361
    12012.012000       0.928621
    12026.458200       0.930846
    12040.939200       0.933037
    12055.455100       0.935194
    12070.006000       0.937315
    12084.592100       0.939402
    12099.213600       0.941454
    12113.870400       0.943470
    12128.562800       0.945452
    12143.290800       0.947398
    12158.054700       0.949309
    12172.854500       0.951184
    12187.690400       0.953024
    12202.562500       0.954828
    12217.471000       0.956596
    12232.415900       0.958329
    12247.397400       0.960026
    12262.415700       0.961687
    12277.470800       0.963313
    12292.563000       0.964902
    12307.692300       0.966456
    12322.858900       0.967974
    12338.062900       0.969455
    12353.304500       0.970901
    12368.583800       0.972311
    12383.900900       0.973685
    12399.256000       0.975023
    12414.649300       0.976325
    12430.080800       0.977592
    12445.550700       0.978822
    12461.059200       0.980017
    12476.606400       0.981176
    12492.192400       0.982299
    12507.817400       0.983386
    12523.481500       0.984438
    12539.185000       0.985454
    12554.927800       0.986435
    12570.710200       0.987381
    12586.532400       0.988291
    12602.394500       0.989166
    12618.296500       0.990006
    12634.238800       0.990811
    12650.221400       0.991581
    12666.244500       0.992316
    12682.308200       0.993016
    12698.412700       0.993682
    12714.558200       0.994314
    12730.744700       0.994911
    12746.972600       0.995475
    12763.241900       0.996004
    12779.552700       0.996499
    12795.905300       0.996961
    12812.299800       0.997390
    12828.736400       0.997785
    12845.215200       0.998147
    12861.736300       0.998476
    12878.300100       0.998772
    12894.906500       0.999036
    12911.555800       0.999267
    12928.248200       0.999467
    12944.983800       0.999634
    12961.762800       0.999770
    12978.585300       0.999874
    12995.451600       0.999947
    13012.361700       0.999989
    13029.316000       1.000000
    13046.314400       0.999981
    13063.357300       0.999931
    13080.444700       0.999851
    13097.576900       0.999742
    13114.754100       0.999603
    13131.976400       0.999435
    13149.243900       0.999238
    13166.556900       0.999012
    13183.915600       0.998758
    13201.320100       0.998476
    13218.770700       0.998166
    13236.267400       0.997829
    13253.810500       0.997464
    13271.400100       0.997073
    13289.036500       0.996655
    13306.719900       0.996210
    13324.450400       0.995740
    13342.228200       0.995244
    13360.053400       0.994723
    13377.926400       0.994177
    13395.847300       0.993606
    13413.816200       0.993011
    13431.833400       0.992392
    13449.899100       0.991750
    13468.013500       0.991084
    13486.176700       0.990395
    13504.388900       0.989684
    13522.650400       0.988951
    13540.961400       0.988196
    13559.322000       0.987420
    13577.732500       0.986622
    13596.193100       0.985804
    13614.703900       0.984966
    13633.265200       0.984107
    13651.877100       0.983229
    13670.540000       0.982332
    13689.253900       0.981416
    13708.019200       0.980482
    13726.836000       0.979530
    13745.704500       0.978561
    13764.624900       0.977574
    13783.597500       0.976570
    13802.622500       0.975550
    13821.700100       0.974514
    13840.830400       0.973463
    13860.013900       0.972396
    13879.250500       0.971314
    13898.540700       0.970219
    13917.884500       0.969109
    13937.282200       0.967986
    13956.734100       0.966849
    13976.240400       0.965700
    13995.801300       0.964539
    14015.417000       0.963366
    14035.087700       0.962181
    14054.813800       0.960985
    14074.595400       0.959779
    14094.432700       0.958563
    14114.326000       0.957337
    14134.275600       0.956101
    14154.281700       0.954857
    14174.344400       0.953604
    14194.464200       0.952343
    14214.641100       0.951074
    14234.875400       0.949798
    14255.167500       0.948515
    14275.517500       0.947226
    14295.925700       0.945931
    14316.392300       0.944630
    14336.917600       0.943324
    14357.501800       0.942014
    14378.145200       0.940699
    14398.848100       0.939380
    14419.610700       0.938058
    14440.433200       0.936732
    14461.316000       0.935404
    14482.259200       0.934073
    14503.263200       0.932741
    14524.328200       0.931407
    14545.454500       0.930072
    14566.642400       0.928737
    14587.892000       0.927401
    14609.203800       0.926065
    14630.577900       0.924730
    14652.014700       0.923395
    14673.514300       0.922062
    14695.077100       0.920730
    14716.703500       0.919401
    14738.393500       0.918074
    14760.147600       0.916750
    14781.966000       0.915428
    14803.849000       0.914111
    14825.796900       0.912797
    14847.809900       0.911487
    14869.888500       0.910182
    14892.032800       0.908882
    14914.243100       0.907587
    14936.519800       0.906298
    14958.863100       0.905015
    14981.273400       0.903738
    15003.750900       0.902468
    15026.296000       0.901204
    15048.909000       0.899948
    15071.590100       0.898699
    15094.339600       0.897459
    15117.158000       0.896226
    15140.045400       0.895002
    15163.002300       0.893787
    15186.028900       0.892581
    15209.125500       0.891384
    15232.292500       0.890196
    15255.530100       0.889019
    15278.838800       0.887852
    15302.218800       0.886695
    15325.670500       0.885549
    15349.194200       0.884414
    15372.790200       0.883289
    15396.458800       0.882177
    15420.200500       0.881076
    15444.015400       0.879986
    15467.904100       0.878909
    15491.866800       0.877844
    15515.903800       0.876792
    15540.015500       0.875752
    15564.202300       0.874725
    15588.464500       0.873710
    15612.802500       0.872710
    15637.216600       0.871722
    15661.707100       0.870748
    15686.274500       0.869787
    15710.919100       0.868841
    15735.641200       0.867908
    15760.441300       0.866989
    15785.319700       0.866084
    15810.276700       0.865194
    15835.312700       0.864318
    15860.428200       0.863457
    15885.623500       0.862609
    15910.899000       0.861777
    15936.255000       0.860959
    15961.691900       0.860156
    15987.210200       0.859368
    16012.810200       0.858595
    16038.492400       0.857836
    16064.257000       0.857092
    16090.104600       0.856363
    16116.035500       0.855649
    16142.050000       0.854950
    16168.148700       0.854266
    16194.332000       0.853597
    16220.600200       0.852942
    16246.953700       0.852302
    16273.393000       0.851677
    16299.918500       0.851067
    16326.530600       0.850471
    16353.229800       0.849890
    16380.016400       0.849323
    16406.890900       0.848770
    16433.853700       0.848232
    16460.905300       0.847707
    16488.046200       0.847197
    16515.276600       0.846700
    16542.597200       0.846218
    16570.008300       0.845748
    16597.510400       0.845292
    16625.103900       0.844849
    16652.789300       0.844419
    16680.567100       0.844002
    16708.437800       0.843598
    16736.401700       0.843206
    16764.459300       0.842825
    16792.611300       0.842457
    16820.857900       0.842101
    16849.199700       0.841755
    16877.637100       0.841421
    16906.170800       0.841098
    16934.801000       0.840785
    16963.528400       0.840483
    16992.353400       0.840190
    17021.276600       0.839907
    17050.298400       0.839633
    17079.419300       0.839368
    17108.639900       0.839112
    17137.960600       0.838864
    17167.382000       0.838623
    17196.904600       0.838391
    17226.528900       0.838165
    17256.255400       0.837946
    17286.084700       0.837733
