95,   95, MVIRI VIS channel from srf_MET7_2009168_2009169_1801-Release_S10EE_10.dat
Number of data points:
793
Wavenumber (cm-1)   Filter response
     8442.380800       0.000000
     8449.514200       0.000000
     8456.659600       0.000004
     8463.817200       0.000056
     8470.986900       0.000166
     8478.168700       0.000331
     8485.362700       0.000551
     8492.569000       0.000824
     8499.787500       0.001148
     8507.018300       0.001522
     8514.261400       0.001944
     8521.516800       0.002413
     8528.784600       0.002928
     8536.064900       0.003487
     8543.357500       0.004090
     8550.662700       0.004734
     8557.980300       0.005419
     8565.310500       0.006143
     8572.653200       0.006907
     8580.008600       0.007707
     8587.376600       0.008545
     8594.757200       0.009418
     8602.150500       0.010326
     8609.556600       0.011268
     8616.975400       0.012243
     8624.407100       0.013250
     8631.851500       0.014289
     8639.308900       0.015358
     8646.779100       0.016458
     8654.262200       0.017587
     8661.758300       0.018745
     8669.267400       0.019931
     8676.789600       0.021144
     8684.324800       0.022385
     8691.873100       0.023653
     8699.434500       0.024946
     8707.009100       0.026266
     8714.596900       0.027610
     8722.198000       0.028979
     8729.812300       0.030373
     8737.439900       0.031791
     8745.080900       0.033233
     8752.735200       0.034698
     8760.403000       0.036186
     8768.084200       0.037697
     8775.778900       0.039231
     8783.487000       0.040787
     8791.208800       0.042365
     8798.944100       0.043965
     8806.693100       0.045587
     8814.455700       0.047230
     8822.232000       0.048895
     8830.022100       0.050581
     8837.825900       0.052289
     8845.643500       0.054017
     8853.475000       0.055767
     8861.320300       0.057537
     8869.179600       0.059328
     8877.052800       0.061140
     8884.940000       0.062973
     8892.841300       0.064826
     8900.756600       0.066700
     8908.686000       0.068595
     8916.629500       0.070510
     8924.587200       0.072446
     8932.559200       0.074402
     8940.545400       0.076380
     8948.545900       0.078378
     8956.560700       0.080396
     8964.589900       0.082435
     8972.633500       0.084496
     8980.691500       0.086577
     8988.764000       0.088679
     8996.851100       0.090801
     9004.952700       0.092946
     9013.068900       0.095110
     9021.199800       0.097297
     9029.345400       0.099504
     9037.505600       0.101733
     9045.680700       0.103983
     9053.870500       0.106255
     9062.075200       0.108548
     9070.294800       0.110863
     9078.529300       0.113199
     9086.778700       0.115558
     9095.043200       0.117939
     9103.322700       0.120341
     9111.617300       0.122766
     9119.927000       0.125212
     9128.251900       0.127681
     9136.592100       0.130173
     9144.947400       0.132686
     9153.318100       0.135223
     9161.704100       0.137782
     9170.105500       0.140363
     9178.522300       0.142968
     9186.954500       0.145595
     9195.402300       0.148246
     9203.865600       0.150919
     9212.344500       0.153616
     9220.839100       0.156335
     9229.349300       0.159078
     9237.875300       0.161844
     9246.417000       0.164634
     9254.974500       0.167447
     9263.547900       0.170283
     9272.137200       0.173143
     9280.742500       0.176026
     9289.363700       0.178933
     9298.000900       0.181864
     9306.654300       0.184818
     9315.323700       0.187796
     9324.009300       0.190798
     9332.711200       0.193823
     9341.429200       0.196872
     9350.163600       0.199945
     9358.914400       0.203041
     9367.681500       0.206161
     9376.465100       0.209305
     9385.265100       0.212473
     9394.081700       0.215664
     9402.914900       0.218879
     9411.764700       0.222117
     9420.631200       0.225379
     9429.514400       0.228665
     9438.414300       0.231974
     9447.331100       0.235306
     9456.264800       0.238662
     9465.215300       0.242041
     9474.182900       0.245443
     9483.167400       0.248868
     9492.169000       0.252316
     9501.187600       0.255788
     9510.223500       0.259282
     9519.276500       0.262798
     9528.346800       0.266338
     9537.434400       0.269900
     9546.539400       0.273483
     9555.661700       0.277090
     9564.801500       0.280718
     9573.958800       0.284369
     9583.133700       0.288041
     9592.326100       0.291734
     9601.536200       0.295450
     9610.764100       0.299186
     9620.009600       0.302943
     9629.273000       0.306722
     9638.554200       0.310521
     9647.853400       0.314341
     9657.170400       0.318180
     9666.505600       0.322040
     9675.858700       0.325920
     9685.230000       0.329820
     9694.619500       0.333739
     9704.027200       0.337677
     9713.453100       0.341634
     9722.897400       0.345610
     9732.360100       0.349604
     9741.841200       0.353616
     9751.340800       0.357646
     9760.859000       0.361694
     9770.395700       0.365760
     9779.951100       0.369842
     9789.525200       0.373941
     9799.118100       0.378057
     9808.729800       0.382188
     9818.360300       0.386336
     9828.009800       0.390499
     9837.678300       0.394678
     9847.365800       0.398871
     9857.072400       0.403079
     9866.798200       0.407302
     9876.543200       0.411537
     9886.307500       0.415787
     9896.091000       0.420050
     9905.894000       0.424326
     9915.716400       0.428615
     9925.558300       0.432915
     9935.419800       0.437227
     9945.300800       0.441551
     9955.201600       0.445885
     9965.122100       0.450231
     9975.062300       0.454586
     9985.022500       0.458952
     9995.002500       0.463327
    10005.002500       0.467711
    10015.022500       0.472104
    10025.062700       0.476505
    10035.122900       0.480914
    10045.203400       0.485330
    10055.304200       0.489754
    10065.425300       0.494183
    10075.566800       0.498620
    10085.728700       0.503061
    10095.911200       0.507509
    10106.114200       0.511961
    10116.337900       0.516418
    10126.582300       0.520878
    10136.847400       0.525342
    10147.133400       0.529810
    10157.440300       0.534280
    10167.768200       0.538752
    10178.117000       0.543226
    10188.487000       0.547702
    10198.878100       0.552178
    10209.290500       0.556655
    10219.724100       0.561132
    10230.179000       0.565608
    10240.655400       0.570084
    10251.153300       0.574558
    10261.672700       0.579030
    10272.213700       0.583499
    10282.776300       0.587966
    10293.360800       0.592430
    10303.967000       0.596890
    10314.595200       0.601345
    10325.245200       0.605796
    10335.917300       0.610242
    10346.611500       0.614682
    10357.327800       0.619116
    10368.066400       0.623544
    10378.827200       0.627964
    10389.610400       0.632377
    10400.416000       0.636782
    10411.244100       0.641178
    10422.094800       0.645566
    10432.968200       0.649944
    10443.864200       0.654312
    10454.783100       0.658670
    10465.724800       0.663017
    10476.689400       0.667353
    10487.677000       0.671677
    10498.687700       0.675988
    10509.721500       0.680287
    10520.778500       0.684573
    10531.858900       0.688845
    10542.962600       0.693103
    10554.089700       0.697347
    10565.240400       0.701575
    10576.414600       0.705788
    10587.612500       0.709985
    10598.834100       0.714166
    10610.079600       0.718330
    10621.348900       0.722477
    10632.642200       0.726606
    10643.959600       0.730717
    10655.301000       0.734809
    10666.666700       0.738882
    10678.056600       0.742935
    10689.470900       0.746969
    10700.909600       0.750982
    10712.372800       0.754975
    10723.860600       0.758946
    10735.373100       0.762896
    10746.910300       0.766823
    10758.472300       0.770728
    10770.059200       0.774611
    10781.671200       0.778469
    10793.308100       0.782305
    10804.970300       0.786116
    10816.657700       0.789903
    10828.370300       0.793664
    10840.108400       0.797401
    10851.871900       0.801111
    10863.661100       0.804796
    10875.475800       0.808455
    10887.316300       0.812086
    10899.182600       0.815690
    10911.074700       0.819267
    10922.992900       0.822816
    10934.937100       0.826337
    10946.907500       0.829829
    10958.904100       0.833292
    10970.927000       0.836726
    10982.976400       0.840130
    10995.052200       0.843504
    11007.154700       0.846848
    11019.283700       0.850161
    11031.439600       0.853444
    11043.622300       0.856695
    11055.832000       0.859914
    11068.068600       0.863102
    11080.332400       0.866258
    11092.623400       0.869381
    11104.941700       0.872471
    11117.287400       0.875529
    11129.660500       0.878553
    11142.061300       0.881544
    11154.489700       0.884500
    11166.945800       0.887423
    11179.429800       0.890312
    11191.941800       0.893166
    11204.481800       0.895985
    11217.049900       0.898769
    11229.646300       0.901518
    11242.270900       0.904231
    11254.924000       0.906909
    11267.605600       0.909551
    11280.315800       0.912157
    11293.054800       0.914726
    11305.822500       0.917259
    11318.619100       0.919756
    11331.444800       0.922215
    11344.299500       0.924637
    11357.183400       0.927023
    11370.096600       0.929371
    11383.039300       0.931681
    11396.011400       0.933954
    11409.013100       0.936189
    11422.044500       0.938387
    11435.105800       0.940546
    11448.196900       0.942667
    11461.318100       0.944750
    11474.469300       0.946794
    11487.650800       0.948800
    11500.862600       0.950768
    11514.104800       0.952697
    11527.377500       0.954587
    11540.680900       0.956438
    11554.015000       0.958251
    11567.380000       0.960025
    11580.775900       0.961759
    11594.202900       0.963455
    11607.661100       0.965112
    11621.150500       0.966730
    11634.671300       0.968308
    11648.223600       0.969848
    11661.807600       0.971348
    11675.423200       0.972809
    11689.070700       0.974231
    11702.750100       0.975614
    11716.461600       0.976958
    11730.205300       0.978263
    11743.981200       0.979529
    11757.789500       0.980756
    11771.630400       0.981944
    11785.503800       0.983093
    11799.410000       0.984203
    11813.349100       0.985274
    11827.321100       0.986307
    11841.326200       0.987301
    11855.364600       0.988257
    11869.436200       0.989174
    11883.541300       0.990052
    11897.680000       0.990893
    11911.852300       0.991695
    11926.058400       0.992459
    11940.298500       0.993186
    11954.572600       0.993874
    11968.880900       0.994525
    11983.223500       0.995139
    11997.600500       0.995715
    12012.012000       0.996254
    12026.458200       0.996756
    12040.939200       0.997221
    12055.455100       0.997649
    12070.006000       0.998041
    12084.592100       0.998397
    12099.213600       0.998716
    12113.870400       0.999000
    12128.562800       0.999247
    12143.290800       0.999460
    12158.054700       0.999637
    12172.854500       0.999779
    12187.690400       0.999886
    12202.562500       0.999958
    12217.471000       0.999996
    12232.415900       1.000000
    12247.397400       0.999970
    12262.415700       0.999907
    12277.470800       0.999810
    12292.563000       0.999680
    12307.692300       0.999517
    12322.858900       0.999321
    12338.062900       0.999094
    12353.304500       0.998834
    12368.583800       0.998543
    12383.900900       0.998220
    12399.256000       0.997867
    12414.649300       0.997482
    12430.080800       0.997067
    12445.550700       0.996623
    12461.059200       0.996148
    12476.606400       0.995643
    12492.192400       0.995110
    12507.817400       0.994548
    12523.481500       0.993957
    12539.185000       0.993338
    12554.927800       0.992692
    12570.710200       0.992018
    12586.532400       0.991317
    12602.394500       0.990589
    12618.296500       0.989835
    12634.238800       0.989055
    12650.221400       0.988250
    12666.244500       0.987419
    12682.308200       0.986563
    12698.412700       0.985684
    12714.558200       0.984779
    12730.744700       0.983852
    12746.972600       0.982901
    12763.241900       0.981927
    12779.552700       0.980931
    12795.905300       0.979913
    12812.299800       0.978873
    12828.736400       0.977812
    12845.215200       0.976730
    12861.736300       0.975628
    12878.300100       0.974505
    12894.906500       0.973363
    12911.555800       0.972202
    12928.248200       0.971023
    12944.983800       0.969825
    12961.762800       0.968609
    12978.585300       0.967376
    12995.451600       0.966126
    13012.361700       0.964859
    13029.316000       0.963576
    13046.314400       0.962278
    13063.357300       0.960964
    13080.444700       0.959636
    13097.576900       0.958293
    13114.754100       0.956936
    13131.976400       0.955566
    13149.243900       0.954183
    13166.556900       0.952787
    13183.915600       0.951379
    13201.320100       0.949960
    13218.770700       0.948529
    13236.267400       0.947088
    13253.810500       0.945636
    13271.400100       0.944175
    13289.036500       0.942704
    13306.719900       0.941224
    13324.450400       0.939736
    13342.228200       0.938240
    13360.053400       0.936736
    13377.926400       0.935225
    13395.847300       0.933707
    13413.816200       0.932183
    13431.833400       0.930654
    13449.899100       0.929119
    13468.013500       0.927579
    13486.176700       0.926035
    13504.388900       0.924486
    13522.650400       0.922935
    13540.961400       0.921380
    13559.322000       0.919822
    13577.732500       0.918262
    13596.193100       0.916701
    13614.703900       0.915138
    13633.265200       0.913574
    13651.877100       0.912010
    13670.540000       0.910446
    13689.253900       0.908882
    13708.019200       0.907319
    13726.836000       0.905757
    13745.704500       0.904197
    13764.624900       0.902639
    13783.597500       0.901083
    13802.622500       0.899530
    13821.700100       0.897981
    13840.830400       0.896436
    13860.013900       0.894894
    13879.250500       0.893357
    13898.540700       0.891825
    13917.884500       0.890299
    13937.282200       0.888778
    13956.734100       0.887263
    13976.240400       0.885755
    13995.801300       0.884254
    14015.417000       0.882760
    14035.087700       0.881273
    14054.813800       0.879795
    14074.595400       0.878325
    14094.432700       0.876863
    14114.326000       0.875411
    14134.275600       0.873968
    14154.281700       0.872535
    14174.344400       0.871112
    14194.464200       0.869700
    14214.641100       0.868298
    14234.875400       0.866907
    14255.167500       0.865528
    14275.517500       0.864161
    14295.925700       0.862805
    14316.392300       0.861462
    14336.917600       0.860132
    14357.501800       0.858814
    14378.145200       0.857510
    14398.848100       0.856220
    14419.610700       0.854943
    14440.433200       0.853680
    14461.316000       0.852431
    14482.259200       0.851197
    14503.263200       0.849978
    14524.328200       0.848774
    14545.454500       0.847585
    14566.642400       0.846412
    14587.892000       0.845255
    14609.203800       0.844113
    14630.577900       0.842988
    14652.014700       0.841880
    14673.514300       0.840787
    14695.077100       0.839712
    14716.703500       0.838653
    14738.393500       0.837612
    14760.147600       0.836588
    14781.966000       0.835582
    14803.849000       0.834593
    14825.796900       0.833622
    14847.809900       0.832669
    14869.888500       0.831734
    14892.032800       0.830817
    14914.243100       0.829918
    14936.519800       0.829038
    14958.863100       0.828176
    14981.273400       0.827333
    15003.750900       0.826508
    15026.296000       0.825703
    15048.909000       0.824916
    15071.590100       0.824148
    15094.339600       0.823398
    15117.158000       0.822668
    15140.045400       0.821957
    15163.002300       0.821265
    15186.028900       0.820592
    15209.125500       0.819938
    15232.292500       0.819303
    15255.530100       0.818687
    15278.838800       0.818090
    15302.218800       0.817512
    15325.670500       0.816953
    15349.194200       0.816413
    15372.790200       0.815892
    15396.458800       0.815389
    15420.200500       0.814906
    15444.015400       0.814440
    15467.904100       0.813994
    15491.866800       0.813566
    15515.903800       0.813156
    15540.015500       0.812765
    15564.202300       0.812392
    15588.464500       0.812036
    15612.802500       0.811699
    15637.216600       0.811379
    15661.707100       0.811077
    15686.274500       0.810792
    15710.919100       0.810524
    15735.641200       0.810274
    15760.441300       0.810040
    15785.319700       0.809822
    15810.276700       0.809621
    15835.312700       0.809437
    15860.428200       0.809268
    15885.623500       0.809114
    15910.899000       0.808976
    15936.255000       0.808854
    15961.691900       0.808746
    15987.210200       0.808652
    16012.810200       0.808573
    16038.492400       0.808508
    16064.257000       0.808457
    16090.104600       0.808419
    16116.035500       0.808394
    16142.050000       0.808382
    16168.148700       0.808382
    16194.332000       0.808394
    16220.600200       0.808418
    16246.953700       0.808453
    16273.393000       0.808498
    16299.918500       0.808555
    16326.530600       0.808621
    16353.229800       0.808697
    16380.016400       0.808783
    16406.890900       0.808877
    16433.853700       0.808979
    16460.905300       0.809090
    16488.046200       0.809208
    16515.276600       0.809333
    16542.597200       0.809465
    16570.008300       0.809603
    16597.510400       0.809746
    16625.103900       0.809894
    16652.789300       0.810047
    16680.567100       0.810205
    16708.437800       0.810365
    16736.401700       0.810529
    16764.459300       0.810695
    16792.611300       0.810864
    16820.857900       0.811033
    16849.199700       0.811204
    16877.637100       0.811375
    16906.170800       0.811545
    16934.801000       0.811715
    16963.528400       0.811883
    16992.353400       0.812049
    17021.276600       0.812213
    17050.298400       0.812373
    17079.419300       0.812529
    17108.639900       0.812681
    17137.960600       0.812828
    17167.382000       0.812969
    17196.904600       0.813104
    17226.528900       0.813231
    17256.255400       0.813351
    17286.084700       0.813462
    17316.017300       0.813565
    17346.053800       0.813658
    17376.194600       0.813740
    17406.440400       0.813811
    17436.791600       0.813870
    17467.248900       0.813917
    17497.812800       0.813951
    17528.483800       0.813971
    17559.262500       0.813976
    17590.149500       0.813966
    17621.145400       0.813941
    17652.250700       0.813898
    17683.466000       0.813838
