126,   126, MVIRI VIS channel from srf_MET5_2006348_2006349_1801-Release_S10EL_10.dat
Number of data points:
806
Wavenumber (cm-1)   Filter response
     8350.730700       0.000000
     8357.710000       0.000000
     8364.701000       0.000000
     8371.703600       0.000002
     8378.718100       0.000004
     8385.744200       0.000009
     8392.782200       0.000017
     8399.832000       0.000028
     8406.893700       0.000043
     8413.967200       0.000062
     8421.052600       0.000086
     8428.150000       0.000116
     8435.259400       0.000151
     8442.380800       0.000192
     8449.514200       0.000241
     8456.659600       0.000296
     8463.817200       0.000359
     8470.986900       0.000430
     8478.168700       0.000509
     8485.362700       0.000597
     8492.569000       0.000694
     8499.787500       0.000800
     8507.018300       0.000916
     8514.261400       0.001043
     8521.516800       0.001179
     8528.784600       0.001326
     8536.064900       0.001484
     8543.357500       0.001654
     8550.662700       0.001834
     8557.980300       0.002027
     8565.310500       0.002231
     8572.653200       0.002448
     8580.008600       0.002678
     8587.376600       0.002920
     8594.757200       0.003174
     8602.150500       0.003443
     8609.556600       0.003724
     8616.975400       0.004019
     8624.407100       0.004328
     8631.851500       0.004651
     8639.308900       0.004987
     8646.779100       0.005339
     8654.262200       0.005704
     8661.758300       0.006085
     8669.267400       0.006480
     8676.789600       0.006890
     8684.324800       0.007316
     8691.873100       0.007756
     8699.434500       0.008213
     8707.009100       0.008684
     8714.596900       0.009172
     8722.198000       0.009675
     8729.812300       0.010195
     8737.439900       0.010730
     8745.080900       0.011282
     8752.735200       0.011851
     8760.403000       0.012436
     8768.084200       0.013038
     8775.778900       0.013656
     8783.487000       0.014291
     8791.208800       0.014944
     8798.944100       0.015614
     8806.693100       0.016301
     8814.455700       0.017005
     8822.232000       0.017727
     8830.022100       0.018467
     8837.825900       0.019224
     8845.643500       0.019999
     8853.475000       0.020792
     8861.320300       0.021604
     8869.179600       0.022433
     8877.052800       0.023281
     8884.940000       0.024147
     8892.841300       0.025032
     8900.756600       0.025936
     8908.686000       0.026858
     8916.629500       0.027799
     8924.587200       0.028759
     8932.559200       0.029738
     8940.545400       0.030736
     8948.545900       0.031753
     8956.560700       0.032790
     8964.589900       0.033846
     8972.633500       0.034922
     8980.691500       0.036017
     8988.764000       0.037133
     8996.851100       0.038268
     9004.952700       0.039423
     9013.068900       0.040598
     9021.199800       0.041793
     9029.345400       0.043009
     9037.505600       0.044245
     9045.680700       0.045501
     9053.870500       0.046778
     9062.075200       0.048075
     9070.294800       0.049394
     9078.529300       0.050733
     9086.778700       0.052093
     9095.043200       0.053474
     9103.322700       0.054876
     9111.617300       0.056300
     9119.927000       0.057744
     9128.251900       0.059211
     9136.592100       0.060698
     9144.947400       0.062207
     9153.318100       0.063739
     9161.704100       0.065291
     9170.105500       0.066865
     9178.522300       0.068462
     9186.954500       0.070080
     9195.402300       0.071721
     9203.865600       0.073384
     9212.344500       0.075069
     9220.839100       0.076776
     9229.349300       0.078506
     9237.875300       0.080258
     9246.417000       0.082032
     9254.974500       0.083830
     9263.547900       0.085650
     9272.137200       0.087493
     9280.742500       0.089359
     9289.363700       0.091248
     9298.000900       0.093160
     9306.654300       0.095094
     9315.323700       0.097052
     9324.009300       0.099033
     9332.711200       0.101038
     9341.429200       0.103066
     9350.163600       0.105117
     9358.914400       0.107191
     9367.681500       0.109289
     9376.465100       0.111411
     9385.265100       0.113556
     9394.081700       0.115724
     9402.914900       0.117917
     9411.764700       0.120133
     9420.631200       0.122372
     9429.514400       0.124636
     9438.414300       0.126923
     9447.331100       0.129234
     9456.264800       0.131569
     9465.215300       0.133928
     9474.182900       0.136311
     9483.167400       0.138717
     9492.169000       0.141148
     9501.187600       0.143602
     9510.223500       0.146081
     9519.276500       0.148583
     9528.346800       0.151110
     9537.434400       0.153660
     9546.539400       0.156234
     9555.661700       0.158833
     9564.801500       0.161455
     9573.958800       0.164101
     9583.133700       0.166771
     9592.326100       0.169465
     9601.536200       0.172183
     9610.764100       0.174924
     9620.009600       0.177690
     9629.273000       0.180479
     9638.554200       0.183292
     9647.853400       0.186128
     9657.170400       0.188988
     9666.505600       0.191873
     9675.858700       0.194780
     9685.230000       0.197711
     9694.619500       0.200665
     9704.027200       0.203643
     9713.453100       0.206644
     9722.897400       0.209668
     9732.360100       0.212716
     9741.841200       0.215786
     9751.340800       0.218879
     9760.859000       0.221996
     9770.395700       0.225135
     9779.951100       0.228297
     9789.525200       0.231481
     9799.118100       0.234689
     9808.729800       0.237918
     9818.360300       0.241170
     9828.009800       0.244443
     9837.678300       0.247739
     9847.365800       0.251057
     9857.072400       0.254396
     9866.798200       0.257758
     9876.543200       0.261140
     9886.307500       0.264544
     9896.091000       0.267970
     9905.894000       0.271416
     9915.716400       0.274883
     9925.558300       0.278371
     9935.419800       0.281880
     9945.300800       0.285409
     9955.201600       0.288958
     9965.122100       0.292527
     9975.062300       0.296116
     9985.022500       0.299725
     9995.002500       0.303354
    10005.002500       0.307001
    10015.022500       0.310668
    10025.062700       0.314354
    10035.122900       0.318058
    10045.203400       0.321781
    10055.304200       0.325522
    10065.425300       0.329281
    10075.566800       0.333058
    10085.728700       0.336853
    10095.911200       0.340665
    10106.114200       0.344494
    10116.337900       0.348340
    10126.582300       0.352202
    10136.847400       0.356081
    10147.133400       0.359977
    10157.440300       0.363888
    10167.768200       0.367814
    10178.117000       0.371756
    10188.487000       0.375713
    10198.878100       0.379685
    10209.290500       0.383672
    10219.724100       0.387672
    10230.179000       0.391687
    10240.655400       0.395715
    10251.153300       0.399757
    10261.672700       0.403811
    10272.213700       0.407879
    10282.776300       0.411959
    10293.360800       0.416051
    10303.967000       0.420155
    10314.595200       0.424271
    10325.245200       0.428398
    10335.917300       0.432535
    10346.611500       0.436684
    10357.327800       0.440842
    10368.066400       0.445011
    10378.827200       0.449189
    10389.610400       0.453376
    10400.416000       0.457572
    10411.244100       0.461777
    10422.094800       0.465990
    10432.968200       0.470211
    10443.864200       0.474440
    10454.783100       0.478675
    10465.724800       0.482918
    10476.689400       0.487167
    10487.677000       0.491422
    10498.687700       0.495683
    10509.721500       0.499949
    10520.778500       0.504219
    10531.858900       0.508495
    10542.962600       0.512775
    10554.089700       0.517059
    10565.240400       0.521346
    10576.414600       0.525636
    10587.612500       0.529929
    10598.834100       0.534225
    10610.079600       0.538522
    10621.348900       0.542821
    10632.642200       0.547121
    10643.959600       0.551422
    10655.301000       0.555723
    10666.666700       0.560024
    10678.056600       0.564324
    10689.470900       0.568624
    10700.909600       0.572923
    10712.372800       0.577220
    10723.860600       0.581515
    10735.373100       0.585807
    10746.910300       0.590097
    10758.472300       0.594384
    10770.059200       0.598666
    10781.671200       0.602945
    10793.308100       0.607219
    10804.970300       0.611489
    10816.657700       0.615753
    10828.370300       0.620011
    10840.108400       0.624263
    10851.871900       0.628509
    10863.661100       0.632748
    10875.475800       0.636979
    10887.316300       0.641203
    10899.182600       0.645418
    10911.074700       0.649625
    10922.992900       0.653823
    10934.937100       0.658011
    10946.907500       0.662190
    10958.904100       0.666358
    10970.927000       0.670516
    10982.976400       0.674663
    10995.052200       0.678798
    11007.154700       0.682922
    11019.283700       0.687033
    11031.439600       0.691132
    11043.622300       0.695217
    11055.832000       0.699289
    11068.068600       0.703347
    11080.332400       0.707391
    11092.623400       0.711419
    11104.941700       0.715433
    11117.287400       0.719432
    11129.660500       0.723414
    11142.061300       0.727381
    11154.489700       0.731330
    11166.945800       0.735262
    11179.429800       0.739177
    11191.941800       0.743075
    11204.481800       0.746954
    11217.049900       0.750814
    11229.646300       0.754655
    11242.270900       0.758477
    11254.924000       0.762279
    11267.605600       0.766061
    11280.315800       0.769823
    11293.054800       0.773563
    11305.822500       0.777283
    11318.619100       0.780980
    11331.444800       0.784656
    11344.299500       0.788310
    11357.183400       0.791940
    11370.096600       0.795548
    11383.039300       0.799133
    11396.011400       0.802693
    11409.013100       0.806230
    11422.044500       0.809742
    11435.105800       0.813230
    11448.196900       0.816692
    11461.318100       0.820129
    11474.469300       0.823540
    11487.650800       0.826925
    11500.862600       0.830284
    11514.104800       0.833616
    11527.377500       0.836921
    11540.680900       0.840199
    11554.015000       0.843449
    11567.380000       0.846671
    11580.775900       0.849865
    11594.202900       0.853031
    11607.661100       0.856168
    11621.150500       0.859276
    11634.671300       0.862354
    11648.223600       0.865403
    11661.807600       0.868422
    11675.423200       0.871411
    11689.070700       0.874369
    11702.750100       0.877297
    11716.461600       0.880194
    11730.205300       0.883059
    11743.981200       0.885894
    11757.789500       0.888697
    11771.630400       0.891468
    11785.503800       0.894206
    11799.410000       0.896913
    11813.349100       0.899587
    11827.321100       0.902228
    11841.326200       0.904837
    11855.364600       0.907412
    11869.436200       0.909954
    11883.541300       0.912463
    11897.680000       0.914937
    11911.852300       0.917378
    11926.058400       0.919785
    11940.298500       0.922158
    11954.572600       0.924497
    11968.880900       0.926801
    11983.223500       0.929070
    11997.600500       0.931304
    12012.012000       0.933504
    12026.458200       0.935668
    12040.939200       0.937798
    12055.455100       0.939892
    12070.006000       0.941950
    12084.592100       0.943973
    12099.213600       0.945961
    12113.870400       0.947913
    12128.562800       0.949828
    12143.290800       0.951708
    12158.054700       0.953552
    12172.854500       0.955360
    12187.690400       0.957132
    12202.562500       0.958868
    12217.471000       0.960567
    12232.415900       0.962230
    12247.397400       0.963857
    12262.415700       0.965447
    12277.470800       0.967001
    12292.563000       0.968519
    12307.692300       0.970000
    12322.858900       0.971445
    12338.062900       0.972853
    12353.304500       0.974225
    12368.583800       0.975560
    12383.900900       0.976859
    12399.256000       0.978122
    12414.649300       0.979348
    12430.080800       0.980538
    12445.550700       0.981692
    12461.059200       0.982809
    12476.606400       0.983890
    12492.192400       0.984935
    12507.817400       0.985944
    12523.481500       0.986916
    12539.185000       0.987853
    12554.927800       0.988754
    12570.710200       0.989619
    12586.532400       0.990449
    12602.394500       0.991243
    12618.296500       0.992001
    12634.238800       0.992724
    12650.221400       0.993412
    12666.244500       0.994065
    12682.308200       0.994682
    12698.412700       0.995265
    12714.558200       0.995813
    12730.744700       0.996327
    12746.972600       0.996806
    12763.241900       0.997251
    12779.552700       0.997662
    12795.905300       0.998038
    12812.299800       0.998382
    12828.736400       0.998691
    12845.215200       0.998967
    12861.736300       0.999210
    12878.300100       0.999420
    12894.906500       0.999598
    12911.555800       0.999742
    12928.248200       0.999855
    12944.983800       0.999935
    12961.762800       0.999983
    12978.585300       1.000000
    12995.451600       0.999985
    13012.361700       0.999939
    13029.316000       0.999862
    13046.314400       0.999755
    13063.357300       0.999617
    13080.444700       0.999449
    13097.576900       0.999251
    13114.754100       0.999023
    13131.976400       0.998766
    13149.243900       0.998480
    13166.556900       0.998165
    13183.915600       0.997822
    13201.320100       0.997451
    13218.770700       0.997051
    13236.267400       0.996625
    13253.810500       0.996170
    13271.400100       0.995689
    13289.036500       0.995182
    13306.719900       0.994648
    13324.450400       0.994088
    13342.228200       0.993502
    13360.053400       0.992891
    13377.926400       0.992255
    13395.847300       0.991594
    13413.816200       0.990910
    13431.833400       0.990201
    13449.899100       0.989468
    13468.013500       0.988713
    13486.176700       0.987935
    13504.388900       0.987134
    13522.650400       0.986311
    13540.961400       0.985466
    13559.322000       0.984600
    13577.732500       0.983712
    13596.193100       0.982805
    13614.703900       0.981876
    13633.265200       0.980929
    13651.877100       0.979961
    13670.540000       0.978975
    13689.253900       0.977969
    13708.019200       0.976946
    13726.836000       0.975905
    13745.704500       0.974846
    13764.624900       0.973770
    13783.597500       0.972677
    13802.622500       0.971568
    13821.700100       0.970443
    13840.830400       0.969303
    13860.013900       0.968148
    13879.250500       0.966978
    13898.540700       0.965794
    13917.884500       0.964595
    13937.282200       0.963384
    13956.734100       0.962159
    13976.240400       0.960922
    13995.801300       0.959673
    14015.417000       0.958412
    14035.087700       0.957140
    14054.813800       0.955857
    14074.595400       0.954563
    14094.432700       0.953259
    14114.326000       0.951946
    14134.275600       0.950623
    14154.281700       0.949292
    14174.344400       0.947952
    14194.464200       0.946605
    14214.641100       0.945249
    14234.875400       0.943887
    14255.167500       0.942518
    14275.517500       0.941142
    14295.925700       0.939761
    14316.392300       0.938374
    14336.917600       0.936983
    14357.501800       0.935586
    14378.145200       0.934186
    14398.848100       0.932781
    14419.610700       0.931374
    14440.433200       0.929963
    14461.316000       0.928550
    14482.259200       0.927134
    14503.263200       0.925717
    14524.328200       0.924298
    14545.454500       0.922878
    14566.642400       0.921458
    14587.892000       0.920038
    14609.203800       0.918617
    14630.577900       0.917198
    14652.014700       0.915779
    14673.514300       0.914362
    14695.077100       0.912946
    14716.703500       0.911533
    14738.393500       0.910122
    14760.147600       0.908714
    14781.966000       0.907309
    14803.849000       0.905907
    14825.796900       0.904510
    14847.809900       0.903117
    14869.888500       0.901728
    14892.032800       0.900345
    14914.243100       0.898967
    14936.519800       0.897594
    14958.863100       0.896228
    14981.273400       0.894867
    15003.750900       0.893514
    15026.296000       0.892167
    15048.909000       0.890828
    15071.590100       0.889496
    15094.339600       0.888172
    15117.158000       0.886856
    15140.045400       0.885549
    15163.002300       0.884251
    15186.028900       0.882961
    15209.125500       0.881681
    15232.292500       0.880411
    15255.530100       0.879150
    15278.838800       0.877900
    15302.218800       0.876660
    15325.670500       0.875430
    15349.194200       0.874211
    15372.790200       0.873004
    15396.458800       0.871808
    15420.200500       0.870623
    15444.015400       0.869450
    15467.904100       0.868289
    15491.866800       0.867140
    15515.903800       0.866003
    15540.015500       0.864879
    15564.202300       0.863768
    15588.464500       0.862670
    15612.802500       0.861584
    15637.216600       0.860512
    15661.707100       0.859453
    15686.274500       0.858408
    15710.919100       0.857377
    15735.641200       0.856359
    15760.441300       0.855355
    15785.319700       0.854365
    15810.276700       0.853389
    15835.312700       0.852427
    15860.428200       0.851479
    15885.623500       0.850546
    15910.899000       0.849627
    15936.255000       0.848723
    15961.691900       0.847833
    15987.210200       0.846958
    16012.810200       0.846098
    16038.492400       0.845252
    16064.257000       0.844420
    16090.104600       0.843604
    16116.035500       0.842802
    16142.050000       0.842014
    16168.148700       0.841242
    16194.332000       0.840483
    16220.600200       0.839740
    16246.953700       0.839011
    16273.393000       0.838296
    16299.918500       0.837596
    16326.530600       0.836910
    16353.229800       0.836238
    16380.016400       0.835580
    16406.890900       0.834937
    16433.853700       0.834307
    16460.905300       0.833691
    16488.046200       0.833089
    16515.276600       0.832501
    16542.597200       0.831925
    16570.008300       0.831363
    16597.510400       0.830814
    16625.103900       0.830278
    16652.789300       0.829755
    16680.567100       0.829244
    16708.437800       0.828745
    16736.401700       0.828258
    16764.459300       0.827783
    16792.611300       0.827320
    16820.857900       0.826868
    16849.199700       0.826427
    16877.637100       0.825997
    16906.170800       0.825577
    16934.801000       0.825168
    16963.528400       0.824768
    16992.353400       0.824378
    17021.276600       0.823998
    17050.298400       0.823626
    17079.419300       0.823263
    17108.639900       0.822908
    17137.960600       0.822561
    17167.382000       0.822222
    17196.904600       0.821890
    17226.528900       0.821565
    17256.255400       0.821246
    17286.084700       0.820933
