11 , goes_08_sounder_11.flt
Number of data points:
1602
Wavenumber (cm-1)   Filter response
     1338.000000       0.001566
     1338.100000       0.001573
     1338.200000       0.001579
     1338.300000       0.001585
     1338.400000       0.001591
     1338.500000       0.001597
     1338.600000       0.001602
     1338.700000       0.001608
     1338.800000       0.001613
     1338.900000       0.001618
     1339.000000       0.001623
     1339.100000       0.001628
     1339.200000       0.001633
     1339.300000       0.001638
     1339.400000       0.001642
     1339.500000       0.001646
     1339.600000       0.001651
     1339.700000       0.001655
     1339.800000       0.001659
     1339.900000       0.001663
     1340.000000       0.001667
     1340.100000       0.001671
     1340.200000       0.001675
     1340.300000       0.001678
     1340.400000       0.001682
     1340.500000       0.001685
     1340.600000       0.001689
     1340.700000       0.001692
     1340.800000       0.001696
     1340.900000       0.001699
     1341.000000       0.001702
     1341.100000       0.001706
     1341.200000       0.001709
     1341.300000       0.001712
     1341.400000       0.001715
     1341.500000       0.001719
     1341.600000       0.001722
     1341.700000       0.001725
     1341.800000       0.001728
     1341.900000       0.001732
     1342.000000       0.001735
     1342.100000       0.001738
     1342.200000       0.001741
     1342.300000       0.001744
     1342.400000       0.001748
     1342.500000       0.001751
     1342.600000       0.001754
     1342.700000       0.001758
     1342.800000       0.001761
     1342.900000       0.001764
     1343.000000       0.001768
     1343.100000       0.001771
     1343.200000       0.001775
     1343.300000       0.001778
     1343.400000       0.001782
     1343.500000       0.001785
     1343.600000       0.001789
     1343.700000       0.001792
     1343.800000       0.001796
     1343.900000       0.001800
     1344.000000       0.001803
     1344.100000       0.001807
     1344.200000       0.001811
     1344.300000       0.001815
     1344.400000       0.001818
     1344.500000       0.001822
     1344.600000       0.001826
     1344.700000       0.001830
     1344.800000       0.001834
     1344.900000       0.001838
     1345.000000       0.001842
     1345.100000       0.001847
     1345.200000       0.001851
     1345.300000       0.001855
     1345.400000       0.001859
     1345.500000       0.001864
     1345.600000       0.001868
     1345.700000       0.001873
     1345.800000       0.001877
     1345.900000       0.001882
     1346.000000       0.001887
     1346.100000       0.001891
     1346.200000       0.001896
     1346.300000       0.001901
     1346.400000       0.001906
     1346.500000       0.001911
     1346.600000       0.001916
     1346.700000       0.001921
     1346.800000       0.001927
     1346.900000       0.001932
     1347.000000       0.001938
     1347.100000       0.001943
     1347.200000       0.001949
     1347.300000       0.001955
     1347.400000       0.001960
     1347.500000       0.001966
     1347.600000       0.001972
     1347.700000       0.001978
     1347.800000       0.001985
     1347.900000       0.001991
     1348.000000       0.001998
     1348.100000       0.002004
     1348.200000       0.002011
     1348.300000       0.002018
     1348.400000       0.002025
     1348.500000       0.002031
     1348.600000       0.002038
     1348.700000       0.002045
     1348.800000       0.002052
     1348.900000       0.002059
     1349.000000       0.002066
     1349.100000       0.002073
     1349.200000       0.002080
     1349.300000       0.002087
     1349.400000       0.002095
     1349.500000       0.002102
     1349.600000       0.002109
     1349.700000       0.002116
     1349.800000       0.002123
     1349.900000       0.002130
     1350.000000       0.002137
     1350.100000       0.002144
     1350.200000       0.002150
     1350.300000       0.002157
     1350.400000       0.002164
     1350.500000       0.002171
     1350.600000       0.002177
     1350.700000       0.002184
     1350.800000       0.002190
     1350.900000       0.002197
     1351.000000       0.002203
     1351.100000       0.002209
     1351.200000       0.002215
     1351.300000       0.002221
     1351.400000       0.002227
     1351.500000       0.002233
     1351.600000       0.002239
     1351.700000       0.002244
     1351.800000       0.002249
     1351.900000       0.002255
     1352.000000       0.002260
     1352.100000       0.002264
     1352.200000       0.002269
     1352.300000       0.002274
     1352.400000       0.002278
     1352.500000       0.002282
     1352.600000       0.002286
     1352.700000       0.002289
     1352.800000       0.002293
     1352.900000       0.002296
     1353.000000       0.002299
     1353.100000       0.002302
     1353.200000       0.002304
     1353.300000       0.002306
     1353.400000       0.002308
     1353.500000       0.002309
     1353.600000       0.002310
     1353.700000       0.002311
     1353.800000       0.002311
     1353.900000       0.002311
     1354.000000       0.002311
     1354.100000       0.002310
     1354.200000       0.002309
     1354.300000       0.002307
     1354.400000       0.002305
     1354.500000       0.002303
     1354.600000       0.002300
     1354.700000       0.002296
     1354.800000       0.002292
     1354.900000       0.002287
     1355.000000       0.002282
     1355.100000       0.002276
     1355.200000       0.002269
     1355.300000       0.002262
     1355.400000       0.002255
     1355.500000       0.002246
     1355.600000       0.002237
     1355.700000       0.002227
     1355.800000       0.002217
     1355.900000       0.002205
     1356.000000       0.002193
     1356.100000       0.002180
     1356.200000       0.002166
     1356.300000       0.002152
     1356.400000       0.002136
     1356.500000       0.002120
     1356.600000       0.002102
     1356.700000       0.002084
     1356.800000       0.002064
     1356.900000       0.002044
     1357.000000       0.002022
     1357.100000       0.001999
     1357.200000       0.001975
     1357.300000       0.001949
     1357.400000       0.001922
     1357.500000       0.001894
     1357.600000       0.001865
     1357.700000       0.001834
     1357.800000       0.001802
     1357.900000       0.001769
     1358.000000       0.001734
     1358.100000       0.001699
     1358.200000       0.001664
     1358.300000       0.001627
     1358.400000       0.001590
     1358.500000       0.001553
     1358.600000       0.001515
     1358.700000       0.001477
     1358.800000       0.001438
     1358.900000       0.001400
     1359.000000       0.001365
     1359.100000       0.001328
     1359.200000       0.001289
     1359.300000       0.001251
     1359.400000       0.001214
     1359.500000       0.001177
     1359.600000       0.001140
     1359.700000       0.001105
     1359.800000       0.001069
     1359.900000       0.001035
     1360.000000       0.001002
     1360.100000       0.000969
     1360.200000       0.000938
     1360.300000       0.000907
     1360.400000       0.000879
     1360.500000       0.000851
     1360.600000       0.000825
     1360.700000       0.000801
     1360.800000       0.000778
     1360.900000       0.000758
     1361.000000       0.000739
     1361.100000       0.000723
     1361.200000       0.000708
     1361.300000       0.000697
     1361.400000       0.000687
     1361.500000       0.000681
     1361.600000       0.000677
     1361.700000       0.000676
     1361.800000       0.000678
     1361.900000       0.000684
     1362.000000       0.000693
     1362.100000       0.000705
     1362.200000       0.000722
     1362.300000       0.000742
     1362.400000       0.000766
     1362.500000       0.000795
     1362.600000       0.000828
     1362.700000       0.000867
     1362.800000       0.000910
     1362.900000       0.000958
     1363.000000       0.001011
     1363.100000       0.001071
     1363.200000       0.001136
     1363.300000       0.001207
     1363.400000       0.001284
     1363.500000       0.001368
     1363.600000       0.001458
     1363.700000       0.001553
     1363.800000       0.001655
     1363.900000       0.001762
     1364.000000       0.001875
     1364.100000       0.001993
     1364.200000       0.002117
     1364.300000       0.002247
     1364.400000       0.002382
     1364.500000       0.002523
     1364.600000       0.002669
     1364.700000       0.002820
     1364.800000       0.002977
     1364.900000       0.003140
     1365.000000       0.003308
     1365.100000       0.003482
     1365.200000       0.003661
     1365.300000       0.003846
     1365.400000       0.004037
     1365.500000       0.004234
     1365.600000       0.004436
     1365.700000       0.004645
     1365.800000       0.004860
     1365.900000       0.005081
     1366.000000       0.005308
     1366.100000       0.005542
     1366.200000       0.005783
     1366.300000       0.006031
     1366.400000       0.006286
     1366.500000       0.006548
     1366.600000       0.006817
     1366.700000       0.007095
     1366.800000       0.007380
     1366.900000       0.007674
     1367.000000       0.007976
     1367.100000       0.008286
     1367.200000       0.008607
     1367.300000       0.008936
     1367.400000       0.009275
     1367.500000       0.009625
     1367.600000       0.009984
     1367.700000       0.010355
     1367.800000       0.010737
     1367.900000       0.011130
     1368.000000       0.011535
     1368.100000       0.011951
     1368.200000       0.012378
     1368.300000       0.012819
     1368.400000       0.013270
     1368.500000       0.013733
     1368.600000       0.014208
     1368.700000       0.014696
     1368.800000       0.015197
     1368.900000       0.015711
     1369.000000       0.016238
     1369.100000       0.016778
     1369.200000       0.017332
     1369.300000       0.017901
     1369.400000       0.018485
     1369.500000       0.019084
     1369.600000       0.019697
     1369.700000       0.020327
     1369.800000       0.020973
     1369.900000       0.021636
     1370.000000       0.022318
     1370.100000       0.023016
     1370.200000       0.023729
     1370.300000       0.024469
     1370.400000       0.025218
     1370.500000       0.025942
     1370.600000       0.026688
     1370.700000       0.027492
     1370.800000       0.028319
     1370.900000       0.029157
     1371.000000       0.030016
     1371.100000       0.030896
     1371.200000       0.031795
     1371.300000       0.032715
     1371.400000       0.033654
     1371.500000       0.034614
     1371.600000       0.035596
     1371.700000       0.036600
     1371.800000       0.037627
     1371.900000       0.038675
     1372.000000       0.039747
     1372.100000       0.040843
     1372.200000       0.041964
     1372.300000       0.043115
     1372.400000       0.044294
     1372.500000       0.045502
     1372.600000       0.046745
     1372.700000       0.048023
     1372.800000       0.049340
     1372.900000       0.050696
     1373.000000       0.052093
     1373.100000       0.053535
     1373.200000       0.055023
     1373.300000       0.056565
     1373.400000       0.058158
     1373.500000       0.059806
     1373.600000       0.061512
     1373.700000       0.063278
     1373.800000       0.065111
     1373.900000       0.067011
     1374.000000       0.068980
     1374.100000       0.071022
     1374.200000       0.073141
     1374.300000       0.075341
     1374.400000       0.077622
     1374.500000       0.079989
     1374.600000       0.082442
     1374.700000       0.084981
     1374.800000       0.087616
     1374.900000       0.090340
     1375.000000       0.093163
     1375.100000       0.096084
     1375.200000       0.099109
     1375.300000       0.102245
     1375.400000       0.105487
     1375.500000       0.108843
     1375.600000       0.112317
     1375.700000       0.115905
     1375.800000       0.119604
     1375.900000       0.123399
     1376.000000       0.127296
     1376.100000       0.131288
     1376.200000       0.135371
     1376.300000       0.139548
     1376.400000       0.143807
     1376.500000       0.148145
     1376.600000       0.152564
     1376.700000       0.157060
     1376.800000       0.161636
     1376.900000       0.166275
     1377.000000       0.170980
     1377.100000       0.175752
     1377.200000       0.180587
     1377.300000       0.185489
     1377.400000       0.190445
     1377.500000       0.195457
     1377.600000       0.200524
     1377.700000       0.205652
     1377.800000       0.210855
     1377.900000       0.216132
     1378.000000       0.221492
     1378.100000       0.226942
     1378.200000       0.232497
     1378.300000       0.238171
     1378.400000       0.243958
     1378.500000       0.249878
     1378.600000       0.255937
     1378.700000       0.262147
     1378.800000       0.268526
     1378.900000       0.275066
     1379.000000       0.281791
     1379.100000       0.288710
     1379.200000       0.295837
     1379.300000       0.303188
     1379.400000       0.310749
     1379.500000       0.318549
     1379.600000       0.326611
     1379.700000       0.334941
     1379.800000       0.343545
     1379.900000       0.352403
     1380.000000       0.361531
     1380.100000       0.370934
     1380.200000       0.380611
     1380.300000       0.390588
     1380.400000       0.400832
     1380.500000       0.411352
     1380.600000       0.422157
     1380.700000       0.433268
     1380.800000       0.444688
     1380.900000       0.456302
     1381.000000       0.468052
     1381.100000       0.479869
     1381.200000       0.491669
     1381.300000       0.503399
     1381.400000       0.514955
     1381.500000       0.526265
     1381.600000       0.537251
     1381.700000       0.547865
     1381.800000       0.558138
     1381.900000       0.568107
     1382.000000       0.577922
     1382.100000       0.587366
     1382.200000       0.596140
     1382.300000       0.604931
     1382.400000       0.614109
     1382.500000       0.623266
     1382.600000       0.632343
     1382.700000       0.641480
     1382.800000       0.650690
     1382.900000       0.659939
     1383.000000       0.669224
     1383.100000       0.678504
     1383.200000       0.687742
     1383.300000       0.696924
     1383.400000       0.706001
     1383.500000       0.714950
     1383.600000       0.723750
     1383.700000       0.732368
     1383.800000       0.740771
     1383.900000       0.748917
     1384.000000       0.756822
     1384.100000       0.764542
     1384.200000       0.772111
     1384.300000       0.779561
     1384.400000       0.786924
     1384.500000       0.794249
     1384.600000       0.801572
     1384.700000       0.808936
     1384.800000       0.816388
     1384.900000       0.823939
     1385.000000       0.831636
     1385.100000       0.839532
     1385.200000       0.847667
     1385.300000       0.856040
     1385.400000       0.864561
     1385.500000       0.873113
     1385.600000       0.881572
     1385.700000       0.889822
     1385.800000       0.897768
     1385.900000       0.905266
     1386.000000       0.912199
     1386.100000       0.918451
     1386.200000       0.923916
     1386.300000       0.928637
     1386.400000       0.932660
     1386.500000       0.936081
     1386.600000       0.938983
     1386.700000       0.941433
     1386.800000       0.943523
     1386.900000       0.945320
     1387.000000       0.946879
     1387.100000       0.948223
     1387.200000       0.949365
     1387.300000       0.950324
     1387.400000       0.951117
     1387.500000       0.951756
     1387.600000       0.952261
     1387.700000       0.952646
     1387.800000       0.952926
     1387.900000       0.953115
     1388.000000       0.953230
     1388.100000       0.953284
     1388.200000       0.953294
     1388.300000       0.953272
     1388.400000       0.953235
     1388.500000       0.953196
     1388.600000       0.953168
     1388.700000       0.953155
     1388.800000       0.953158
     1388.900000       0.953178
     1389.000000       0.953214
     1389.100000       0.953267
     1389.200000       0.953341
     1389.300000       0.953434
     1389.400000       0.953549
     1389.500000       0.953684
     1389.600000       0.953842
     1389.700000       0.954025
     1389.800000       0.954232
     1389.900000       0.954466
     1390.000000       0.954725
     1390.100000       0.955013
     1390.200000       0.955330
     1390.300000       0.955679
     1390.400000       0.956061
     1390.500000       0.956476
     1390.600000       0.956922
     1390.700000       0.957397
     1390.800000       0.957899
     1390.900000       0.958428
     1391.000000       0.958979
     1391.100000       0.959551
     1391.200000       0.960144
     1391.300000       0.960753
     1391.400000       0.961375
     1391.500000       0.962007
     1391.600000       0.962648
     1391.700000       0.963296
     1391.800000       0.963949
     1391.900000       0.964600
     1392.000000       0.965250
     1392.100000       0.965896
     1392.200000       0.966535
     1392.300000       0.967165
     1392.400000       0.967782
     1392.500000       0.968386
     1392.600000       0.968979
     1392.700000       0.969561
     1392.800000       0.970134
     1392.900000       0.970693
     1393.000000       0.971243
     1393.100000       0.971781
     1393.200000       0.972308
     1393.300000       0.972826
     1393.400000       0.973330
     1393.500000       0.973822
     1393.600000       0.974303
     1393.700000       0.974772
     1393.800000       0.975229
     1393.900000       0.975673
     1394.000000       0.976101
     1394.100000       0.976516
     1394.200000       0.976914
     1394.300000       0.977299
     1394.400000       0.977670
     1394.500000       0.978030
     1394.600000       0.978377
     1394.700000       0.978715
     1394.800000       0.979045
     1394.900000       0.979365
     1395.000000       0.979677
     1395.100000       0.979983
     1395.200000       0.980283
     1395.300000       0.980578
     1395.400000       0.980867
     1395.500000       0.981154
     1395.600000       0.981437
     1395.700000       0.981718
     1395.800000       0.982000
     1395.900000       0.982281
     1396.000000       0.982562
     1396.100000       0.982845
     1396.200000       0.983132
     1396.300000       0.983424
     1396.400000       0.983721
     1396.500000       0.984026
     1396.600000       0.984339
     1396.700000       0.984661
     1396.800000       0.984994
     1396.900000       0.985339
     1397.000000       0.985698
     1397.100000       0.986071
     1397.200000       0.986458
     1397.300000       0.986860
     1397.400000       0.987275
     1397.500000       0.987700
     1397.600000       0.988139
     1397.700000       0.988590
     1397.800000       0.989053
     1397.900000       0.989524
     1398.000000       0.990005
     1398.100000       0.990492
     1398.200000       0.990982
     1398.300000       0.991472
     1398.400000       0.991960
     1398.500000       0.992442
     1398.600000       0.992915
     1398.700000       0.993378
     1398.800000       0.993831
     1398.900000       0.994269
     1399.000000       0.994692
     1399.100000       0.995101
     1399.200000       0.995493
     1399.300000       0.995866
     1399.400000       0.996220
     1399.500000       0.996553
     1399.600000       0.996863
     1399.700000       0.997149
     1399.800000       0.997411
     1399.900000       0.997647
     1400.000000       0.997853
     1400.100000       0.998030
