8,   8, MVIRI VIS channel from srf_MET2_1983033_1983034_1801-Release_S10EL_10.dat
Number of data points:
730
Wavenumber (cm-1)   Filter response
     8916.629500       0.000000
     8924.587200       0.000000
     8932.559200       0.000002
     8940.545400       0.000011
     8948.545900       0.000032
     8956.560700       0.000068
     8964.589900       0.000124
     8972.633500       0.000205
     8980.691500       0.000314
     8988.764000       0.000455
     8996.851100       0.000631
     9004.952700       0.000847
     9013.068900       0.001104
     9021.199800       0.001408
     9029.345400       0.001759
     9037.505600       0.002163
     9045.680700       0.002620
     9053.870500       0.003134
     9062.075200       0.003707
     9070.294800       0.004341
     9078.529300       0.005039
     9086.778700       0.005803
     9095.043200       0.006635
     9103.322700       0.007536
     9111.617300       0.008509
     9119.927000       0.009554
     9128.251900       0.010674
     9136.592100       0.011870
     9144.947400       0.013142
     9153.318100       0.014493
     9161.704100       0.015924
     9170.105500       0.017434
     9178.522300       0.019027
     9186.954500       0.020701
     9195.402300       0.022458
     9203.865600       0.024298
     9212.344500       0.026222
     9220.839100       0.028231
     9229.349300       0.030325
     9237.875300       0.032504
     9246.417000       0.034768
     9254.974500       0.037119
     9263.547900       0.039554
     9272.137200       0.042076
     9280.742500       0.044683
     9289.363700       0.047376
     9298.000900       0.050154
     9306.654300       0.053017
     9315.323700       0.055965
     9324.009300       0.058998
     9332.711200       0.062116
     9341.429200       0.065316
     9350.163600       0.068600
     9358.914400       0.071967
     9367.681500       0.075416
     9376.465100       0.078947
     9385.265100       0.082558
     9394.081700       0.086249
     9402.914900       0.090019
     9411.764700       0.093868
     9420.631200       0.097795
     9429.514400       0.101798
     9438.414300       0.105878
     9447.331100       0.110032
     9456.264800       0.114260
     9465.215300       0.118561
     9474.182900       0.122934
     9483.167400       0.127378
     9492.169000       0.131891
     9501.187600       0.136473
     9510.223500       0.141122
     9519.276500       0.145838
     9528.346800       0.150618
     9537.434400       0.155463
     9546.539400       0.160370
     9555.661700       0.165339
     9564.801500       0.170367
     9573.958800       0.175455
     9583.133700       0.180600
     9592.326100       0.185801
     9601.536200       0.191058
     9610.764100       0.196367
     9620.009600       0.201730
     9629.273000       0.207143
     9638.554200       0.212605
     9647.853400       0.218116
     9657.170400       0.223673
     9666.505600       0.229276
     9675.858700       0.234923
     9685.230000       0.240612
     9694.619500       0.246343
     9704.027200       0.252113
     9713.453100       0.257922
     9722.897400       0.263768
     9732.360100       0.269649
     9741.841200       0.275565
     9751.340800       0.281513
     9760.859000       0.287493
     9770.395700       0.293503
     9779.951100       0.299540
     9789.525200       0.305606
     9799.118100       0.311697
     9808.729800       0.317812
     9818.360300       0.323951
     9828.009800       0.330111
     9837.678300       0.336291
     9847.365800       0.342490
     9857.072400       0.348706
     9866.798200       0.354939
     9876.543200       0.361187
     9886.307500       0.367448
     9896.091000       0.373721
     9905.894000       0.380004
     9915.716400       0.386298
     9925.558300       0.392599
     9935.419800       0.398908
     9945.300800       0.405222
     9955.201600       0.411540
     9965.122100       0.417862
     9975.062300       0.424184
     9985.022500       0.430508
     9995.002500       0.436832
    10005.002500       0.443153
    10015.022500       0.449471
    10025.062700       0.455785
    10035.122900       0.462094
    10045.203400       0.468396
    10055.304200       0.474690
    10065.425300       0.480976
    10075.566800       0.487251
    10085.728700       0.493516
    10095.911200       0.499768
    10106.114200       0.506007
    10116.337900       0.512232
    10126.582300       0.518441
    10136.847400       0.524635
    10147.133400       0.530811
    10157.440300       0.536968
    10167.768200       0.543106
    10178.117000       0.549224
    10188.487000       0.555320
    10198.878100       0.561395
    10209.290500       0.567446
    10219.724100       0.573473
    10230.179000       0.579475
    10240.655400       0.585452
    10251.153300       0.591402
    10261.672700       0.597324
    10272.213700       0.603218
    10282.776300       0.609083
    10293.360800       0.614918
    10303.967000       0.620722
    10314.595200       0.626495
    10325.245200       0.632236
    10335.917300       0.637944
    10346.611500       0.643619
    10357.327800       0.649259
    10368.066400       0.654864
    10378.827200       0.660433
    10389.610400       0.665967
    10400.416000       0.671463
    10411.244100       0.676922
    10422.094800       0.682342
    10432.968200       0.687724
    10443.864200       0.693067
    10454.783100       0.698370
    10465.724800       0.703633
    10476.689400       0.708855
    10487.677000       0.714036
    10498.687700       0.719175
    10509.721500       0.724271
    10520.778500       0.729325
    10531.858900       0.734335
    10542.962600       0.739302
    10554.089700       0.744225
    10565.240400       0.749104
    10576.414600       0.753938
    10587.612500       0.758726
    10598.834100       0.763470
    10610.079600       0.768167
    10621.348900       0.772818
    10632.642200       0.777423
    10643.959600       0.781982
    10655.301000       0.786493
    10666.666700       0.790956
    10678.056600       0.795373
    10689.470900       0.799741
    10700.909600       0.804062
    10712.372800       0.808334
    10723.860600       0.812558
    10735.373100       0.816734
    10746.910300       0.820861
    10758.472300       0.824939
    10770.059200       0.828967
    10781.671200       0.832947
    10793.308100       0.836877
    10804.970300       0.840758
    10816.657700       0.844590
    10828.370300       0.848372
    10840.108400       0.852104
    10851.871900       0.855786
    10863.661100       0.859419
    10875.475800       0.863002
    10887.316300       0.866535
    10899.182600       0.870018
    10911.074700       0.873452
    10922.992900       0.876835
    10934.937100       0.880169
    10946.907500       0.883453
    10958.904100       0.886687
    10970.927000       0.889871
    10982.976400       0.893006
    10995.052200       0.896091
    11007.154700       0.899126
    11019.283700       0.902112
    11031.439600       0.905049
    11043.622300       0.907936
    11055.832000       0.910774
    11068.068600       0.913563
    11080.332400       0.916304
    11092.623400       0.918995
    11104.941700       0.921637
    11117.287400       0.924231
    11129.660500       0.926777
    11142.061300       0.929274
    11154.489700       0.931724
    11166.945800       0.934125
    11179.429800       0.936479
    11191.941800       0.938785
    11204.481800       0.941044
    11217.049900       0.943256
    11229.646300       0.945421
    11242.270900       0.947539
    11254.924000       0.949610
    11267.605600       0.951636
    11280.315800       0.953615
    11293.054800       0.955548
    11305.822500       0.957436
    11318.619100       0.959279
    11331.444800       0.961076
    11344.299500       0.962829
    11357.183400       0.964537
    11370.096600       0.966201
    11383.039300       0.967821
    11396.011400       0.969397
    11409.013100       0.970929
    11422.044500       0.972418
    11435.105800       0.973865
    11448.196900       0.975268
    11461.318100       0.976629
    11474.469300       0.977949
    11487.650800       0.979226
    11500.862600       0.980462
    11514.104800       0.981656
    11527.377500       0.982810
    11540.680900       0.983923
    11554.015000       0.984996
    11567.380000       0.986029
    11580.775900       0.987022
    11594.202900       0.987975
    11607.661100       0.988890
    11621.150500       0.989766
    11634.671300       0.990603
    11648.223600       0.991403
    11661.807600       0.992164
    11675.423200       0.992888
    11689.070700       0.993575
    11702.750100       0.994225
    11716.461600       0.994839
    11730.205300       0.995416
    11743.981200       0.995957
    11757.789500       0.996463
    11771.630400       0.996934
    11785.503800       0.997369
    11799.410000       0.997770
    11813.349100       0.998137
    11827.321100       0.998470
    11841.326200       0.998769
    11855.364600       0.999035
    11869.436200       0.999268
    11883.541300       0.999468
    11897.680000       0.999635
    11911.852300       0.999771
    11926.058400       0.999875
    11940.298500       0.999948
    11954.572600       0.999989
    11968.880900       1.000000
    11983.223500       0.999980
    11997.600500       0.999930
    12012.012000       0.999851
    12026.458200       0.999741
    12040.939200       0.999603
    12055.455100       0.999435
    12070.006000       0.999239
    12084.592100       0.999015
    12099.213600       0.998762
    12113.870400       0.998482
    12128.562800       0.998174
    12143.290800       0.997840
    12158.054700       0.997478
    12172.854500       0.997090
    12187.690400       0.996675
    12202.562500       0.996235
    12217.471000       0.995769
    12232.415900       0.995277
    12247.397400       0.994761
    12262.415700       0.994219
    12277.470800       0.993653
    12292.563000       0.993062
    12307.692300       0.992448
    12322.858900       0.991810
    12338.062900       0.991148
    12353.304500       0.990463
    12368.583800       0.989755
    12383.900900       0.989024
    12399.256000       0.988270
    12414.649300       0.987495
    12430.080800       0.986697
    12445.550700       0.985878
    12461.059200       0.985037
    12476.606400       0.984175
    12492.192400       0.983292
    12507.817400       0.982388
    12523.481500       0.981463
    12539.185000       0.980518
    12554.927800       0.979553
    12570.710200       0.978569
    12586.532400       0.977564
    12602.394500       0.976540
    12618.296500       0.975497
    12634.238800       0.974434
    12650.221400       0.973353
    12666.244500       0.972253
    12682.308200       0.971135
    12698.412700       0.969998
    12714.558200       0.968844
    12730.744700       0.967671
    12746.972600       0.966481
    12763.241900       0.965274
    12779.552700       0.964049
    12795.905300       0.962807
    12812.299800       0.961548
    12828.736400       0.960272
    12845.215200       0.958980
    12861.736300       0.957671
    12878.300100       0.956346
    12894.906500       0.955005
    12911.555800       0.953648
    12928.248200       0.952275
    12944.983800       0.950887
    12961.762800       0.949483
    12978.585300       0.948064
    12995.451600       0.946629
    13012.361700       0.945180
    13029.316000       0.943715
    13046.314400       0.942236
    13063.357300       0.940743
    13080.444700       0.939234
    13097.576900       0.937712
    13114.754100       0.936175
    13131.976400       0.934624
    13149.243900       0.933059
    13166.556900       0.931480
    13183.915600       0.929888
    13201.320100       0.928281
    13218.770700       0.926662
    13236.267400       0.925029
    13253.810500       0.923382
    13271.400100       0.921723
    13289.036500       0.920050
    13306.719900       0.918364
    13324.450400       0.916666
    13342.228200       0.914954
    13360.053400       0.913230
    13377.926400       0.911493
    13395.847300       0.909744
    13413.816200       0.907983
    13431.833400       0.906209
    13449.899100       0.904423
    13468.013500       0.902624
    13486.176700       0.900814
    13504.388900       0.898992
    13522.650400       0.897157
    13540.961400       0.895311
    13559.322000       0.893454
    13577.732500       0.891584
    13596.193100       0.889703
    13614.703900       0.887810
    13633.265200       0.885906
    13651.877100       0.883991
    13670.540000       0.882064
    13689.253900       0.880126
    13708.019200       0.878177
    13726.836000       0.876216
    13745.704500       0.874245
    13764.624900       0.872263
    13783.597500       0.870269
    13802.622500       0.868265
    13821.700100       0.866250
    13840.830400       0.864225
    13860.013900       0.862188
    13879.250500       0.860141
    13898.540700       0.858084
    13917.884500       0.856016
    13937.282200       0.853937
    13956.734100       0.851849
    13976.240400       0.849749
    13995.801300       0.847640
    14015.417000       0.845520
    14035.087700       0.843390
    14054.813800       0.841251
    14074.595400       0.839101
    14094.432700       0.836941
    14114.326000       0.834771
    14134.275600       0.832591
    14154.281700       0.830402
    14174.344400       0.828202
    14194.464200       0.825993
    14214.641100       0.823774
    14234.875400       0.821546
    14255.167500       0.819308
    14275.517500       0.817061
    14295.925700       0.814804
    14316.392300       0.812538
    14336.917600       0.810262
    14357.501800       0.807978
    14378.145200       0.805684
    14398.848100       0.803381
    14419.610700       0.801068
    14440.433200       0.798747
    14461.316000       0.796417
    14482.259200       0.794078
    14503.263200       0.791730
    14524.328200       0.789373
    14545.454500       0.787008
    14566.642400       0.784634
    14587.892000       0.782251
    14609.203800       0.779860
    14630.577900       0.777460
    14652.014700       0.775052
    14673.514300       0.772635
    14695.077100       0.770211
    14716.703500       0.767778
    14738.393500       0.765337
    14760.147600       0.762888
    14781.966000       0.760431
    14803.849000       0.757966
    14825.796900       0.755493
    14847.809900       0.753013
    14869.888500       0.750525
    14892.032800       0.748029
    14914.243100       0.745526
    14936.519800       0.743015
    14958.863100       0.740497
    14981.273400       0.737972
    15003.750900       0.735440
    15026.296000       0.732900
    15048.909000       0.730354
    15071.590100       0.727801
    15094.339600       0.725240
    15117.158000       0.722673
    15140.045400       0.720100
    15163.002300       0.717520
    15186.028900       0.714933
    15209.125500       0.712341
    15232.292500       0.709741
    15255.530100       0.707136
    15278.838800       0.704525
    15302.218800       0.701908
    15325.670500       0.699285
    15349.194200       0.696656
    15372.790200       0.694022
    15396.458800       0.691382
    15420.200500       0.688736
    15444.015400       0.686086
    15467.904100       0.683430
    15491.866800       0.680769
    15515.903800       0.678103
    15540.015500       0.675433
    15564.202300       0.672757
    15588.464500       0.670077
    15612.802500       0.667393
    15637.216600       0.664704
    15661.707100       0.662011
    15686.274500       0.659314
    15710.919100       0.656613
    15735.641200       0.653908
    15760.441300       0.651199
    15785.319700       0.648487
    15810.276700       0.645771
    15835.312700       0.643052
    15860.428200       0.640330
    15885.623500       0.637605
    15910.899000       0.634876
    15936.255000       0.632145
    15961.691900       0.629411
    15987.210200       0.626675
    16012.810200       0.623936
    16038.492400       0.621196
    16064.257000       0.618453
    16090.104600       0.615708
    16116.035500       0.612961
    16142.050000       0.610212
    16168.148700       0.607462
    16194.332000       0.604711
    16220.600200       0.601958
    16246.953700       0.599204
    16273.393000       0.596449
    16299.918500       0.593694
    16326.530600       0.590938
    16353.229800       0.588181
    16380.016400       0.585424
    16406.890900       0.582666
    16433.853700       0.579909
    16460.905300       0.577151
    16488.046200       0.574394
    16515.276600       0.571637
    16542.597200       0.568881
    16570.008300       0.566125
    16597.510400       0.563371
    16625.103900       0.560617
    16652.789300       0.557864
    16680.567100       0.555112
    16708.437800       0.552362
    16736.401700       0.549614
    16764.459300       0.546867
    16792.611300       0.544121
    16820.857900       0.541378
    16849.199700       0.538638
    16877.637100       0.535899
    16906.170800       0.533162
    16934.801000       0.530429
    16963.528400       0.527698
    16992.353400       0.524970
    17021.276600       0.522244
    17050.298400       0.519522
    17079.419300       0.516804
    17108.639900       0.514088
    17137.960600       0.511376
    17167.382000       0.508668
    17196.904600       0.505964
    17226.528900       0.503263
    17256.255400       0.500567
    17286.084700       0.497874
    17316.017300       0.495187
    17346.053800       0.492503
    17376.194600       0.489824
    17406.440400       0.487150
    17436.791600       0.484480
    17467.248900       0.481816
    17497.812800       0.479157
    17528.483800       0.476502
    17559.262500       0.473853
    17590.149500       0.471209
    17621.145400       0.468571
    17652.250700       0.465939
    17683.466000       0.463312
    17714.791900       0.460691
    17746.228900       0.458075
    17777.777800       0.455466
    17809.439000       0.452863
    17841.213200       0.450266
    17873.101000       0.447675
    17905.103000       0.445091
    17937.219700       0.442512
    17969.451900       0.439941
    18001.800200       0.437376
    18034.265100       0.434817
    18066.847300       0.432266
    18099.547500       0.429721
    18132.366300       0.427182
    18165.304300       0.424651
    18198.362100       0.422127
    18231.540600       0.419609
    18264.840200       0.417099
    18298.261700       0.414596
    18331.805700       0.412099
    18365.472900       0.409610
    18399.264000       0.407128
    18433.179700       0.404653
    18467.220700       0.402186
    18501.387600       0.399725
    18535.681200       0.397272
    18570.102100       0.394827
    18604.651200       0.392388
    18639.329000       0.389957
    18674.136300       0.387533
    18709.073900       0.385116
    18744.142500       0.382706
    18779.342700       0.380304
    18814.675400       0.377909
    18850.141400       0.375521
    18885.741300       0.373140
    18921.475900       0.370767
    18957.346000       0.368400
    18993.352300       0.366040
    19029.495700       0.363688
    19065.776900       0.361342
    19102.196800       0.359004
    19138.756000       0.356672
    19175.455400       0.354346
    19212.295900       0.352028
    19249.278200       0.349716
    19286.403100       0.347411
    19323.671500       0.345112
    19361.084200       0.342819
    19398.642100       0.340533
    19436.346000       0.338253
    19474.196700       0.335979
    19512.195100       0.333710
    19550.342100       0.331448
    19588.638600       0.329191
    19627.085400       0.326940
    19665.683400       0.324695
    19704.433500       0.322454
    19743.336600       0.320219
    19782.393700       0.317989
    19821.605600       0.315764
    19860.973200       0.313543
    19900.497500       0.311328
