9,    channel 9 SRF extracted from SRF_FY-4A_AGRI.zip (6.9.txt) (received April 2018)
Number of data points:
266
Wavenumber (cm-1)   Filter response
     1276.813100       0.000485
     1277.628700       0.000491
     1278.445400       0.000509
     1279.263100       0.000557
     1280.081900       0.000642
     1280.901800       0.000745
     1281.722600       0.000848
     1282.544600       0.000934
     1283.367600       0.000981
     1284.191600       0.000990
     1285.016700       0.000981
     1285.842900       0.000975
     1286.670100       0.000992
     1287.498400       0.001047
     1288.327800       0.001133
     1289.158200       0.001226
     1289.989700       0.001310
     1290.822300       0.001361
     1291.655900       0.001378
     1292.490600       0.001381
     1293.326400       0.001394
     1294.163300       0.001446
     1295.001300       0.001556
     1295.840400       0.001714
     1296.680500       0.001894
     1297.521700       0.002075
     1298.364100       0.002226
     1299.207500       0.002331
     1300.052000       0.002414
     1300.897600       0.002500
     1301.744300       0.002615
     1302.592200       0.002778
     1303.441100       0.002988
     1304.291100       0.003222
     1305.142300       0.003446
     1305.994500       0.003632
     1306.847900       0.003765
     1307.702400       0.003875
     1308.558000       0.003999
     1309.414700       0.004173
     1310.272500       0.004432
     1311.131500       0.004755
     1311.991600       0.005109
     1312.852800       0.005461
     1313.715200       0.005760
     1314.578700       0.005990
     1315.443300       0.006188
     1316.309100       0.006398
     1317.176000       0.006667
     1318.044000       0.007033
     1318.913200       0.007488
     1319.783600       0.007997
     1320.655000       0.008527
     1321.527700       0.009025
     1322.401500       0.009507
     1323.276400       0.010028
     1324.152500       0.010611
     1325.029800       0.011298
     1325.908200       0.012116
     1326.787800       0.013057
     1327.668600       0.014104
     1328.550600       0.015237
     1329.433700       0.016439
     1330.317900       0.017729
     1331.203400       0.019144
     1332.090000       0.020726
     1332.977900       0.022508
     1333.866900       0.024502
     1334.757100       0.026666
     1335.648500       0.028900
     1336.541000       0.031211
     1337.434800       0.033661
     1338.329800       0.036309
     1339.225900       0.039302
     1340.123300       0.042785
     1341.021900       0.046897
     1341.921600       0.051714
     1342.822600       0.057288
     1343.724800       0.063665
     1344.628200       0.070896
     1345.532800       0.079039
     1346.438700       0.088156
     1347.345700       0.098316
     1348.254000       0.109348
     1349.163500       0.121574
     1350.074300       0.135528
     1350.986200       0.151241
     1351.899400       0.168976
     1352.813900       0.189093
     1353.729500       0.212209
     1354.646400       0.238986
     1355.564600       0.270091
     1356.484000       0.305918
     1357.404600       0.344905
     1358.326500       0.386416
     1359.249700       0.430176
     1360.174100       0.474347
     1361.099800       0.518450
     1362.026700       0.562278
     1362.954900       0.605632
     1363.884300       0.648273
     1364.815100       0.689541
     1365.747100       0.728512
     1366.680300       0.762627
     1367.614900       0.792515
     1368.550700       0.820190
     1369.487800       0.845167
     1370.426200       0.868619
     1371.365900       0.891683
     1372.306800       0.914499
     1373.249100       0.936490
     1374.192700       0.957050
     1375.137500       0.975351
     1376.083700       0.988209
     1377.031100       0.996203
     1377.979900       1.000000
     1378.930000       0.996028
     1379.881300       0.984523
     1380.834000       0.967943
     1381.788000       0.948791
     1382.743400       0.929779
     1383.700000       0.913294
     1384.658000       0.901093
     1385.617300       0.895009
     1386.577900       0.896824
     1387.539900       0.906289
     1388.503200       0.920494
     1389.467800       0.936235
     1390.433800       0.950556
     1391.401100       0.961555
     1392.369800       0.968394
     1393.339800       0.970417
     1394.311200       0.967011
     1395.283900       0.956515
     1396.258000       0.942774
     1397.233500       0.929594
     1398.210300       0.916511
     1399.188500       0.905140
     1400.168000       0.897033
     1401.148900       0.893737
     1402.131200       0.896647
     1403.114900       0.903217
     1404.100000       0.913635
     1405.086400       0.928172
     1406.074200       0.943071
     1407.063500       0.957080
     1408.054100       0.969443
     1409.046100       0.979413
     1410.039500       0.986169
     1411.034300       0.989764
     1412.030500       0.990497
     1413.028100       0.986454
     1414.027100       0.980141
     1415.027600       0.973950
     1416.029500       0.965827
     1417.032700       0.955833
     1418.037400       0.944568
     1419.043600       0.933253
     1420.051100       0.922969
     1421.060100       0.914806
     1422.070500       0.910334
     1423.082400       0.909374
     1424.095700       0.915612
     1425.110400       0.932335
     1426.126600       0.952804
     1427.144300       0.968496
     1428.163400       0.971052
     1429.183900       0.953865
     1430.205900       0.918959
     1431.229400       0.871174
     1432.254400       0.815556
     1433.280800       0.757668
     1434.308700       0.704149
     1435.338000       0.660435
     1436.368900       0.634807
     1437.401200       0.629086
     1438.435000       0.635843
     1439.470300       0.648803
     1440.507100       0.661692
     1441.545300       0.669401
     1442.585100       0.667534
     1443.626400       0.651632
     1444.669200       0.619236
     1445.713500       0.572675
     1446.759300       0.518112
     1447.806600       0.461320
     1448.855400       0.405981
     1449.905800       0.357359
     1450.957600       0.320822
     1452.011000       0.300636
     1453.066000       0.293190
     1454.122400       0.291338
     1455.180400       0.287859
     1456.240000       0.277742
     1457.301100       0.261317
     1458.363700       0.239114
     1459.427900       0.212913
     1460.493600       0.185249
     1461.560900       0.158482
     1462.629800       0.135548
     1463.700200       0.118675
     1464.772200       0.107415
     1465.845800       0.100654
     1466.920900       0.097257
     1467.997700       0.095940
     1469.076000       0.095027
     1470.155800       0.093265
     1471.237300       0.089634
     1472.320400       0.083933
     1473.405000       0.076618
     1474.491300       0.068170
     1475.579200       0.059257
     1476.668600       0.050832
     1477.759700       0.043870
     1478.852400       0.039181
     1479.946700       0.036567
     1481.042700       0.035424
     1482.140200       0.035160
     1483.239400       0.035229
     1484.340200       0.035153
     1485.442700       0.034461
     1486.546800       0.032768
     1487.652500       0.030176
     1488.759900       0.026948
     1489.868900       0.023354
     1490.979600       0.019735
     1492.091900       0.016509
     1493.205900       0.014107
     1494.321600       0.012826
     1495.438900       0.012471
     1496.557900       0.012730
     1497.678600       0.013286
     1498.801000       0.013850
     1499.925000       0.014150
     1501.050700       0.013915
     1502.178200       0.013033
     1503.307300       0.011752
     1504.438100       0.010352
     1505.570600       0.009138
     1506.704800       0.008230
     1507.840800       0.007625
     1508.978400       0.007344
     1510.117800       0.007329
     1511.258900       0.007429
     1512.401700       0.007489
     1513.546200       0.007396
     1514.692500       0.007172
     1515.840500       0.006867
     1516.990300       0.006524
     1518.141800       0.006151
     1519.295000       0.005736
     1520.450100       0.005269
     1521.606800       0.004781
     1522.765300       0.004345
     1523.925600       0.004037
     1525.087700       0.003890
     1526.251500       0.003861
     1527.417100       0.003896
     1528.584500       0.003925
     1529.753700       0.003936
     1530.924700       0.003934
     1532.097400       0.003919
     1533.272000       0.003865
     1534.448400       0.003718
     1535.626500       0.003428
     1536.806500       0.003011
