   6  ,noaa_14_hirs_06.flt
Number of data points:
101
Wavenumber (cm-1)   Filter response
      699.270000       0.000000
      699.870000       0.000000
      700.480000       0.000000
      701.080000       0.000000
      701.690000       0.000000
      702.280000       0.000000
      702.890000       0.000000
      703.500000       0.000000
      704.100000       0.000000
      704.700000       0.000000
      705.310000       0.000000
      705.910000       0.000000
      706.520000       0.000000
      707.120000       0.000000
      707.730000       0.000000
      708.340000       0.000000
      708.940000       0.000000
      709.540000       0.000000
      710.150000       0.000000
      710.750000       0.002438
      711.360000       0.003606
      711.960000       0.005965
      712.560000       0.007768
      713.170000       0.007957
      713.770000       0.010700
      714.380000       0.011806
      714.990000       0.014151
      715.590000       0.021435
      716.200000       0.028471
      716.800000       0.034364
      717.410000       0.047358
      718.020000       0.059881
      718.560000       0.080083
      719.240000       0.104680
      719.790000       0.140020
      720.420000       0.185390
      721.060000       0.246590
      721.620000       0.320980
      722.210000       0.403610
      722.850000       0.511020
      723.440000       0.601670
      724.020000       0.698680
      724.650000       0.790060
      725.210000       0.863540
      725.840000       0.922030
      726.390000       0.956010
      727.000000       0.978850
      727.610000       0.984740
      728.220000       0.989190
      728.830000       0.990710
      729.430000       0.986270
      730.030000       0.986710
      730.640000       0.988240
      731.250000       0.988120
      731.860000       0.992250
      732.460000       0.994070
      733.060000       0.995570
      733.670000       0.996450
      734.280000       0.997150
      734.880000       1.000000
      735.540000       0.995820
      736.140000       0.990060
      736.750000       0.975150
      737.340000       0.951240
      737.930000       0.921820
      738.610000       0.866090
      739.200000       0.818160
      739.790000       0.748570
      740.360000       0.670020
      740.960000       0.579380
      741.540000       0.493000
      742.150000       0.412380
      742.720000       0.344360
      743.360000       0.271660
      743.930000       0.219110
      744.500000       0.172330
      745.140000       0.136080
      745.720000       0.106620
      746.310000       0.088275
      746.890000       0.066260
      747.480000       0.055604
      748.070000       0.045857
      748.660000       0.034194
      749.250000       0.030208
      749.840000       0.024311
      750.430000       0.017550
      751.020000       0.016058
      751.610000       0.013423
      752.200000       0.009621
      752.800000       0.006455
      753.380000       0.005516
      753.980000       0.005934
      754.570000       0.003377
      755.160000       0.001503
      755.750000       0.000000
      756.340000       0.000000
      756.930000       0.000000
      757.530000       0.000000
      758.110000       0.000000
      758.710000       0.000000
      759.300000       0.000000
