40,   40, MVIRI VIS channel from srf_MET5_1996078_1996079_1801-Release_S10EL_10.dat
Number of data points:
806
Wavenumber (cm-1)   Filter response
     8350.730700       0.000000
     8357.710000       0.000000
     8364.701000       0.000000
     8371.703600       0.000002
     8378.718100       0.000004
     8385.744200       0.000009
     8392.782200       0.000016
     8399.832000       0.000027
     8406.893700       0.000041
     8413.967200       0.000059
     8421.052600       0.000082
     8428.150000       0.000110
     8435.259400       0.000143
     8442.380800       0.000182
     8449.514200       0.000228
     8456.659600       0.000281
     8463.817200       0.000340
     8470.986900       0.000407
     8478.168700       0.000483
     8485.362700       0.000566
     8492.569000       0.000658
     8499.787500       0.000759
     8507.018300       0.000869
     8514.261400       0.000988
     8521.516800       0.001118
     8528.784600       0.001258
     8536.064900       0.001408
     8543.357500       0.001568
     8550.662700       0.001740
     8557.980300       0.001923
     8565.310500       0.002117
     8572.653200       0.002323
     8580.008600       0.002540
     8587.376600       0.002770
     8594.757200       0.003013
     8602.150500       0.003267
     8609.556600       0.003535
     8616.975400       0.003815
     8624.407100       0.004109
     8631.851500       0.004415
     8639.308900       0.004736
     8646.779100       0.005070
     8654.262200       0.005417
     8661.758300       0.005779
     8669.267400       0.006155
     8676.789600       0.006545
     8684.324800       0.006950
     8691.873100       0.007369
     8699.434500       0.007803
     8707.009100       0.008252
     8714.596900       0.008716
     8722.198000       0.009196
     8729.812300       0.009690
     8737.439900       0.010200
     8745.080900       0.010726
     8752.735200       0.011267
     8760.403000       0.011825
     8768.084200       0.012398
     8775.778900       0.012987
     8783.487000       0.013593
     8791.208800       0.014215
     8798.944100       0.014853
     8806.693100       0.015508
     8814.455700       0.016180
     8822.232000       0.016868
     8830.022100       0.017574
     8837.825900       0.018296
     8845.643500       0.019036
     8853.475000       0.019793
     8861.320300       0.020567
     8869.179600       0.021359
     8877.052800       0.022168
     8884.940000       0.022995
     8892.841300       0.023840
     8900.756600       0.024702
     8908.686000       0.025583
     8916.629500       0.026482
     8924.587200       0.027399
     8932.559200       0.028335
     8940.545400       0.029289
     8948.545900       0.030261
     8956.560700       0.031252
     8964.589900       0.032262
     8972.633500       0.033290
     8980.691500       0.034338
     8988.764000       0.035405
     8996.851100       0.036491
     9004.952700       0.037596
     9013.068900       0.038720
     9021.199800       0.039864
     9029.345400       0.041028
     9037.505600       0.042210
     9045.680700       0.043413
     9053.870500       0.044636
     9062.075200       0.045879
     9070.294800       0.047142
     9078.529300       0.048424
     9086.778700       0.049728
     9095.043200       0.051051
     9103.322700       0.052395
     9111.617300       0.053759
     9119.927000       0.055144
     9128.251900       0.056550
     9136.592100       0.057977
     9144.947400       0.059424
     9153.318100       0.060893
     9161.704100       0.062382
     9170.105500       0.063893
     9178.522300       0.065425
     9186.954500       0.066979
     9195.402300       0.068554
     9203.865600       0.070150
     9212.344500       0.071768
     9220.839100       0.073408
     9229.349300       0.075069
     9237.875300       0.076753
     9246.417000       0.078458
     9254.974500       0.080186
     9263.547900       0.081935
     9272.137200       0.083707
     9280.742500       0.085501
     9289.363700       0.087317
     9298.000900       0.089156
     9306.654300       0.091017
     9315.323700       0.092901
     9324.009300       0.094807
     9332.711200       0.096736
     9341.429200       0.098688
     9350.163600       0.100662
     9358.914400       0.102660
     9367.681500       0.104680
     9376.465100       0.106723
     9385.265100       0.108790
     9394.081700       0.110879
     9402.914900       0.112992
     9411.764700       0.115127
     9420.631200       0.117286
     9429.514400       0.119468
     9438.414300       0.121674
     9447.331100       0.123903
     9456.264800       0.126155
     9465.215300       0.128431
     9474.182900       0.130730
     9483.167400       0.133052
     9492.169000       0.135398
     9501.187600       0.137768
     9510.223500       0.140161
     9519.276500       0.142577
     9528.346800       0.145018
     9537.434400       0.147481
     9546.539400       0.149969
     9555.661700       0.152480
     9564.801500       0.155014
     9573.958800       0.157572
     9583.133700       0.160153
     9592.326100       0.162758
     9601.536200       0.165387
     9610.764100       0.168039
     9620.009600       0.170715
     9629.273000       0.173414
     9638.554200       0.176136
     9647.853400       0.178883
     9657.170400       0.181652
     9666.505600       0.184445
     9675.858700       0.187261
     9685.230000       0.190100
     9694.619500       0.192962
     9704.027200       0.195848
     9713.453100       0.198757
     9722.897400       0.201689
     9732.360100       0.204643
     9741.841200       0.207621
     9751.340800       0.210622
     9760.859000       0.213645
     9770.395700       0.216691
     9779.951100       0.219760
     9789.525200       0.222851
     9799.118100       0.225965
     9808.729800       0.229100
     9818.360300       0.232259
     9828.009800       0.235439
     9837.678300       0.238641
     9847.365800       0.241865
     9857.072400       0.245111
     9866.798200       0.248379
     9876.543200       0.251668
     9886.307500       0.254979
     9896.091000       0.258311
     9905.894000       0.261664
     9915.716400       0.265038
     9925.558300       0.268433
     9935.419800       0.271848
     9945.300800       0.275285
     9955.201600       0.278741
     9965.122100       0.282218
     9975.062300       0.285715
     9985.022500       0.289232
     9995.002500       0.292769
    10005.002500       0.296325
    10015.022500       0.299900
    10025.062700       0.303495
    10035.122900       0.307108
    10045.203400       0.310741
    10055.304200       0.314392
    10065.425300       0.318062
    10075.566800       0.321749
    10085.728700       0.325455
    10095.911200       0.329178
    10106.114200       0.332919
    10116.337900       0.336677
    10126.582300       0.340453
    10136.847400       0.344245
    10147.133400       0.348054
    10157.440300       0.351879
    10167.768200       0.355720
    10178.117000       0.359577
    10188.487000       0.363450
    10198.878100       0.367338
    10209.290500       0.371242
    10219.724100       0.375160
    10230.179000       0.379092
    10240.655400       0.383040
    10251.153300       0.387001
    10261.672700       0.390976
    10272.213700       0.394964
    10282.776300       0.398965
    10293.360800       0.402980
    10303.967000       0.407007
    10314.595200       0.411046
    10325.245200       0.415098
    10335.917300       0.419161
    10346.611500       0.423235
    10357.327800       0.427321
    10368.066400       0.431417
    10378.827200       0.435524
    10389.610400       0.439641
    10400.416000       0.443768
    10411.244100       0.447904
    10422.094800       0.452049
    10432.968200       0.456203
    10443.864200       0.460366
    10454.783100       0.464537
    10465.724800       0.468716
    10476.689400       0.472902
    10487.677000       0.477095
    10498.687700       0.481296
    10509.721500       0.485502
    10520.778500       0.489715
    10531.858900       0.493933
    10542.962600       0.498157
    10554.089700       0.502385
    10565.240400       0.506618
    10576.414600       0.510856
    10587.612500       0.515097
    10598.834100       0.519343
    10610.079600       0.523591
    10621.348900       0.527841
    10632.642200       0.532095
    10643.959600       0.536350
    10655.301000       0.540607
    10666.666700       0.544865
    10678.056600       0.549124
    10689.470900       0.553384
    10700.909600       0.557644
    10712.372800       0.561903
    10723.860600       0.566162
    10735.373100       0.570419
    10746.910300       0.574676
    10758.472300       0.578930
    10770.059200       0.583182
    10781.671200       0.587432
    10793.308100       0.591678
    10804.970300       0.595921
    10816.657700       0.600161
    10828.370300       0.604396
    10840.108400       0.608626
    10851.871900       0.612851
    10863.661100       0.617071
    10875.475800       0.621285
    10887.316300       0.625493
    10899.182600       0.629694
    10911.074700       0.633889
    10922.992900       0.638075
    10934.937100       0.642254
    10946.907500       0.646425
    10958.904100       0.650587
    10970.927000       0.654740
    10982.976400       0.658884
    10995.052200       0.663018
    11007.154700       0.667141
    11019.283700       0.671254
    11031.439600       0.675356
    11043.622300       0.679447
    11055.832000       0.683525
    11068.068600       0.687592
    11080.332400       0.691646
    11092.623400       0.695686
    11104.941700       0.699714
    11117.287400       0.703727
    11129.660500       0.707727
    11142.061300       0.711712
    11154.489700       0.715681
    11166.945800       0.719636
    11179.429800       0.723575
    11191.941800       0.727498
    11204.481800       0.731404
    11217.049900       0.735293
    11229.646300       0.739165
    11242.270900       0.743019
    11254.924000       0.746856
    11267.605600       0.750674
    11280.315800       0.754473
    11293.054800       0.758253
    11305.822500       0.762014
    11318.619100       0.765755
    11331.444800       0.769475
    11344.299500       0.773175
    11357.183400       0.776854
    11370.096600       0.780512
    11383.039300       0.784148
    11396.011400       0.787763
    11409.013100       0.791355
    11422.044500       0.794924
    11435.105800       0.798470
    11448.196900       0.801993
    11461.318100       0.805493
    11474.469300       0.808968
    11487.650800       0.812419
    11500.862600       0.815846
    11514.104800       0.819247
    11527.377500       0.822624
    11540.680900       0.825974
    11554.015000       0.829299
    11567.380000       0.832598
    11580.775900       0.835870
    11594.202900       0.839116
    11607.661100       0.842334
    11621.150500       0.845525
    11634.671300       0.848689
    11648.223600       0.851824
    11661.807600       0.854932
    11675.423200       0.858010
    11689.070700       0.861061
    11702.750100       0.864082
    11716.461600       0.867074
    11730.205300       0.870037
    11743.981200       0.872970
    11757.789500       0.875873
    11771.630400       0.878745
    11785.503800       0.881588
    11799.410000       0.884399
    11813.349100       0.887180
    11827.321100       0.889930
    11841.326200       0.892648
    11855.364600       0.895335
    11869.436200       0.897990
    11883.541300       0.900613
    11897.680000       0.903204
    11911.852300       0.905762
    11926.058400       0.908289
    11940.298500       0.910782
    11954.572600       0.913243
    11968.880900       0.915671
    11983.223500       0.918065
    11997.600500       0.920426
    12012.012000       0.922754
    12026.458200       0.925048
    12040.939200       0.927309
    12055.455100       0.929535
    12070.006000       0.931728
    12084.592100       0.933886
    12099.213600       0.936010
    12113.870400       0.938100
    12128.562800       0.940155
    12143.290800       0.942176
    12158.054700       0.944162
    12172.854500       0.946113
    12187.690400       0.948029
    12202.562500       0.949911
    12217.471000       0.951758
    12232.415900       0.953569
    12247.397400       0.955346
    12262.415700       0.957087
    12277.470800       0.958793
    12292.563000       0.960464
    12307.692300       0.962100
    12322.858900       0.963700
    12338.062900       0.965265
    12353.304500       0.966795
    12368.583800       0.968289
    12383.900900       0.969748
    12399.256000       0.971172
    12414.649300       0.972560
    12430.080800       0.973913
    12445.550700       0.975231
    12461.059200       0.976514
    12476.606400       0.977761
    12492.192400       0.978973
    12507.817400       0.980150
    12523.481500       0.981292
    12539.185000       0.982398
    12554.927800       0.983470
    12570.710200       0.984507
    12586.532400       0.985509
    12602.394500       0.986477
    12618.296500       0.987409
    12634.238800       0.988308
    12650.221400       0.989171
    12666.244500       0.990001
    12682.308200       0.990796
    12698.412700       0.991557
    12714.558200       0.992284
    12730.744700       0.992977
    12746.972600       0.993636
    12763.241900       0.994262
    12779.552700       0.994854
    12795.905300       0.995413
    12812.299800       0.995939
    12828.736400       0.996432
    12845.215200       0.996892
    12861.736300       0.997320
    12878.300100       0.997715
    12894.906500       0.998078
    12911.555800       0.998409
    12928.248200       0.998708
    12944.983800       0.998975
    12961.762800       0.999211
    12978.585300       0.999415
    12995.451600       0.999589
    13012.361700       0.999732
    13029.316000       0.999844
    13046.314400       0.999926
    13063.357300       0.999978
    13080.444700       1.000000
    13097.576900       0.999993
    13114.754100       0.999956
    13131.976400       0.999890
    13149.243900       0.999795
    13166.556900       0.999672
    13183.915600       0.999521
    13201.320100       0.999341
    13218.770700       0.999134
    13236.267400       0.998900
    13253.810500       0.998638
    13271.400100       0.998350
    13289.036500       0.998035
    13306.719900       0.997695
    13324.450400       0.997328
    13342.228200       0.996936
    13360.053400       0.996518
    13377.926400       0.996076
    13395.847300       0.995609
    13413.816200       0.995118
    13431.833400       0.994602
    13449.899100       0.994064
    13468.013500       0.993502
    13486.176700       0.992917
    13504.388900       0.992310
    13522.650400       0.991681
    13540.961400       0.991030
    13559.322000       0.990357
    13577.732500       0.989664
    13596.193100       0.988949
    13614.703900       0.988215
    13633.265200       0.987460
    13651.877100       0.986686
    13670.540000       0.985893
    13689.253900       0.985081
    13708.019200       0.984250
    13726.836000       0.983402
    13745.704500       0.982536
    13764.624900       0.981652
    13783.597500       0.980752
    13802.622500       0.979835
    13821.700100       0.978903
    13840.830400       0.977954
    13860.013900       0.976990
    13879.250500       0.976012
    13898.540700       0.975019
    13917.884500       0.974012
    13937.282200       0.972992
    13956.734100       0.971958
    13976.240400       0.970911
    13995.801300       0.969853
    14015.417000       0.968782
    14035.087700       0.967699
    14054.813800       0.966606
    14074.595400       0.965502
    14094.432700       0.964387
    14114.326000       0.963263
    14134.275600       0.962129
    14154.281700       0.960986
    14174.344400       0.959834
    14194.464200       0.958675
    14214.641100       0.957507
    14234.875400       0.956332
    14255.167500       0.955150
    14275.517500       0.953962
    14295.925700       0.952768
    14316.392300       0.951567
    14336.917600       0.950362
    14357.501800       0.949152
    14378.145200       0.947937
    14398.848100       0.946718
    14419.610700       0.945496
    14440.433200       0.944270
    14461.316000       0.943042
    14482.259200       0.941811
    14503.263200       0.940578
    14524.328200       0.939344
    14545.454500       0.938108
    14566.642400       0.936872
    14587.892000       0.935636
    14609.203800       0.934399
    14630.577900       0.933163
    14652.014700       0.931927
    14673.514300       0.930693
    14695.077100       0.929460
    14716.703500       0.928229
    14738.393500       0.927001
    14760.147600       0.925775
    14781.966000       0.924552
    14803.849000       0.923333
    14825.796900       0.922118
    14847.809900       0.920906
    14869.888500       0.919700
    14892.032800       0.918498
    14914.243100       0.917301
    14936.519800       0.916110
    14958.863100       0.914925
    14981.273400       0.913747
    15003.750900       0.912574
    15026.296000       0.911409
    15048.909000       0.910251
    15071.590100       0.909101
    15094.339600       0.907958
    15117.158000       0.906824
    15140.045400       0.905698
    15163.002300       0.904581
    15186.028900       0.903473
    15209.125500       0.902374
    15232.292500       0.901286
    15255.530100       0.900207
    15278.838800       0.899138
    15302.218800       0.898080
    15325.670500       0.897032
    15349.194200       0.895996
    15372.790200       0.894970
    15396.458800       0.893957
    15420.200500       0.892954
    15444.015400       0.891964
    15467.904100       0.890986
    15491.866800       0.890021
    15515.903800       0.889068
    15540.015500       0.888127
    15564.202300       0.887200
    15588.464500       0.886286
    15612.802500       0.885385
    15637.216600       0.884498
    15661.707100       0.883624
    15686.274500       0.882764
    15710.919100       0.881918
    15735.641200       0.881087
    15760.441300       0.880269
    15785.319700       0.879466
    15810.276700       0.878677
    15835.312700       0.877903
    15860.428200       0.877144
    15885.623500       0.876399
    15910.899000       0.875669
    15936.255000       0.874954
    15961.691900       0.874255
    15987.210200       0.873570
    16012.810200       0.872900
    16038.492400       0.872245
    16064.257000       0.871606
    16090.104600       0.870982
    16116.035500       0.870372
    16142.050000       0.869778
    16168.148700       0.869200
    16194.332000       0.868636
    16220.600200       0.868088
    16246.953700       0.867554
    16273.393000       0.867036
    16299.918500       0.866533
    16326.530600       0.866044
    16353.229800       0.865571
    16380.016400       0.865112
    16406.890900       0.864668
    16433.853700       0.864238
    16460.905300       0.863823
    16488.046200       0.863422
    16515.276600       0.863036
    16542.597200       0.862663
    16570.008300       0.862305
    16597.510400       0.861960
    16625.103900       0.861628
    16652.789300       0.861310
    16680.567100       0.861005
    16708.437800       0.860713
    16736.401700       0.860434
    16764.459300       0.860168
    16792.611300       0.859913
    16820.857900       0.859671
    16849.199700       0.859440
    16877.637100       0.859221
    16906.170800       0.859013
    16934.801000       0.858816
    16963.528400       0.858629
    16992.353400       0.858453
    17021.276600       0.858287
    17050.298400       0.858131
    17079.419300       0.857983
    17108.639900       0.857845
    17137.960600       0.857715
    17167.382000       0.857594
    17196.904600       0.857480
    17226.528900       0.857374
    17256.255400       0.857274
    17286.084700       0.857181
