   1 , HJ-1B IRMSS  11.5microns
Number of data points:
354
Wavenumber (cm-1)   Filter response
      749.625200       0.000000
      750.187500       0.004400
      750.750800       0.008977
      751.314800       0.013554
      751.879700       0.018131
      752.445400       0.022708
      753.012000       0.027285
      753.579500       0.031862
      754.147800       0.036439
      754.717000       0.041016
      755.287000       0.045593
      755.857900       0.050170
      756.429700       0.054747
      757.002300       0.059325
      757.575800       0.063902
      758.150100       0.068479
      758.725300       0.073056
      759.301400       0.077633
      759.878400       0.082210
      760.456300       0.086787
      761.035000       0.091364
      761.614600       0.095941
      762.195100       0.100518
      762.776500       0.105095
      763.358800       0.109672
      763.941900       0.114249
      764.526000       0.118826
      765.110900       0.123403
      765.696800       0.127980
      766.283500       0.132557
      766.871200       0.137134
      767.459700       0.141711
      768.049200       0.146288
      768.639500       0.150865
      769.230800       0.155442
      769.822900       0.160019
      770.416000       0.164596
      771.010000       0.169449
      771.604900       0.174302
      772.200800       0.182736
      772.797500       0.191171
      773.395200       0.199639
      773.993800       0.208107
      774.593300       0.216611
      775.193800       0.225115
      775.795200       0.234649
      776.397500       0.244183
      777.000800       0.253913
      777.605000       0.263642
      778.210100       0.273383
      778.816200       0.283125
      779.423200       0.290565
      780.031200       0.298006
      780.640100       0.304211
      781.250000       0.310417
      781.860800       0.316628
      782.472600       0.322839
      783.085400       0.328414
      783.699100       0.333989
      784.313700       0.338925
      784.929400       0.343860
      785.546000       0.348830
      786.163500       0.353799
      786.782100       0.360434
      787.401600       0.367070
      788.022100       0.376719
      788.643500       0.386367
      789.266000       0.396107
      789.889400       0.405846
      790.513800       0.416075
      791.139200       0.426304
      791.765600       0.437784
      792.393000       0.449264
      793.021400       0.460740
      793.650800       0.472216
      794.281200       0.482576
      794.912600       0.492936
      795.544900       0.498416
      796.178300       0.503896
      796.812700       0.509385
      797.448200       0.514873
      798.084600       0.519993
      798.722000       0.525113
      799.360500       0.527870
      800.000000       0.530627
      800.640500       0.533339
      801.282100       0.536051
      801.924600       0.538934
      802.568200       0.541817
      803.212900       0.546023
      803.858500       0.550230
      804.505200       0.554479
      805.153000       0.558728
      805.801800       0.563047
      806.451600       0.567366
      807.102500       0.571980
      807.754400       0.576594
      808.407400       0.581245
      809.061500       0.585896
      809.716600       0.589973
      810.372800       0.594049
      811.030000       0.595710
      811.688300       0.597371
      812.347700       0.598904
      813.008100       0.600437
      813.669700       0.601263
      814.332200       0.602088
      814.995900       0.601432
      815.660700       0.600776
      816.326500       0.600292
      816.993500       0.599808
      817.661500       0.599537
      818.330600       0.599265
      819.000800       0.599126
      819.672100       0.598987
      820.344500       0.598770
      821.018100       0.598554
      821.692700       0.598897
      822.368400       0.599240
      823.045300       0.600147
      823.723200       0.601053
      824.402300       0.602000
      825.082500       0.602947
      825.763800       0.604751
      826.446300       0.606554
      827.129900       0.608597
      827.814600       0.610639
      828.500400       0.612391
      829.187400       0.614142
      829.875500       0.615697
      830.564800       0.617252
      831.255200       0.618905
      831.946800       0.620558
      832.639500       0.622422
      833.333300       0.624285
      834.028400       0.627646
      834.724500       0.631007
      835.421900       0.634366
      836.120400       0.637724
      836.820100       0.641314
      837.520900       0.644904
      838.223000       0.648882
      838.926200       0.652860
      839.630600       0.656874
      840.336100       0.660888
      841.042900       0.665327
      841.750800       0.669765
      842.460000       0.674588
      843.170300       0.679410
      843.881900       0.684307
      844.594600       0.689204
      845.308500       0.695970
      846.023700       0.702737
      846.740100       0.709953
      847.457600       0.717169
      848.176400       0.724581
      848.896400       0.731993
      849.617700       0.740346
      850.340100       0.748700
      851.063800       0.757336
      851.788800       0.765973
      852.514900       0.774956
      853.242300       0.783939
      853.971000       0.793089
      854.700900       0.802238
      855.432000       0.811353
      856.164400       0.820468
      856.898000       0.828562
      857.632900       0.836656
      858.369100       0.844542
      859.106500       0.852429
      859.845200       0.860423
      860.585200       0.868416
      861.326400       0.876451
      862.069000       0.884486
      862.812800       0.892386
      863.557900       0.900286
      865.051900       0.914792
      865.800900       0.921827
      866.551100       0.928862
      867.302700       0.936220
      868.055600       0.943579
      868.809700       0.950259
      869.565200       0.956940
      870.322000       0.963327
      871.080100       0.969714
      871.839600       0.974753
      872.600300       0.979792
      873.362400       0.983879
      874.125900       0.987966
      874.890600       0.992115
      875.656700       0.996265
      876.424200       0.997066
      877.193000       0.997867
      877.963100       0.998851
      878.734600       0.999836
      879.507500       0.999918
      880.281700       1.000000
      881.057300       0.998801
      881.834200       0.997602
      882.612500       0.995985
      883.392200       0.994368
      884.173300       0.990823
      884.955800       0.987278
      885.739600       0.984047
      886.524800       0.980816
      887.311400       0.977654
      888.099500       0.974491
      888.888900       0.970874
      889.679700       0.967257
      890.472000       0.963141
      891.265600       0.959024
      892.060700       0.953226
      892.857100       0.947429
      893.655000       0.941698
      894.454400       0.935968
      895.255100       0.929999
      896.057300       0.924030
      896.861000       0.918006
      897.666100       0.911983
      898.472600       0.905973
      899.280600       0.899964
      900.090000       0.893562
      900.900900       0.887160
      901.713300       0.880738
      902.527100       0.874317
      903.342400       0.866552
      904.159100       0.858787
      904.977400       0.850773
      905.797100       0.842758
      906.618300       0.834765
      907.441000       0.826772
      908.265200       0.819093
      909.090900       0.811415
      909.918100       0.803838
      910.746800       0.796261
      911.577000       0.787803
      912.408800       0.779344
      913.242000       0.770561
      914.076800       0.761779
      914.913100       0.754158
      915.750900       0.746538
      916.590300       0.739351
      917.431200       0.732165
      918.273600       0.724965
      919.117600       0.717765
      919.963200       0.710200
      920.810300       0.702635
      921.659000       0.694823
      922.509200       0.687011
      923.361000       0.679345
      924.214400       0.671678
      925.069400       0.664177
      925.925900       0.656677
      926.784100       0.648729
      927.643800       0.640781
      928.505100       0.632962
      929.368000       0.625142
      930.232600       0.616715
      931.098700       0.608288
      931.966400       0.599527
      932.835800       0.590766
      933.706800       0.581587
      934.579400       0.572408
      935.453700       0.563019
      936.329600       0.553629
      937.207100       0.543849
      938.086300       0.534069
      938.967100       0.523805
      939.849600       0.513542
      940.733800       0.503363
      941.619600       0.493184
      942.507100       0.482782
      943.396200       0.472380
      944.287100       0.461752
      945.179600       0.451123
      946.073800       0.439303
      946.969700       0.427482
      947.867300       0.415706
      948.766600       0.403931
      949.667600       0.392647
      950.570300       0.381363
      951.474800       0.369987
      952.381000       0.358611
      953.288800       0.347328
      954.198500       0.336046
      955.109800       0.324924
      956.022900       0.313802
      956.937800       0.303135
      957.854400       0.292468
      958.772800       0.281943
      959.692900       0.271419
      960.614800       0.261184
      961.538500       0.250948
      962.463900       0.240970
      963.391100       0.230992
      964.320200       0.221365
      965.251000       0.211738
      966.183600       0.202595
      967.118000       0.193452
      968.054200       0.184981
      968.992200       0.176511
      969.932100       0.169097
      970.873800       0.161683
      971.817300       0.154604
      972.762600       0.147525
      973.709800       0.140997
      974.658900       0.134469
      975.609800       0.128261
      976.562500       0.122052
      977.517100       0.116715
      978.473600       0.111377
      979.431900       0.106313
      980.392200       0.101248
      981.354300       0.096797
      982.318300       0.092345
      983.284200       0.088097
      984.252000       0.083848
      985.221700       0.080244
      986.193300       0.076641
      987.166800       0.073178
      988.142300       0.069716
      989.119700       0.066484
      990.099000       0.063252
      991.080300       0.060199
      992.063500       0.057145
      993.048700       0.054430
      994.035800       0.051716
      995.024900       0.049221
      996.015900       0.046726
      997.009000       0.044621
      998.004000       0.042516
      999.001000       0.040572
     1000.000000       0.038628
     1001.001000       0.036684
     1002.004000       0.034740
     1003.009000       0.032796
     1004.016100       0.030853
     1005.025100       0.028909
     1006.036200       0.026965
     1007.049300       0.025021
     1008.064500       0.023077
     1009.081700       0.021133
     1010.101000       0.019189
     1011.122300       0.017245
     1012.145700       0.015301
     1013.171200       0.013357
     1014.198800       0.011413
     1015.228400       0.009469
     1016.260200       0.007525
     1017.294000       0.005581
     1018.329900       0.003638
     1019.368000       0.001694
     1020.408200       0.000000
