29,   29, MVIRI VIS channel from srf_MET4_1993033_1993034_1801-Release_S10EL_10.dat
Number of data points:
752
Wavenumber (cm-1)   Filter response
     8745.080900       0.000000
     8752.735200       0.000000
     8760.403000       0.000001
     8768.084200       0.000059
     8775.778900       0.000201
     8783.487000       0.000423
     8791.208800       0.000724
     8798.944100       0.001101
     8806.693100       0.001552
     8814.455700       0.002074
     8822.232000       0.002666
     8830.022100       0.003325
     8837.825900       0.004050
     8845.643500       0.004838
     8853.475000       0.005687
     8861.320300       0.006596
     8869.179600       0.007562
     8877.052800       0.008585
     8884.940000       0.009662
     8892.841300       0.010791
     8900.756600       0.011972
     8908.686000       0.013202
     8916.629500       0.014481
     8924.587200       0.015806
     8932.559200       0.017176
     8940.545400       0.018590
     8948.545900       0.020047
     8956.560700       0.021546
     8964.589900       0.023084
     8972.633500       0.024662
     8980.691500       0.026278
     8988.764000       0.027930
     8996.851100       0.029618
     9004.952700       0.031342
     9013.068900       0.033099
     9021.199800       0.034889
     9029.345400       0.036711
     9037.505600       0.038564
     9045.680700       0.040447
     9053.870500       0.042360
     9062.075200       0.044303
     9070.294800       0.046273
     9078.529300       0.048270
     9086.778700       0.050295
     9095.043200       0.052345
     9103.322700       0.054421
     9111.617300       0.056522
     9119.927000       0.058647
     9128.251900       0.060797
     9136.592100       0.062969
     9144.947400       0.065165
     9153.318100       0.067383
     9161.704100       0.069623
     9170.105500       0.071884
     9178.522300       0.074167
     9186.954500       0.076471
     9195.402300       0.078795
     9203.865600       0.081139
     9212.344500       0.083503
     9220.839100       0.085887
     9229.349300       0.088290
     9237.875300       0.090712
     9246.417000       0.093153
     9254.974500       0.095613
     9263.547900       0.098090
     9272.137200       0.100586
     9280.742500       0.103100
     9289.363700       0.105632
     9298.000900       0.108182
     9306.654300       0.110749
     9315.323700       0.113333
     9324.009300       0.115935
     9332.711200       0.118554
     9341.429200       0.121189
     9350.163600       0.123842
     9358.914400       0.126512
     9367.681500       0.129199
     9376.465100       0.131902
     9385.265100       0.134622
     9394.081700       0.137359
     9402.914900       0.140112
     9411.764700       0.142882
     9420.631200       0.145668
     9429.514400       0.148471
     9438.414300       0.151291
     9447.331100       0.154126
     9456.264800       0.156979
     9465.215300       0.159848
     9474.182900       0.162733
     9483.167400       0.165635
     9492.169000       0.168553
     9501.187600       0.171488
     9510.223500       0.174440
     9519.276500       0.177408
     9528.346800       0.180392
     9537.434400       0.183393
     9546.539400       0.186411
     9555.661700       0.189445
     9564.801500       0.192496
     9573.958800       0.195563
     9583.133700       0.198648
     9592.326100       0.201749
     9601.536200       0.204866
     9610.764100       0.208001
     9620.009600       0.211152
     9629.273000       0.214320
     9638.554200       0.217504
     9647.853400       0.220706
     9657.170400       0.223924
     9666.505600       0.227160
     9675.858700       0.230412
     9685.230000       0.233681
     9694.619500       0.236967
     9704.027200       0.240270
     9713.453100       0.243590
     9722.897400       0.246926
     9732.360100       0.250280
     9741.841200       0.253650
     9751.340800       0.257037
     9760.859000       0.260442
     9770.395700       0.263863
     9779.951100       0.267301
     9789.525200       0.270756
     9799.118100       0.274227
     9808.729800       0.277715
     9818.360300       0.281220
     9828.009800       0.284742
     9837.678300       0.288280
     9847.365800       0.291835
     9857.072400       0.295406
     9866.798200       0.298994
     9876.543200       0.302598
     9886.307500       0.306219
     9896.091000       0.309856
     9905.894000       0.313509
     9915.716400       0.317178
     9925.558300       0.320863
     9935.419800       0.324564
     9945.300800       0.328281
     9955.201600       0.332013
     9965.122100       0.335762
     9975.062300       0.339525
     9985.022500       0.343304
     9995.002500       0.347099
    10005.002500       0.350908
    10015.022500       0.354732
    10025.062700       0.358571
    10035.122900       0.362425
    10045.203400       0.366294
    10055.304200       0.370177
    10065.425300       0.374073
    10075.566800       0.377984
    10085.728700       0.381909
    10095.911200       0.385848
    10106.114200       0.389800
    10116.337900       0.393765
    10126.582300       0.397744
    10136.847400       0.401735
    10147.133400       0.405739
    10157.440300       0.409756
    10167.768200       0.413785
    10178.117000       0.417825
    10188.487000       0.421878
    10198.878100       0.425942
    10209.290500       0.430018
    10219.724100       0.434105
    10230.179000       0.438202
    10240.655400       0.442310
    10251.153300       0.446428
    10261.672700       0.450557
    10272.213700       0.454695
    10282.776300       0.458843
    10293.360800       0.463000
    10303.967000       0.467165
    10314.595200       0.471340
    10325.245200       0.475522
    10335.917300       0.479713
    10346.611500       0.483912
    10357.327800       0.488118
    10368.066400       0.492331
    10378.827200       0.496551
    10389.610400       0.500777
    10400.416000       0.505010
    10411.244100       0.509248
    10422.094800       0.513491
    10432.968200       0.517740
    10443.864200       0.521994
    10454.783100       0.526252
    10465.724800       0.530514
    10476.689400       0.534780
    10487.677000       0.539049
    10498.687700       0.543321
    10509.721500       0.547596
    10520.778500       0.551873
    10531.858900       0.556152
    10542.962600       0.560433
    10554.089700       0.564714
    10565.240400       0.568997
    10576.414600       0.573279
    10587.612500       0.577562
    10598.834100       0.581844
    10610.079600       0.586126
    10621.348900       0.590406
    10632.642200       0.594684
    10643.959600       0.598961
    10655.301000       0.603235
    10666.666700       0.607507
    10678.056600       0.611775
    10689.470900       0.616039
    10700.909600       0.620300
    10712.372800       0.624556
    10723.860600       0.628806
    10735.373100       0.633052
    10746.910300       0.637292
    10758.472300       0.641526
    10770.059200       0.645753
    10781.671200       0.649973
    10793.308100       0.654186
    10804.970300       0.658391
    10816.657700       0.662588
    10828.370300       0.666776
    10840.108400       0.670955
    10851.871900       0.675124
    10863.661100       0.679284
    10875.475800       0.683432
    10887.316300       0.687570
    10899.182600       0.691697
    10911.074700       0.695812
    10922.992900       0.699915
    10934.937100       0.704006
    10946.907500       0.708083
    10958.904100       0.712147
    10970.927000       0.716197
    10982.976400       0.720233
    10995.052200       0.724254
    11007.154700       0.728260
    11019.283700       0.732250
    11031.439600       0.736225
    11043.622300       0.740183
    11055.832000       0.744124
    11068.068600       0.748048
    11080.332400       0.751954
    11092.623400       0.755842
    11104.941700       0.759712
    11117.287400       0.763563
    11129.660500       0.767394
    11142.061300       0.771206
    11154.489700       0.774997
    11166.945800       0.778768
    11179.429800       0.782518
    11191.941800       0.786247
    11204.481800       0.789953
    11217.049900       0.793638
    11229.646300       0.797300
    11242.270900       0.800939
    11254.924000       0.804555
    11267.605600       0.808146
    11280.315800       0.811714
    11293.054800       0.815257
    11305.822500       0.818776
    11318.619100       0.822269
    11331.444800       0.825736
    11344.299500       0.829178
    11357.183400       0.832593
    11370.096600       0.835981
    11383.039300       0.839343
    11396.011400       0.842676
    11409.013100       0.845982
    11422.044500       0.849260
    11435.105800       0.852510
    11448.196900       0.855730
    11461.318100       0.858921
    11474.469300       0.862083
    11487.650800       0.865215
    11500.862600       0.868317
    11514.104800       0.871388
    11527.377500       0.874429
    11540.680900       0.877438
    11554.015000       0.880417
    11567.380000       0.883363
    11580.775900       0.886277
    11594.202900       0.889159
    11607.661100       0.892009
    11621.150500       0.894826
    11634.671300       0.897609
    11648.223600       0.900359
    11661.807600       0.903076
    11675.423200       0.905758
    11689.070700       0.908407
    11702.750100       0.911020
    11716.461600       0.913600
    11730.205300       0.916144
    11743.981200       0.918653
    11757.789500       0.921127
    11771.630400       0.923565
    11785.503800       0.925967
    11799.410000       0.928334
    11813.349100       0.930664
    11827.321100       0.932958
    11841.326200       0.935214
    11855.364600       0.937435
    11869.436200       0.939618
    11883.541300       0.941764
    11897.680000       0.943872
    11911.852300       0.945944
    11926.058400       0.947977
    11940.298500       0.949973
    11954.572600       0.951930
    11968.880900       0.953850
    11983.223500       0.955731
    11997.600500       0.957574
    12012.012000       0.959378
    12026.458200       0.961144
    12040.939200       0.962871
    12055.455100       0.964559
    12070.006000       0.966208
    12084.592100       0.967818
    12099.213600       0.969390
    12113.870400       0.970921
    12128.562800       0.972414
    12143.290800       0.973867
    12158.054700       0.975281
    12172.854500       0.976656
    12187.690400       0.977991
    12202.562500       0.979287
    12217.471000       0.980543
    12232.415900       0.981759
    12247.397400       0.982936
    12262.415700       0.984073
    12277.470800       0.985171
    12292.563000       0.986229
    12307.692300       0.987247
    12322.858900       0.988226
    12338.062900       0.989165
    12353.304500       0.990065
    12368.583800       0.990925
    12383.900900       0.991746
    12399.256000       0.992527
    12414.649300       0.993269
    12430.080800       0.993972
    12445.550700       0.994635
    12461.059200       0.995259
    12476.606400       0.995844
    12492.192400       0.996390
    12507.817400       0.996897
    12523.481500       0.997365
    12539.185000       0.997795
    12554.927800       0.998186
    12570.710200       0.998538
    12586.532400       0.998852
    12602.394500       0.999128
    12618.296500       0.999366
    12634.238800       0.999566
    12650.221400       0.999727
    12666.244500       0.999852
    12682.308200       0.999938
    12698.412700       0.999988
    12714.558200       1.000000
    12730.744700       0.999975
    12746.972600       0.999914
    12763.241900       0.999815
    12779.552700       0.999681
    12795.905300       0.999510
    12812.299800       0.999303
    12828.736400       0.999060
    12845.215200       0.998782
    12861.736300       0.998469
    12878.300100       0.998120
    12894.906500       0.997736
    12911.555800       0.997318
    12928.248200       0.996865
    12944.983800       0.996379
    12961.762800       0.995858
    12978.585300       0.995304
    12995.451600       0.994716
    13012.361700       0.994095
    13029.316000       0.993442
    13046.314400       0.992756
    13063.357300       0.992038
    13080.444700       0.991288
    13097.576900       0.990506
    13114.754100       0.989693
    13131.976400       0.988849
    13149.243900       0.987974
    13166.556900       0.987069
    13183.915600       0.986134
    13201.320100       0.985169
    13218.770700       0.984175
    13236.267400       0.983151
    13253.810500       0.982099
    13271.400100       0.981019
    13289.036500       0.979910
    13306.719900       0.978774
    13324.450400       0.977611
    13342.228200       0.976421
    13360.053400       0.975204
    13377.926400       0.973961
    13395.847300       0.972692
    13413.816200       0.971398
    13431.833400       0.970078
    13449.899100       0.968734
    13468.013500       0.967366
    13486.176700       0.965974
    13504.388900       0.964558
    13522.650400       0.963119
    13540.961400       0.961657
    13559.322000       0.960174
    13577.732500       0.958668
    13596.193100       0.957141
    13614.703900       0.955592
    13633.265200       0.954024
    13651.877100       0.952434
    13670.540000       0.950826
    13689.253900       0.949197
    13708.019200       0.947550
    13726.836000       0.945884
    13745.704500       0.944200
    13764.624900       0.942498
    13783.597500       0.940780
    13802.622500       0.939044
    13821.700100       0.937292
    13840.830400       0.935524
    13860.013900       0.933741
    13879.250500       0.931942
    13898.540700       0.930129
    13917.884500       0.928302
    13937.282200       0.926461
    13956.734100       0.924607
    13976.240400       0.922740
    13995.801300       0.920860
    14015.417000       0.918969
    14035.087700       0.917066
    14054.813800       0.915152
    14074.595400       0.913228
    14094.432700       0.911293
    14114.326000       0.909349
    14134.275600       0.907396
    14154.281700       0.905434
    14174.344400       0.903463
    14194.464200       0.901485
    14214.641100       0.899499
    14234.875400       0.897506
    14255.167500       0.895507
    14275.517500       0.893502
    14295.925700       0.891491
    14316.392300       0.889475
    14336.917600       0.887454
    14357.501800       0.885429
    14378.145200       0.883400
    14398.848100       0.881368
    14419.610700       0.879332
    14440.433200       0.877295
    14461.316000       0.875255
    14482.259200       0.873213
    14503.263200       0.871170
    14524.328200       0.869127
    14545.454500       0.867083
    14566.642400       0.865039
    14587.892000       0.862996
    14609.203800       0.860954
    14630.577900       0.858913
    14652.014700       0.856874
    14673.514300       0.854837
    14695.077100       0.852802
    14716.703500       0.850771
    14738.393500       0.848743
    14760.147600       0.846719
    14781.966000       0.844699
    14803.849000       0.842684
    14825.796900       0.840674
    14847.809900       0.838669
    14869.888500       0.836670
    14892.032800       0.834677
    14914.243100       0.832691
    14936.519800       0.830711
    14958.863100       0.828739
    14981.273400       0.826775
    15003.750900       0.824819
    15026.296000       0.822871
    15048.909000       0.820931
    15071.590100       0.819001
    15094.339600       0.817081
    15117.158000       0.815170
    15140.045400       0.813269
    15163.002300       0.811379
    15186.028900       0.809499
    15209.125500       0.807631
    15232.292500       0.805773
    15255.530100       0.803928
    15278.838800       0.802095
    15302.218800       0.800274
    15325.670500       0.798465
    15349.194200       0.796670
    15372.790200       0.794887
    15396.458800       0.793118
    15420.200500       0.791363
    15444.015400       0.789622
    15467.904100       0.787895
    15491.866800       0.786182
    15515.903800       0.784484
    15540.015500       0.782801
    15564.202300       0.781133
    15588.464500       0.779481
    15612.802500       0.777844
    15637.216600       0.776224
    15661.707100       0.774619
    15686.274500       0.773030
    15710.919100       0.771458
    15735.641200       0.769902
    15760.441300       0.768363
    15785.319700       0.766841
    15810.276700       0.765337
    15835.312700       0.763849
    15860.428200       0.762379
    15885.623500       0.760926
    15910.899000       0.759491
    15936.255000       0.758074
    15961.691900       0.756675
    15987.210200       0.755293
    16012.810200       0.753930
    16038.492400       0.752585
    16064.257000       0.751258
    16090.104600       0.749949
    16116.035500       0.748659
    16142.050000       0.747388
    16168.148700       0.746134
    16194.332000       0.744900
    16220.600200       0.743684
    16246.953700       0.742486
    16273.393000       0.741307
    16299.918500       0.740147
    16326.530600       0.739005
    16353.229800       0.737882
    16380.016400       0.736777
    16406.890900       0.735691
    16433.853700       0.734624
    16460.905300       0.733574
    16488.046200       0.732544
    16515.276600       0.731531
    16542.597200       0.730537
    16570.008300       0.729561
    16597.510400       0.728603
    16625.103900       0.727663
    16652.789300       0.726741
    16680.567100       0.725836
    16708.437800       0.724949
    16736.401700       0.724080
    16764.459300       0.723228
    16792.611300       0.722393
    16820.857900       0.721574
    16849.199700       0.720773
    16877.637100       0.719989
    16906.170800       0.719220
    16934.801000       0.718468
    16963.528400       0.717732
    16992.353400       0.717012
    17021.276600       0.716307
    17050.298400       0.715618
    17079.419300       0.714943
    17108.639900       0.714284
    17137.960600       0.713638
    17167.382000       0.713008
    17196.904600       0.712391
    17226.528900       0.711787
    17256.255400       0.711197
    17286.084700       0.710620
    17316.017300       0.710056
    17346.053800       0.709504
    17376.194600       0.708964
    17406.440400       0.708435
    17436.791600       0.707918
    17467.248900       0.707412
    17497.812800       0.706917
    17528.483800       0.706431
    17559.262500       0.705955
    17590.149500       0.705489
    17621.145400       0.705031
    17652.250700       0.704582
    17683.466000       0.704141
    17714.791900       0.703708
    17746.228900       0.703282
    17777.777800       0.702862
    17809.439000       0.702449
    17841.213200       0.702041
    17873.101000       0.701639
    17905.103000       0.701241
    17937.219700       0.700848
    17969.451900       0.700458
    18001.800200       0.700072
    18034.265100       0.699688
    18066.847300       0.699307
    18099.547500       0.698927
    18132.366300       0.698548
    18165.304300       0.698170
    18198.362100       0.697792
    18231.540600       0.697413
    18264.840200       0.697032
    18298.261700       0.696650
    18331.805700       0.696266
    18365.472900       0.695879
    18399.264000       0.695488
    18433.179700       0.695093
    18467.220700       0.694693
    18501.387600       0.694287
    18535.681200       0.693875
    18570.102100       0.693457
    18604.651200       0.693031
    18639.329000       0.692598
    18674.136300       0.692155
    18709.073900       0.691703
    18744.142500       0.691241
    18779.342700       0.690769
    18814.675400       0.690285
    18850.141400       0.689789
    18885.741300       0.689280
    18921.475900       0.688758
    18957.346000       0.688221
    18993.352300       0.687670
    19029.495700       0.687103
    19065.776900       0.686520
