76,   76, MVIRI VIS channel from srf_MET7_2007033_2007034_1801-Release_S10EE_10.dat
Number of data points:
793
Wavenumber (cm-1)   Filter response
     8442.380800       0.000000
     8449.514200       0.000000
     8456.659600       0.000004
     8463.817200       0.000055
     8470.986900       0.000164
     8478.168700       0.000328
     8485.362700       0.000545
     8492.569000       0.000815
     8499.787500       0.001136
     8507.018300       0.001505
     8514.261400       0.001923
     8521.516800       0.002387
     8528.784600       0.002897
     8536.064900       0.003450
     8543.357500       0.004046
     8550.662700       0.004683
     8557.980300       0.005361
     8565.310500       0.006078
     8572.653200       0.006834
     8580.008600       0.007626
     8587.376600       0.008455
     8594.757200       0.009319
     8602.150500       0.010217
     8609.556600       0.011150
     8616.975400       0.012115
     8624.407100       0.013111
     8631.851500       0.014140
     8639.308900       0.015198
     8646.779100       0.016287
     8654.262200       0.017404
     8661.758300       0.018551
     8669.267400       0.019725
     8676.789600       0.020926
     8684.324800       0.022155
     8691.873100       0.023410
     8699.434500       0.024691
     8707.009100       0.025997
     8714.596900       0.027328
     8722.198000       0.028684
     8729.812300       0.030065
     8737.439900       0.031469
     8745.080900       0.032896
     8752.735200       0.034347
     8760.403000       0.035821
     8768.084200       0.037318
     8775.778900       0.038837
     8783.487000       0.040378
     8791.208800       0.041941
     8798.944100       0.043526
     8806.693100       0.045133
     8814.455700       0.046761
     8822.232000       0.048410
     8830.022100       0.050081
     8837.825900       0.051772
     8845.643500       0.053485
     8853.475000       0.055218
     8861.320300       0.056973
     8869.179600       0.058747
     8877.052800       0.060543
     8884.940000       0.062359
     8892.841300       0.064196
     8900.756600       0.066053
     8908.686000       0.067931
     8916.629500       0.069829
     8924.587200       0.071748
     8932.559200       0.073687
     8940.545400       0.075647
     8948.545900       0.077627
     8956.560700       0.079628
     8964.589900       0.081650
     8972.633500       0.083692
     8980.691500       0.085756
     8988.764000       0.087840
     8996.851100       0.089944
     9004.952700       0.092070
     9013.068900       0.094217
     9021.199800       0.096385
     9029.345400       0.098574
     9037.505600       0.100784
     9045.680700       0.103015
     9053.870500       0.105268
     9062.075200       0.107543
     9070.294800       0.109839
     9078.529300       0.112156
     9086.778700       0.114496
     9095.043200       0.116857
     9103.322700       0.119240
     9111.617300       0.121645
     9119.927000       0.124072
     9128.251900       0.126522
     9136.592100       0.128994
     9144.947400       0.131488
     9153.318100       0.134005
     9161.704100       0.136544
     9170.105500       0.139105
     9178.522300       0.141690
     9186.954500       0.144297
     9195.402300       0.146927
     9203.865600       0.149580
     9212.344500       0.152257
     9220.839100       0.154956
     9229.349300       0.157678
     9237.875300       0.160424
     9246.417000       0.163193
     9254.974500       0.165985
     9263.547900       0.168801
     9272.137200       0.171640
     9280.742500       0.174503
     9289.363700       0.177389
     9298.000900       0.180298
     9306.654300       0.183232
     9315.323700       0.186188
     9324.009300       0.189169
     9332.711200       0.192173
     9341.429200       0.195201
     9350.163600       0.198253
     9358.914400       0.201328
     9367.681500       0.204427
     9376.465100       0.207550
     9385.265100       0.210696
     9394.081700       0.213866
     9402.914900       0.217059
     9411.764700       0.220276
     9420.631200       0.223517
     9429.514400       0.226781
     9438.414300       0.230068
     9447.331100       0.233379
     9456.264800       0.236713
     9465.215300       0.240071
     9474.182900       0.243451
     9483.167400       0.246855
     9492.169000       0.250282
     9501.187600       0.253732
     9510.223500       0.257204
     9519.276500       0.260699
     9528.346800       0.264218
     9537.434400       0.267758
     9546.539400       0.271321
     9555.661700       0.274906
     9564.801500       0.278512
     9573.958800       0.282142
     9583.133700       0.285793
     9592.326100       0.289465
     9601.536200       0.293159
     9610.764100       0.296874
     9620.009600       0.300611
     9629.273000       0.304368
     9638.554200       0.308146
     9647.853400       0.311945
     9657.170400       0.315764
     9666.505600       0.319603
     9675.858700       0.323462
     9685.230000       0.327341
     9694.619500       0.331240
     9704.027200       0.335157
     9713.453100       0.339094
     9722.897400       0.343050
     9732.360100       0.347023
     9741.841200       0.351016
     9751.340800       0.355026
     9760.859000       0.359054
     9770.395700       0.363100
     9779.951100       0.367162
     9789.525200       0.371242
     9799.118100       0.375339
     9808.729800       0.379451
     9818.360300       0.383580
     9828.009800       0.387724
     9837.678300       0.391884
     9847.365800       0.396059
     9857.072400       0.400248
     9866.798200       0.404452
     9876.543200       0.408670
     9886.307500       0.412902
     9896.091000       0.417147
     9905.894000       0.421405
     9915.716400       0.425676
     9925.558300       0.429959
     9935.419800       0.434255
     9945.300800       0.438562
     9955.201600       0.442879
     9965.122100       0.447209
     9975.062300       0.451548
     9985.022500       0.455897
     9995.002500       0.460257
    10005.002500       0.464625
    10015.022500       0.469003
    10025.062700       0.473388
    10035.122900       0.477782
    10045.203400       0.482184
    10055.304200       0.486593
    10065.425300       0.491009
    10075.566800       0.495431
    10085.728700       0.499860
    10095.911200       0.504294
    10106.114200       0.508733
    10116.337900       0.513177
    10126.582300       0.517625
    10136.847400       0.522077
    10147.133400       0.526532
    10157.440300       0.530991
    10167.768200       0.535451
    10178.117000       0.539914
    10188.487000       0.544379
    10198.878100       0.548845
    10209.290500       0.553312
    10219.724100       0.557779
    10230.179000       0.562245
    10240.655400       0.566712
    10251.153300       0.571177
    10261.672700       0.575640
    10272.213700       0.580101
    10282.776300       0.584560
    10293.360800       0.589017
    10303.967000       0.593469
    10314.595200       0.597918
    10325.245200       0.602362
    10335.917300       0.606802
    10346.611500       0.611236
    10357.327800       0.615665
    10368.066400       0.620087
    10378.827200       0.624503
    10389.610400       0.628911
    10400.416000       0.633312
    10411.244100       0.637705
    10422.094800       0.642089
    10432.968200       0.646464
    10443.864200       0.650830
    10454.783100       0.655186
    10465.724800       0.659531
    10476.689400       0.663865
    10487.677000       0.668188
    10498.687700       0.672499
    10509.721500       0.676798
    10520.778500       0.681084
    10531.858900       0.685357
    10542.962600       0.689616
    10554.089700       0.693861
    10565.240400       0.698091
    10576.414600       0.702307
    10587.612500       0.706506
    10598.834100       0.710690
    10610.079600       0.714858
    10621.348900       0.719008
    10632.642200       0.723141
    10643.959600       0.727257
    10655.301000       0.731354
    10666.666700       0.735433
    10678.056600       0.739492
    10689.470900       0.743532
    10700.909600       0.747553
    10712.372800       0.751552
    10723.860600       0.755531
    10735.373100       0.759489
    10746.910300       0.763425
    10758.472300       0.767339
    10770.059200       0.771231
    10781.671200       0.775100
    10793.308100       0.778945
    10804.970300       0.782767
    10816.657700       0.786565
    10828.370300       0.790338
    10840.108400       0.794086
    10851.871900       0.797810
    10863.661100       0.801507
    10875.475800       0.805179
    10887.316300       0.808824
    10899.182600       0.812442
    10911.074700       0.816034
    10922.992900       0.819598
    10934.937100       0.823134
    10946.907500       0.826642
    10958.904100       0.830121
    10970.927000       0.833572
    10982.976400       0.836993
    10995.052200       0.840385
    11007.154700       0.843747
    11019.283700       0.847078
    11031.439600       0.850380
    11043.622300       0.853650
    11055.832000       0.856889
    11068.068600       0.860097
    11080.332400       0.863273
    11092.623400       0.866417
    11104.941700       0.869529
    11117.287400       0.872608
    11129.660500       0.875655
    11142.061300       0.878668
    11154.489700       0.881648
    11166.945800       0.884594
    11179.429800       0.887506
    11191.941800       0.890384
    11204.481800       0.893228
    11217.049900       0.896037
    11229.646300       0.898811
    11242.270900       0.901551
    11254.924000       0.904255
    11267.605600       0.906923
    11280.315800       0.909556
    11293.054800       0.912152
    11305.822500       0.914713
    11318.619100       0.917237
    11331.444800       0.919725
    11344.299500       0.922177
    11357.183400       0.924591
    11370.096600       0.926969
    11383.039300       0.929309
    11396.011400       0.931612
    11409.013100       0.933878
    11422.044500       0.936106
    11435.105800       0.938297
    11448.196900       0.940450
    11461.318100       0.942564
    11474.469300       0.944641
    11487.650800       0.946680
    11500.862600       0.948681
    11514.104800       0.950643
    11527.377500       0.952567
    11540.680900       0.954452
    11554.015000       0.956299
    11567.380000       0.958107
    11580.775900       0.959877
    11594.202900       0.961608
    11607.661100       0.963300
    11621.150500       0.964953
    11634.671300       0.966568
    11648.223600       0.968144
    11661.807600       0.969681
    11675.423200       0.971179
    11689.070700       0.972639
    11702.750100       0.974059
    11716.461600       0.975441
    11730.205300       0.976784
    11743.981200       0.978088
    11757.789500       0.979354
    11771.630400       0.980580
    11785.503800       0.981768
    11799.410000       0.982918
    11813.349100       0.984029
    11827.321100       0.985101
    11841.326200       0.986135
    11855.364600       0.987131
    11869.436200       0.988089
    11883.541300       0.989008
    11897.680000       0.989889
    11911.852300       0.990733
    11926.058400       0.991538
    11940.298500       0.992306
    11954.572600       0.993037
    11968.880900       0.993729
    11983.223500       0.994385
    11997.600500       0.995003
    12012.012000       0.995585
    12026.458200       0.996129
    12040.939200       0.996637
    12055.455100       0.997108
    12070.006000       0.997543
    12084.592100       0.997942
    12099.213600       0.998305
    12113.870400       0.998632
    12128.562800       0.998923
    12143.290800       0.999179
    12158.054700       0.999400
    12172.854500       0.999586
    12187.690400       0.999738
    12202.562500       0.999854
    12217.471000       0.999937
    12232.415900       0.999985
    12247.397400       1.000000
    12262.415700       0.999981
    12277.470800       0.999929
    12292.563000       0.999844
    12307.692300       0.999726
    12322.858900       0.999576
    12338.062900       0.999394
    12353.304500       0.999179
    12368.583800       0.998934
    12383.900900       0.998656
    12399.256000       0.998348
    12414.649300       0.998009
    12430.080800       0.997640
    12445.550700       0.997241
    12461.059200       0.996812
    12476.606400       0.996353
    12492.192400       0.995865
    12507.817400       0.995349
    12523.481500       0.994804
    12539.185000       0.994231
    12554.927800       0.993631
    12570.710200       0.993003
    12586.532400       0.992348
    12602.394500       0.991666
    12618.296500       0.990958
    12634.238800       0.990224
    12650.221400       0.989465
    12666.244500       0.988680
    12682.308200       0.987870
    12698.412700       0.987036
    12714.558200       0.986178
    12730.744700       0.985297
    12746.972600       0.984392
    12763.241900       0.983464
    12779.552700       0.982514
    12795.905300       0.981541
    12812.299800       0.980547
    12828.736400       0.979532
    12845.215200       0.978496
    12861.736300       0.977440
    12878.300100       0.976363
    12894.906500       0.975267
    12911.555800       0.974152
    12928.248200       0.973018
    12944.983800       0.971866
    12961.762800       0.970696
    12978.585300       0.969508
    12995.451600       0.968303
    13012.361700       0.967082
    13029.316000       0.965845
    13046.314400       0.964592
    13063.357300       0.963323
    13080.444700       0.962040
    13097.576900       0.960742
    13114.754100       0.959431
    13131.976400       0.958106
    13149.243900       0.956768
    13166.556900       0.955417
    13183.915600       0.954054
    13201.320100       0.952680
    13218.770700       0.951294
    13236.267400       0.949897
    13253.810500       0.948490
    13271.400100       0.947074
    13289.036500       0.945647
    13306.719900       0.944212
    13324.450400       0.942768
    13342.228200       0.941316
    13360.053400       0.939857
    13377.926400       0.938390
    13395.847300       0.936917
    13413.816200       0.935437
    13431.833400       0.933951
    13449.899100       0.932460
    13468.013500       0.930964
    13486.176700       0.929464
    13504.388900       0.927959
    13522.650400       0.926451
    13540.961400       0.924940
    13559.322000       0.923426
    13577.732500       0.921910
    13596.193100       0.920392
    13614.703900       0.918872
    13633.265200       0.917352
    13651.877100       0.915831
    13670.540000       0.914310
    13689.253900       0.912789
    13708.019200       0.911270
    13726.836000       0.909751
    13745.704500       0.908234
    13764.624900       0.906719
    13783.597500       0.905206
    13802.622500       0.903697
    13821.700100       0.902190
    13840.830400       0.900688
    13860.013900       0.899189
    13879.250500       0.897695
    13898.540700       0.896206
    13917.884500       0.894722
    13937.282200       0.893244
    13956.734100       0.891772
    13976.240400       0.890307
    13995.801300       0.888848
    14015.417000       0.887397
    14035.087700       0.885953
    14054.813800       0.884517
    14074.595400       0.883090
    14094.432700       0.881671
    14114.326000       0.880262
    14134.275600       0.878861
    14154.281700       0.877471
    14174.344400       0.876091
    14194.464200       0.874721
    14214.641100       0.873362
    14234.875400       0.872014
    14255.167500       0.870678
    14275.517500       0.869353
    14295.925700       0.868041
    14316.392300       0.866741
    14336.917600       0.865453
    14357.501800       0.864179
    14378.145200       0.862918
    14398.848100       0.861670
    14419.610700       0.860436
    14440.433200       0.859217
    14461.316000       0.858011
    14482.259200       0.856821
    14503.263200       0.855645
    14524.328200       0.854485
    14545.454500       0.853339
    14566.642400       0.852210
    14587.892000       0.851096
    14609.203800       0.849999
    14630.577900       0.848918
    14652.014700       0.847853
    14673.514300       0.846805
    14695.077100       0.845774
    14716.703500       0.844760
    14738.393500       0.843763
    14760.147600       0.842784
    14781.966000       0.841822
    14803.849000       0.840878
    14825.796900       0.839952
    14847.809900       0.839044
    14869.888500       0.838154
    14892.032800       0.837283
    14914.243100       0.836430
    14936.519800       0.835595
    14958.863100       0.834779
    14981.273400       0.833982
    15003.750900       0.833204
    15026.296000       0.832445
    15048.909000       0.831705
    15071.590100       0.830983
    15094.339600       0.830281
    15117.158000       0.829598
    15140.045400       0.828934
    15163.002300       0.828290
    15186.028900       0.827665
    15209.125500       0.827058
    15232.292500       0.826472
    15255.530100       0.825904
    15278.838800       0.825356
    15302.218800       0.824827
    15325.670500       0.824317
    15349.194200       0.823826
    15372.790200       0.823354
    15396.458800       0.822902
    15420.200500       0.822468
    15444.015400       0.822053
    15467.904100       0.821658
    15491.866800       0.821280
    15515.903800       0.820922
    15540.015500       0.820582
    15564.202300       0.820260
    15588.464500       0.819956
    15612.802500       0.819671
    15637.216600       0.819403
    15661.707100       0.819154
    15686.274500       0.818922
    15710.919100       0.818707
    15735.641200       0.818510
    15760.441300       0.818329
    15785.319700       0.818166
    15810.276700       0.818019
    15835.312700       0.817889
    15860.428200       0.817775
    15885.623500       0.817676
    15910.899000       0.817594
    15936.255000       0.817527
    15961.691900       0.817475
    15987.210200       0.817437
    16012.810200       0.817415
    16038.492400       0.817406
    16064.257000       0.817412
    16090.104600       0.817431
    16116.035500       0.817464
    16142.050000       0.817510
    16168.148700       0.817568
    16194.332000       0.817638
    16220.600200       0.817721
    16246.953700       0.817815
    16273.393000       0.817920
    16299.918500       0.818036
    16326.530600       0.818162
    16353.229800       0.818298
    16380.016400       0.818444
    16406.890900       0.818598
    16433.853700       0.818762
    16460.905300       0.818933
    16488.046200       0.819113
    16515.276600       0.819299
    16542.597200       0.819493
    16570.008300       0.819693
    16597.510400       0.819898
    16625.103900       0.820109
    16652.789300       0.820325
    16680.567100       0.820545
    16708.437800       0.820769
    16736.401700       0.820996
    16764.459300       0.821226
    16792.611300       0.821458
    16820.857900       0.821692
    16849.199700       0.821927
    16877.637100       0.822162
    16906.170800       0.822397
    16934.801000       0.822631
    16963.528400       0.822865
    16992.353400       0.823096
    17021.276600       0.823324
    17050.298400       0.823550
    17079.419300       0.823772
    17108.639900       0.823989
    17137.960600       0.824202
    17167.382000       0.824408
    17196.904600       0.824609
    17226.528900       0.824802
    17256.255400       0.824988
    17286.084700       0.825166
    17316.017300       0.825334
    17346.053800       0.825493
    17376.194600       0.825641
    17406.440400       0.825779
    17436.791600       0.825904
    17467.248900       0.826017
    17497.812800       0.826117
    17528.483800       0.826203
    17559.262500       0.826274
    17590.149500       0.826330
    17621.145400       0.826370
    17652.250700       0.826393
    17683.466000       0.826399
