83,   83, MVIRI VIS channel from srf_MET7_2007348_2007349_1801-Release_S10EE_10.dat
Number of data points:
793
Wavenumber (cm-1)   Filter response
     8442.380800       0.000000
     8449.514200       0.000000
     8456.659600       0.000004
     8463.817200       0.000056
     8470.986900       0.000164
     8478.168700       0.000329
     8485.362700       0.000547
     8492.569000       0.000818
     8499.787500       0.001140
     8507.018300       0.001512
     8514.261400       0.001931
     8521.516800       0.002397
     8528.784600       0.002909
     8536.064900       0.003465
     8543.357500       0.004063
     8550.662700       0.004703
     8557.980300       0.005384
     8565.310500       0.006104
     8572.653200       0.006862
     8580.008600       0.007658
     8587.376600       0.008490
     8594.757200       0.009358
     8602.150500       0.010260
     8609.556600       0.011196
     8616.975400       0.012164
     8624.407100       0.013165
     8631.851500       0.014198
     8639.308900       0.015260
     8646.779100       0.016353
     8654.262200       0.017475
     8661.758300       0.018626
     8669.267400       0.019805
     8676.789600       0.021011
     8684.324800       0.022245
     8691.873100       0.023505
     8699.434500       0.024790
     8707.009100       0.026102
     8714.596900       0.027438
     8722.198000       0.028799
     8729.812300       0.030185
     8737.439900       0.031594
     8745.080900       0.033028
     8752.735200       0.034484
     8760.403000       0.035963
     8768.084200       0.037466
     8775.778900       0.038990
     8783.487000       0.040537
     8791.208800       0.042106
     8798.944100       0.043697
     8806.693100       0.045310
     8814.455700       0.046944
     8822.232000       0.048599
     8830.022100       0.050276
     8837.825900       0.051974
     8845.643500       0.053693
     8853.475000       0.055432
     8861.320300       0.057193
     8869.179600       0.058974
     8877.052800       0.060776
     8884.940000       0.062598
     8892.841300       0.064441
     8900.756600       0.066305
     8908.686000       0.068190
     8916.629500       0.070094
     8924.587200       0.072020
     8932.559200       0.073966
     8940.545400       0.075932
     8948.545900       0.077920
     8956.560700       0.079928
     8964.589900       0.081956
     8972.633500       0.084005
     8980.691500       0.086076
     8988.764000       0.088167
     8996.851100       0.090278
     9004.952700       0.092411
     9013.068900       0.094565
     9021.199800       0.096740
     9029.345400       0.098937
     9037.505600       0.101154
     9045.680700       0.103393
     9053.870500       0.105653
     9062.075200       0.107935
     9070.294800       0.110238
     9078.529300       0.112563
     9086.778700       0.114910
     9095.043200       0.117279
     9103.322700       0.119669
     9111.617300       0.122082
     9119.927000       0.124517
     9128.251900       0.126974
     9136.592100       0.129454
     9144.947400       0.131955
     9153.318100       0.134480
     9161.704100       0.137026
     9170.105500       0.139596
     9178.522300       0.142189
     9186.954500       0.144803
     9195.402300       0.147442
     9203.865600       0.150102
     9212.344500       0.152787
     9220.839100       0.155494
     9229.349300       0.158224
     9237.875300       0.160978
     9246.417000       0.163755
     9254.974500       0.166555
     9263.547900       0.169379
     9272.137200       0.172226
     9280.742500       0.175097
     9289.363700       0.177991
     9298.000900       0.180909
     9306.654300       0.183851
     9315.323700       0.186815
     9324.009300       0.189804
     9332.711200       0.192817
     9341.429200       0.195853
     9350.163600       0.198913
     9358.914400       0.201996
     9367.681500       0.205103
     9376.465100       0.208235
     9385.265100       0.211389
     9394.081700       0.214567
     9402.914900       0.217769
     9411.764700       0.220994
     9420.631200       0.224243
     9429.514400       0.227516
     9438.414300       0.230812
     9447.331100       0.234131
     9456.264800       0.237474
     9465.215300       0.240840
     9474.182900       0.244228
     9483.167400       0.247641
     9492.169000       0.251076
     9501.187600       0.254534
     9510.223500       0.258015
     9519.276500       0.261518
     9528.346800       0.265045
     9537.434400       0.268594
     9546.539400       0.272165
     9555.661700       0.275758
     9564.801500       0.279373
     9573.958800       0.283011
     9583.133700       0.286670
     9592.326100       0.290351
     9601.536200       0.294053
     9610.764100       0.297776
     9620.009600       0.301521
     9629.273000       0.305287
     9638.554200       0.309073
     9647.853400       0.312880
     9657.170400       0.316707
     9666.505600       0.320554
     9675.858700       0.324422
     9685.230000       0.328309
     9694.619500       0.332215
     9704.027200       0.336141
     9713.453100       0.340086
     9722.897400       0.344049
     9732.360100       0.348031
     9741.841200       0.352031
     9751.340800       0.356049
     9760.859000       0.360085
     9770.395700       0.364138
     9779.951100       0.368209
     9789.525200       0.372296
     9799.118100       0.376400
     9808.729800       0.380520
     9818.360300       0.384656
     9828.009800       0.388808
     9837.678300       0.392975
     9847.365800       0.397157
     9857.072400       0.401354
     9866.798200       0.405565
     9876.543200       0.409790
     9886.307500       0.414029
     9896.091000       0.418281
     9905.894000       0.422546
     9915.716400       0.426824
     9925.558300       0.431114
     9935.419800       0.435416
     9945.300800       0.439729
     9955.201600       0.444054
     9965.122100       0.448389
     9975.062300       0.452735
     9985.022500       0.457091
     9995.002500       0.461456
    10005.002500       0.465831
    10015.022500       0.470214
    10025.062700       0.474606
    10035.122900       0.479006
    10045.203400       0.483413
    10055.304200       0.487828
    10065.425300       0.492249
    10075.566800       0.496677
    10085.728700       0.501111
    10095.911200       0.505550
    10106.114200       0.509994
    10116.337900       0.514443
    10126.582300       0.518896
    10136.847400       0.523353
    10147.133400       0.527813
    10157.440300       0.532276
    10167.768200       0.536741
    10178.117000       0.541209
    10188.487000       0.545678
    10198.878100       0.550148
    10209.290500       0.554619
    10219.724100       0.559089
    10230.179000       0.563560
    10240.655400       0.568030
    10251.153300       0.572498
    10261.672700       0.576965
    10272.213700       0.581430
    10282.776300       0.585892
    10293.360800       0.590351
    10303.967000       0.594806
    10314.595200       0.599258
    10325.245200       0.603705
    10335.917300       0.608147
    10346.611500       0.612584
    10357.327800       0.617014
    10368.066400       0.621439
    10378.827200       0.625856
    10389.610400       0.630267
    10400.416000       0.634669
    10411.244100       0.639063
    10422.094800       0.643449
    10432.968200       0.647825
    10443.864200       0.652192
    10454.783100       0.656549
    10465.724800       0.660894
    10476.689400       0.665229
    10487.677000       0.669553
    10498.687700       0.673864
    10509.721500       0.678163
    10520.778500       0.682449
    10531.858900       0.686722
    10542.962600       0.690981
    10554.089700       0.695225
    10565.240400       0.699455
    10576.414600       0.703669
    10587.612500       0.707868
    10598.834100       0.712051
    10610.079600       0.716217
    10621.348900       0.720366
    10632.642200       0.724497
    10643.959600       0.728611
    10655.301000       0.732706
    10666.666700       0.736783
    10678.056600       0.740840
    10689.470900       0.744878
    10700.909600       0.748895
    10712.372800       0.752892
    10723.860600       0.756868
    10735.373100       0.760823
    10746.910300       0.764756
    10758.472300       0.768666
    10770.059200       0.772554
    10781.671200       0.776419
    10793.308100       0.780261
    10804.970300       0.784079
    10816.657700       0.787872
    10828.370300       0.791641
    10840.108400       0.795385
    10851.871900       0.799103
    10863.661100       0.802796
    10875.475800       0.806462
    10887.316300       0.810102
    10899.182600       0.813715
    10911.074700       0.817301
    10922.992900       0.820859
    10934.937100       0.824389
    10946.907500       0.827891
    10958.904100       0.831364
    10970.927000       0.834808
    10982.976400       0.838223
    10995.052200       0.841608
    11007.154700       0.844963
    11019.283700       0.848287
    11031.439600       0.851581
    11043.622300       0.854844
    11055.832000       0.858076
    11068.068600       0.861276
    11080.332400       0.864444
    11092.623400       0.867580
    11104.941700       0.870683
    11117.287400       0.873754
    11129.660500       0.876792
    11142.061300       0.879796
    11154.489700       0.882767
    11166.945800       0.885704
    11179.429800       0.888607
    11191.941800       0.891476
    11204.481800       0.894310
    11217.049900       0.897110
    11229.646300       0.899874
    11242.270900       0.902603
    11254.924000       0.905297
    11267.605600       0.907955
    11280.315800       0.910577
    11293.054800       0.913164
    11305.822500       0.915714
    11318.619100       0.918227
    11331.444800       0.920704
    11344.299500       0.923144
    11357.183400       0.925547
    11370.096600       0.927913
    11383.039300       0.930242
    11396.011400       0.932534
    11409.013100       0.934787
    11422.044500       0.937003
    11435.105800       0.939182
    11448.196900       0.941322
    11461.318100       0.943425
    11474.469300       0.945489
    11487.650800       0.947515
    11500.862600       0.949503
    11514.104800       0.951452
    11527.377500       0.953363
    11540.680900       0.955235
    11554.015000       0.957068
    11567.380000       0.958863
    11580.775900       0.960619
    11594.202900       0.962337
    11607.661100       0.964015
    11621.150500       0.965655
    11634.671300       0.967255
    11648.223600       0.968817
    11661.807600       0.970340
    11675.423200       0.971823
    11689.070700       0.973268
    11702.750100       0.974674
    11716.461600       0.976041
    11730.205300       0.977369
    11743.981200       0.978659
    11757.789500       0.979909
    11771.630400       0.981121
    11785.503800       0.982294
    11799.410000       0.983428
    11813.349100       0.984523
    11827.321100       0.985580
    11841.326200       0.986599
    11855.364600       0.987579
    11869.436200       0.988521
    11883.541300       0.989424
    11897.680000       0.990290
    11911.852300       0.991117
    11926.058400       0.991906
    11940.298500       0.992658
    11954.572600       0.993372
    11968.880900       0.994049
    11983.223500       0.994688
    11997.600500       0.995290
    12012.012000       0.995855
    12026.458200       0.996383
    12040.939200       0.996874
    12055.455100       0.997328
    12070.006000       0.997746
    12084.592100       0.998128
    12099.213600       0.998474
    12113.870400       0.998784
    12128.562800       0.999059
    12143.290800       0.999298
    12158.054700       0.999501
    12172.854500       0.999670
    12187.690400       0.999804
    12202.562500       0.999904
    12217.471000       0.999969
    12232.415900       1.000000
    12247.397400       0.999997
    12262.415700       0.999961
    12277.470800       0.999891
    12292.563000       0.999789
    12307.692300       0.999654
    12322.858900       0.999486
    12338.062900       0.999286
    12353.304500       0.999054
    12368.583800       0.998790
    12383.900900       0.998495
    12399.256000       0.998169
    12414.649300       0.997813
    12430.080800       0.997426
    12445.550700       0.997008
    12461.059200       0.996562
    12476.606400       0.996085
    12492.192400       0.995580
    12507.817400       0.995045
    12523.481500       0.994483
    12539.185000       0.993892
    12554.927800       0.993273
    12570.710200       0.992627
    12586.532400       0.991954
    12602.394500       0.991255
    12618.296500       0.990529
    12634.238800       0.989777
    12650.221400       0.988999
    12666.244500       0.988197
    12682.308200       0.987369
    12698.412700       0.986517
    12714.558200       0.985641
    12730.744700       0.984742
    12746.972600       0.983819
    12763.241900       0.982873
    12779.552700       0.981905
    12795.905300       0.980915
    12812.299800       0.979903
    12828.736400       0.978870
    12845.215200       0.977816
    12861.736300       0.976741
    12878.300100       0.975647
    12894.906500       0.974533
    12911.555800       0.973400
    12928.248200       0.972248
    12944.983800       0.971078
    12961.762800       0.969890
    12978.585300       0.968684
    12995.451600       0.967462
    13012.361700       0.966223
    13029.316000       0.964968
    13046.314400       0.963697
    13063.357300       0.962411
    13080.444700       0.961110
    13097.576900       0.959795
    13114.754100       0.958466
    13131.976400       0.957123
    13149.243900       0.955767
    13166.556900       0.954399
    13183.915600       0.953019
    13201.320100       0.951626
    13218.770700       0.950223
    13236.267400       0.948809
    13253.810500       0.947385
    13271.400100       0.945950
    13289.036500       0.944507
    13306.719900       0.943054
    13324.450400       0.941593
    13342.228200       0.940123
    13360.053400       0.938647
    13377.926400       0.937163
    13395.847300       0.935672
    13413.816200       0.934175
    13431.833400       0.932672
    13449.899100       0.931164
    13468.013500       0.929651
    13486.176700       0.928133
    13504.388900       0.926611
    13522.650400       0.925086
    13540.961400       0.923558
    13559.322000       0.922027
    13577.732500       0.920494
    13596.193100       0.918958
    13614.703900       0.917422
    13633.265200       0.915885
    13651.877100       0.914347
    13670.540000       0.912809
    13689.253900       0.911271
    13708.019200       0.909735
    13726.836000       0.908199
    13745.704500       0.906665
    13764.624900       0.905133
    13783.597500       0.903604
    13802.622500       0.902077
    13821.700100       0.900554
    13840.830400       0.899035
    13860.013900       0.897519
    13879.250500       0.896009
    13898.540700       0.894503
    13917.884500       0.893002
    13937.282200       0.891507
    13956.734100       0.890019
    13976.240400       0.888536
    13995.801300       0.887061
    14015.417000       0.885593
    14035.087700       0.884133
    14054.813800       0.882680
    14074.595400       0.881236
    14094.432700       0.879801
    14114.326000       0.878374
    14134.275600       0.876957
    14154.281700       0.875550
    14174.344400       0.874153
    14194.464200       0.872767
    14214.641100       0.871391
    14234.875400       0.870026
    14255.167500       0.868673
    14275.517500       0.867332
    14295.925700       0.866003
    14316.392300       0.864686
    14336.917600       0.863381
    14357.501800       0.862090
    14378.145200       0.860812
    14398.848100       0.859548
    14419.610700       0.858297
    14440.433200       0.857060
    14461.316000       0.855838
    14482.259200       0.854631
    14503.263200       0.853438
    14524.328200       0.852260
    14545.454500       0.851098
    14566.642400       0.849951
    14587.892000       0.848821
    14609.203800       0.847706
    14630.577900       0.846607
    14652.014700       0.845525
    14673.514300       0.844460
    14695.077100       0.843411
    14716.703500       0.842380
    14738.393500       0.841366
    14760.147600       0.840369
    14781.966000       0.839390
    14803.849000       0.838428
    14825.796900       0.837484
    14847.809900       0.836559
    14869.888500       0.835651
    14892.032800       0.834762
    14914.243100       0.833891
    14936.519800       0.833039
    14958.863100       0.832205
    14981.273400       0.831390
    15003.750900       0.830593
    15026.296000       0.829816
    15048.909000       0.829057
    15071.590100       0.828318
    15094.339600       0.827597
    15117.158000       0.826895
    15140.045400       0.826213
    15163.002300       0.825550
    15186.028900       0.824906
    15209.125500       0.824281
    15232.292500       0.823675
    15255.530100       0.823089
    15278.838800       0.822521
    15302.218800       0.821973
    15325.670500       0.821444
    15349.194200       0.820934
    15372.790200       0.820443
    15396.458800       0.819971
    15420.200500       0.819517
    15444.015400       0.819083
    15467.904100       0.818667
    15491.866800       0.818270
    15515.903800       0.817891
    15540.015500       0.817531
    15564.202300       0.817189
    15588.464500       0.816865
    15612.802500       0.816559
    15637.216600       0.816271
    15661.707100       0.816001
    15686.274500       0.815748
    15710.919100       0.815513
    15735.641200       0.815294
    15760.441300       0.815093
    15785.319700       0.814908
    15810.276700       0.814740
    15835.312700       0.814589
    15860.428200       0.814453
    15885.623500       0.814333
    15910.899000       0.814229
    15936.255000       0.814140
    15961.691900       0.814066
    15987.210200       0.814007
    16012.810200       0.813962
    16038.492400       0.813931
    16064.257000       0.813914
    16090.104600       0.813911
    16116.035500       0.813921
    16142.050000       0.813944
    16168.148700       0.813980
    16194.332000       0.814027
    16220.600200       0.814086
    16246.953700       0.814157
    16273.393000       0.814239
    16299.918500       0.814331
    16326.530600       0.814434
    16353.229800       0.814547
    16380.016400       0.814669
    16406.890900       0.814800
    16433.853700       0.814939
    16460.905300       0.815087
    16488.046200       0.815242
    16515.276600       0.815405
    16542.597200       0.815574
    16570.008300       0.815749
    16597.510400       0.815930
    16625.103900       0.816117
    16652.789300       0.816308
    16680.567100       0.816503
    16708.437800       0.816702
    16736.401700       0.816905
    16764.459300       0.817110
    16792.611300       0.817317
    16820.857900       0.817525
    16849.199700       0.817735
    16877.637100       0.817944
    16906.170800       0.818154
    16934.801000       0.818363
    16963.528400       0.818571
    16992.353400       0.818776
    17021.276600       0.818979
    17050.298400       0.819179
    17079.419300       0.819375
    17108.639900       0.819567
    17137.960600       0.819754
    17167.382000       0.819935
    17196.904600       0.820109
    17226.528900       0.820277
    17256.255400       0.820436
    17286.084700       0.820588
    17316.017300       0.820730
    17346.053800       0.820863
    17376.194600       0.820986
    17406.440400       0.821097
    17436.791600       0.821196
    17467.248900       0.821283
    17497.812800       0.821357
    17528.483800       0.821417
    17559.262500       0.821463
    17590.149500       0.821493
    17621.145400       0.821507
    17652.250700       0.821504
    17683.466000       0.821483
