36,   36, MVIRI VIS channel from srf_MET5_1995258_1995259_1801-Release_S10EL_10.dat
Number of data points:
806
Wavenumber (cm-1)   Filter response
     8350.730700       0.000000
     8357.710000       0.000000
     8364.701000       0.000000
     8371.703600       0.000001
     8378.718100       0.000004
     8385.744200       0.000009
     8392.782200       0.000016
     8399.832000       0.000027
     8406.893700       0.000041
     8413.967200       0.000059
     8421.052600       0.000081
     8428.150000       0.000109
     8435.259400       0.000143
     8442.380800       0.000182
     8449.514200       0.000227
     8456.659600       0.000280
     8463.817200       0.000339
     8470.986900       0.000406
     8478.168700       0.000481
     8485.362700       0.000564
     8492.569000       0.000656
     8499.787500       0.000757
     8507.018300       0.000867
     8514.261400       0.000986
     8521.516800       0.001115
     8528.784600       0.001254
     8536.064900       0.001404
     8543.357500       0.001564
     8550.662700       0.001736
     8557.980300       0.001918
     8565.310500       0.002112
     8572.653200       0.002317
     8580.008600       0.002534
     8587.376600       0.002763
     8594.757200       0.003005
     8602.150500       0.003259
     8609.556600       0.003526
     8616.975400       0.003806
     8624.407100       0.004098
     8631.851500       0.004404
     8639.308900       0.004724
     8646.779100       0.005057
     8654.262200       0.005404
     8661.758300       0.005765
     8669.267400       0.006140
     8676.789600       0.006529
     8684.324800       0.006933
     8691.873100       0.007351
     8699.434500       0.007784
     8707.009100       0.008232
     8714.596900       0.008695
     8722.198000       0.009173
     8729.812300       0.009667
     8737.439900       0.010176
     8745.080900       0.010700
     8752.735200       0.011240
     8760.403000       0.011796
     8768.084200       0.012368
     8775.778900       0.012956
     8783.487000       0.013560
     8791.208800       0.014181
     8798.944100       0.014818
     8806.693100       0.015471
     8814.455700       0.016141
     8822.232000       0.016828
     8830.022100       0.017532
     8837.825900       0.018253
     8845.643500       0.018991
     8853.475000       0.019746
     8861.320300       0.020519
     8869.179600       0.021309
     8877.052800       0.022116
     8884.940000       0.022941
     8892.841300       0.023784
     8900.756600       0.024645
     8908.686000       0.025524
     8916.629500       0.026421
     8924.587200       0.027336
     8932.559200       0.028269
     8940.545400       0.029221
     8948.545900       0.030192
     8956.560700       0.031180
     8964.589900       0.032188
     8972.633500       0.033215
     8980.691500       0.034260
     8988.764000       0.035324
     8996.851100       0.036408
     9004.952700       0.037511
     9013.068900       0.038633
     9021.199800       0.039774
     9029.345400       0.040935
     9037.505600       0.042116
     9045.680700       0.043316
     9053.870500       0.044536
     9062.075200       0.045776
     9070.294800       0.047037
     9078.529300       0.048317
     9086.778700       0.049617
     9095.043200       0.050938
     9103.322700       0.052279
     9111.617300       0.053641
     9119.927000       0.055023
     9128.251900       0.056426
     9136.592100       0.057850
     9144.947400       0.059294
     9153.318100       0.060760
     9161.704100       0.062247
     9170.105500       0.063755
     9178.522300       0.065284
     9186.954500       0.066834
     9195.402300       0.068406
     9203.865600       0.069999
     9212.344500       0.071614
     9220.839100       0.073251
     9229.349300       0.074909
     9237.875300       0.076589
     9246.417000       0.078291
     9254.974500       0.080016
     9263.547900       0.081762
     9272.137200       0.083530
     9280.742500       0.085321
     9289.363700       0.087133
     9298.000900       0.088969
     9306.654300       0.090827
     9315.323700       0.092707
     9324.009300       0.094610
     9332.711200       0.096535
     9341.429200       0.098483
     9350.163600       0.100454
     9358.914400       0.102448
     9367.681500       0.104465
     9376.465100       0.106504
     9385.265100       0.108567
     9394.081700       0.110653
     9402.914900       0.112761
     9411.764700       0.114893
     9420.631200       0.117049
     9429.514400       0.119227
     9438.414300       0.121429
     9447.331100       0.123653
     9456.264800       0.125902
     9465.215300       0.128174
     9474.182900       0.130469
     9483.167400       0.132787
     9492.169000       0.135129
     9501.187600       0.137495
     9510.223500       0.139884
     9519.276500       0.142296
     9528.346800       0.144733
     9537.434400       0.147192
     9546.539400       0.149675
     9555.661700       0.152182
     9564.801500       0.154712
     9573.958800       0.157266
     9583.133700       0.159844
     9592.326100       0.162444
     9601.536200       0.165069
     9610.764100       0.167717
     9620.009600       0.170388
     9629.273000       0.173083
     9638.554200       0.175801
     9647.853400       0.178543
     9657.170400       0.181308
     9666.505600       0.184096
     9675.858700       0.186908
     9685.230000       0.189743
     9694.619500       0.192601
     9704.027200       0.195482
     9713.453100       0.198387
     9722.897400       0.201315
     9732.360100       0.204265
     9741.841200       0.207238
     9751.340800       0.210234
     9760.859000       0.213253
     9770.395700       0.216295
     9779.951100       0.219359
     9789.525200       0.222446
     9799.118100       0.225555
     9808.729800       0.228686
     9818.360300       0.231840
     9828.009800       0.235016
     9837.678300       0.238214
     9847.365800       0.241434
     9857.072400       0.244675
     9866.798200       0.247938
     9876.543200       0.251223
     9886.307500       0.254529
     9896.091000       0.257857
     9905.894000       0.261205
     9915.716400       0.264575
     9925.558300       0.267965
     9935.419800       0.271377
     9945.300800       0.274809
     9955.201600       0.278261
     9965.122100       0.281733
     9975.062300       0.285226
     9985.022500       0.288738
     9995.002500       0.292271
    10005.002500       0.295822
    10015.022500       0.299393
    10025.062700       0.302984
    10035.122900       0.306593
    10045.203400       0.310221
    10055.304200       0.313868
    10065.425300       0.317533
    10075.566800       0.321217
    10085.728700       0.324918
    10095.911200       0.328637
    10106.114200       0.332374
    10116.337900       0.336128
    10126.582300       0.339899
    10136.847400       0.343687
    10147.133400       0.347492
    10157.440300       0.351313
    10167.768200       0.355150
    10178.117000       0.359003
    10188.487000       0.362872
    10198.878100       0.366756
    10209.290500       0.370655
    10219.724100       0.374569
    10230.179000       0.378498
    10240.655400       0.382442
    10251.153300       0.386399
    10261.672700       0.390370
    10272.213700       0.394354
    10282.776300       0.398352
    10293.360800       0.402363
    10303.967000       0.406386
    10314.595200       0.410422
    10325.245200       0.414469
    10335.917300       0.418529
    10346.611500       0.422600
    10357.327800       0.426682
    10368.066400       0.430774
    10378.827200       0.434878
    10389.610400       0.438991
    10400.416000       0.443115
    10411.244100       0.447248
    10422.094800       0.451390
    10432.968200       0.455541
    10443.864200       0.459700
    10454.783100       0.463868
    10465.724800       0.468044
    10476.689400       0.472227
    10487.677000       0.476417
    10498.687700       0.480614
    10509.721500       0.484818
    10520.778500       0.489027
    10531.858900       0.493243
    10542.962600       0.497464
    10554.089700       0.501690
    10565.240400       0.505920
    10576.414600       0.510155
    10587.612500       0.514394
    10598.834100       0.518637
    10610.079600       0.522882
    10621.348900       0.527131
    10632.642200       0.531382
    10643.959600       0.535635
    10655.301000       0.539890
    10666.666700       0.544146
    10678.056600       0.548403
    10689.470900       0.552660
    10700.909600       0.556918
    10712.372800       0.561175
    10723.860600       0.565432
    10735.373100       0.569688
    10746.910300       0.573943
    10758.472300       0.578196
    10770.059200       0.582446
    10781.671200       0.586694
    10793.308100       0.590939
    10804.970300       0.595181
    10816.657700       0.599419
    10828.370300       0.603652
    10840.108400       0.607881
    10851.871900       0.612106
    10863.661100       0.616325
    10875.475800       0.620538
    10887.316300       0.624745
    10899.182600       0.628945
    10911.074700       0.633139
    10922.992900       0.637325
    10934.937100       0.641503
    10946.907500       0.645673
    10958.904100       0.649835
    10970.927000       0.653988
    10982.976400       0.658131
    10995.052200       0.662264
    11007.154700       0.666388
    11019.283700       0.670501
    11031.439600       0.674603
    11043.622300       0.678693
    11055.832000       0.682772
    11068.068600       0.686839
    11080.332400       0.690893
    11092.623400       0.694934
    11104.941700       0.698962
    11117.287400       0.702976
    11129.660500       0.706976
    11142.061300       0.710962
    11154.489700       0.714932
    11166.945800       0.718888
    11179.429800       0.722827
    11191.941800       0.726751
    11204.481800       0.730658
    11217.049900       0.734549
    11229.646300       0.738422
    11242.270900       0.742278
    11254.924000       0.746116
    11267.605600       0.749935
    11280.315800       0.753736
    11293.054800       0.757518
    11305.822500       0.761280
    11318.619100       0.765023
    11331.444800       0.768745
    11344.299500       0.772447
    11357.183400       0.776129
    11370.096600       0.779789
    11383.039300       0.783427
    11396.011400       0.787044
    11409.013100       0.790638
    11422.044500       0.794210
    11435.105800       0.797759
    11448.196900       0.801285
    11461.318100       0.804787
    11474.469300       0.808265
    11487.650800       0.811719
    11500.862600       0.815149
    11514.104800       0.818553
    11527.377500       0.821933
    11540.680900       0.825287
    11554.015000       0.828615
    11567.380000       0.831917
    11580.775900       0.835193
    11594.202900       0.838442
    11607.661100       0.841664
    11621.150500       0.844859
    11634.671300       0.848026
    11648.223600       0.851166
    11661.807600       0.854277
    11675.423200       0.857360
    11689.070700       0.860415
    11702.750100       0.863440
    11716.461600       0.866437
    11730.205300       0.869403
    11743.981200       0.872341
    11757.789500       0.875248
    11771.630400       0.878126
    11785.503800       0.880973
    11799.410000       0.883789
    11813.349100       0.886575
    11827.321100       0.889329
    11841.326200       0.892053
    11855.364600       0.894744
    11869.436200       0.897405
    11883.541300       0.900033
    11897.680000       0.902629
    11911.852300       0.905193
    11926.058400       0.907725
    11940.298500       0.910224
    11954.572600       0.912691
    11968.880900       0.915124
    11983.223500       0.917524
    11997.600500       0.919891
    12012.012000       0.922225
    12026.458200       0.924525
    12040.939200       0.926791
    12055.455100       0.929024
    12070.006000       0.931223
    12084.592100       0.933387
    12099.213600       0.935518
    12113.870400       0.937614
    12128.562800       0.939675
    12143.290800       0.941703
    12158.054700       0.943695
    12172.854500       0.945653
    12187.690400       0.947576
    12202.562500       0.949465
    12217.471000       0.951318
    12232.415900       0.953137
    12247.397400       0.954920
    12262.415700       0.956668
    12277.470800       0.958381
    12292.563000       0.960059
    12307.692300       0.961702
    12322.858900       0.963310
    12338.062900       0.964882
    12353.304500       0.966419
    12368.583800       0.967921
    12383.900900       0.969387
    12399.256000       0.970819
    12414.649300       0.972215
    12430.080800       0.973575
    12445.550700       0.974901
    12461.059200       0.976191
    12476.606400       0.977446
    12492.192400       0.978666
    12507.817400       0.979851
    12523.481500       0.981000
    12539.185000       0.982115
    12554.927800       0.983195
    12570.710200       0.984240
    12586.532400       0.985250
    12602.394500       0.986225
    12618.296500       0.987166
    12634.238800       0.988073
    12650.221400       0.988945
    12666.244500       0.989782
    12682.308200       0.990586
    12698.412700       0.991355
    12714.558200       0.992090
    12730.744700       0.992792
    12746.972600       0.993460
    12763.241900       0.994094
    12779.552700       0.994695
    12795.905300       0.995262
    12812.299800       0.995797
    12828.736400       0.996298
    12845.215200       0.996767
    12861.736300       0.997203
    12878.300100       0.997607
    12894.906500       0.997979
    12911.555800       0.998318
    12928.248200       0.998626
    12944.983800       0.998902
    12961.762800       0.999147
    12978.585300       0.999360
    12995.451600       0.999543
    13012.361700       0.999694
    13029.316000       0.999816
    13046.314400       0.999907
    13063.357300       0.999967
    13080.444700       0.999999
    13097.576900       1.000000
    13114.754100       0.999972
    13131.976400       0.999915
    13149.243900       0.999830
    13166.556900       0.999716
    13183.915600       0.999573
    13201.320100       0.999403
    13218.770700       0.999205
    13236.267400       0.998980
    13253.810500       0.998728
    13271.400100       0.998448
    13289.036500       0.998143
    13306.719900       0.997811
    13324.450400       0.997453
    13342.228200       0.997070
    13360.053400       0.996662
    13377.926400       0.996229
    13395.847300       0.995771
    13413.816200       0.995289
    13431.833400       0.994783
    13449.899100       0.994254
    13468.013500       0.993701
    13486.176700       0.993126
    13504.388900       0.992528
    13522.650400       0.991908
    13540.961400       0.991266
    13559.322000       0.990602
    13577.732500       0.989918
    13596.193100       0.989213
    13614.703900       0.988487
    13633.265200       0.987742
    13651.877100       0.986977
    13670.540000       0.986193
    13689.253900       0.985390
    13708.019200       0.984569
    13726.836000       0.983730
    13745.704500       0.982873
    13764.624900       0.981998
    13783.597500       0.981107
    13802.622500       0.980200
    13821.700100       0.979276
    13840.830400       0.978337
    13860.013900       0.977383
    13879.250500       0.976413
    13898.540700       0.975430
    13917.884500       0.974432
    13937.282200       0.973420
    13956.734100       0.972396
    13976.240400       0.971358
    13995.801300       0.970309
    14015.417000       0.969247
    14035.087700       0.968173
    14054.813800       0.967089
    14074.595400       0.965994
    14094.432700       0.964888
    14114.326000       0.963773
    14134.275600       0.962648
    14154.281700       0.961514
    14174.344400       0.960372
    14194.464200       0.959221
    14214.641100       0.958063
    14234.875400       0.956897
    14255.167500       0.955724
    14275.517500       0.954545
    14295.925700       0.953359
    14316.392300       0.952168
    14336.917600       0.950971
    14357.501800       0.949770
    14378.145200       0.948564
    14398.848100       0.947355
    14419.610700       0.946141
    14440.433200       0.944924
    14461.316000       0.943705
    14482.259200       0.942483
    14503.263200       0.941259
    14524.328200       0.940034
    14545.454500       0.938807
    14566.642400       0.937580
    14587.892000       0.936352
    14609.203800       0.935124
    14630.577900       0.933897
    14652.014700       0.932670
    14673.514300       0.931444
    14695.077100       0.930220
    14716.703500       0.928998
    14738.393500       0.927779
    14760.147600       0.926562
    14781.966000       0.925348
    14803.849000       0.924138
    14825.796900       0.922931
    14847.809900       0.921729
    14869.888500       0.920531
    14892.032800       0.919338
    14914.243100       0.918150
    14936.519800       0.916968
    14958.863100       0.915791
    14981.273400       0.914621
    15003.750900       0.913458
    15026.296000       0.912302
    15048.909000       0.911152
    15071.590100       0.910011
    15094.339600       0.908877
    15117.158000       0.907751
    15140.045400       0.906634
    15163.002300       0.905526
    15186.028900       0.904427
    15209.125500       0.903337
    15232.292500       0.902257
    15255.530100       0.901187
    15278.838800       0.900127
    15302.218800       0.899078
    15325.670500       0.898039
    15349.194200       0.897012
    15372.790200       0.895995
    15396.458800       0.894990
    15420.200500       0.893997
    15444.015400       0.893016
    15467.904100       0.892047
    15491.866800       0.891090
    15515.903800       0.890146
    15540.015500       0.889214
    15564.202300       0.888296
    15588.464500       0.887391
    15612.802500       0.886499
    15637.216600       0.885621
    15661.707100       0.884756
    15686.274500       0.883905
    15710.919100       0.883069
    15735.641200       0.882246
    15760.441300       0.881438
    15785.319700       0.880644
    15810.276700       0.879864
    15835.312700       0.879099
    15860.428200       0.878349
    15885.623500       0.877613
    15910.899000       0.876893
    15936.255000       0.876187
    15961.691900       0.875497
    15987.210200       0.874821
    16012.810200       0.874161
    16038.492400       0.873515
    16064.257000       0.872885
    16090.104600       0.872270
    16116.035500       0.871671
    16142.050000       0.871086
    16168.148700       0.870517
    16194.332000       0.869963
    16220.600200       0.869424
    16246.953700       0.868900
    16273.393000       0.868391
    16299.918500       0.867898
    16326.530600       0.867419
    16353.229800       0.866955
    16380.016400       0.866506
    16406.890900       0.866072
    16433.853700       0.865652
    16460.905300       0.865247
    16488.046200       0.864856
    16515.276600       0.864479
    16542.597200       0.864117
    16570.008300       0.863768
    16597.510400       0.863433
    16625.103900       0.863112
    16652.789300       0.862804
    16680.567100       0.862509
    16708.437800       0.862227
    16736.401700       0.861958
    16764.459300       0.861702
    16792.611300       0.861458
    16820.857900       0.861226
    16849.199700       0.861005
    16877.637100       0.860797
    16906.170800       0.860599
    16934.801000       0.860412
    16963.528400       0.860236
    16992.353400       0.860071
    17021.276600       0.859915
    17050.298400       0.859769
    17079.419300       0.859633
    17108.639900       0.859505
    17137.960600       0.859386
    17167.382000       0.859275
    17196.904600       0.859172
    17226.528900       0.859077
    17256.255400       0.858988
    17286.084700       0.858906
