53,   53, MVIRI VIS channel from srf_MET5_1997303_1997304_1801-Release_S10EL_10.dat
Number of data points:
806
Wavenumber (cm-1)   Filter response
     8350.730700       0.000000
     8357.710000       0.000000
     8364.701000       0.000000
     8371.703600       0.000002
     8378.718100       0.000004
     8385.744200       0.000009
     8392.782200       0.000016
     8399.832000       0.000027
     8406.893700       0.000041
     8413.967200       0.000059
     8421.052600       0.000082
     8428.150000       0.000110
     8435.259400       0.000144
     8442.380800       0.000184
     8449.514200       0.000230
     8456.659600       0.000283
     8463.817200       0.000343
     8470.986900       0.000411
     8478.168700       0.000486
     8485.362700       0.000571
     8492.569000       0.000663
     8499.787500       0.000765
     8507.018300       0.000876
     8514.261400       0.000997
     8521.516800       0.001127
     8528.784600       0.001268
     8536.064900       0.001419
     8543.357500       0.001581
     8550.662700       0.001754
     8557.980300       0.001938
     8565.310500       0.002134
     8572.653200       0.002341
     8580.008600       0.002561
     8587.376600       0.002793
     8594.757200       0.003037
     8602.150500       0.003293
     8609.556600       0.003563
     8616.975400       0.003845
     8624.407100       0.004141
     8631.851500       0.004450
     8639.308900       0.004773
     8646.779100       0.005110
     8654.262200       0.005460
     8661.758300       0.005825
     8669.267400       0.006203
     8676.789600       0.006597
     8684.324800       0.007004
     8691.873100       0.007427
     8699.434500       0.007864
     8707.009100       0.008317
     8714.596900       0.008784
     8722.198000       0.009267
     8729.812300       0.009765
     8737.439900       0.010279
     8745.080900       0.010809
     8752.735200       0.011354
     8760.403000       0.011916
     8768.084200       0.012493
     8775.778900       0.013087
     8783.487000       0.013697
     8791.208800       0.014323
     8798.944100       0.014967
     8806.693100       0.015626
     8814.455700       0.016303
     8822.232000       0.016996
     8830.022100       0.017707
     8837.825900       0.018434
     8845.643500       0.019179
     8853.475000       0.019942
     8861.320300       0.020722
     8869.179600       0.021519
     8877.052800       0.022334
     8884.940000       0.023167
     8892.841300       0.024018
     8900.756600       0.024886
     8908.686000       0.025773
     8916.629500       0.026678
     8924.587200       0.027602
     8932.559200       0.028544
     8940.545400       0.029504
     8948.545900       0.030484
     8956.560700       0.031481
     8964.589900       0.032498
     8972.633500       0.033534
     8980.691500       0.034589
     8988.764000       0.035663
     8996.851100       0.036756
     9004.952700       0.037868
     9013.068900       0.039000
     9021.199800       0.040152
     9029.345400       0.041323
     9037.505600       0.042514
     9045.680700       0.043725
     9053.870500       0.044956
     9062.075200       0.046207
     9070.294800       0.047478
     9078.529300       0.048769
     9086.778700       0.050081
     9095.043200       0.051413
     9103.322700       0.052765
     9111.617300       0.054139
     9119.927000       0.055533
     9128.251900       0.056948
     9136.592100       0.058383
     9144.947400       0.059840
     9153.318100       0.061318
     9161.704100       0.062817
     9170.105500       0.064337
     9178.522300       0.065879
     9186.954500       0.067442
     9195.402300       0.069027
     9203.865600       0.070633
     9212.344500       0.072261
     9220.839100       0.073911
     9229.349300       0.075583
     9237.875300       0.077277
     9246.417000       0.078992
     9254.974500       0.080730
     9263.547900       0.082491
     9272.137200       0.084273
     9280.742500       0.086078
     9289.363700       0.087905
     9298.000900       0.089755
     9306.654300       0.091627
     9315.323700       0.093522
     9324.009300       0.095439
     9332.711200       0.097380
     9341.429200       0.099343
     9350.163600       0.101329
     9358.914400       0.103338
     9367.681500       0.105370
     9376.465100       0.107425
     9385.265100       0.109503
     9394.081700       0.111604
     9402.914900       0.113729
     9411.764700       0.115877
     9420.631200       0.118048
     9429.514400       0.120242
     9438.414300       0.122460
     9447.331100       0.124701
     9456.264800       0.126966
     9465.215300       0.129254
     9474.182900       0.131566
     9483.167400       0.133901
     9492.169000       0.136260
     9501.187600       0.138642
     9510.223500       0.141048
     9519.276500       0.143477
     9528.346800       0.145931
     9537.434400       0.148407
     9546.539400       0.150908
     9555.661700       0.153432
     9564.801500       0.155979
     9573.958800       0.158551
     9583.133700       0.161146
     9592.326100       0.163764
     9601.536200       0.166406
     9610.764100       0.169072
     9620.009600       0.171761
     9629.273000       0.174474
     9638.554200       0.177210
     9647.853400       0.179970
     9657.170400       0.182752
     9666.505600       0.185559
     9675.858700       0.188389
     9685.230000       0.191242
     9694.619500       0.194119
     9704.027200       0.197018
     9713.453100       0.199941
     9722.897400       0.202887
     9732.360100       0.205855
     9741.841200       0.208847
     9751.340800       0.211862
     9760.859000       0.214899
     9770.395700       0.217959
     9779.951100       0.221042
     9789.525200       0.224147
     9799.118100       0.227275
     9808.729800       0.230425
     9818.360300       0.233598
     9828.009800       0.236792
     9837.678300       0.240008
     9847.365800       0.243247
     9857.072400       0.246507
     9866.798200       0.249789
     9876.543200       0.253092
     9886.307500       0.256417
     9896.091000       0.259763
     9905.894000       0.263130
     9915.716400       0.266519
     9925.558300       0.269927
     9935.419800       0.273357
     9945.300800       0.276808
     9955.201600       0.280278
     9965.122100       0.283769
     9975.062300       0.287280
     9985.022500       0.290811
     9995.002500       0.294362
    10005.002500       0.297932
    10015.022500       0.301521
    10025.062700       0.305130
    10035.122900       0.308757
    10045.203400       0.312403
    10055.304200       0.316068
    10065.425300       0.319751
    10075.566800       0.323453
    10085.728700       0.327172
    10095.911200       0.330909
    10106.114200       0.334663
    10116.337900       0.338435
    10126.582300       0.342223
    10136.847400       0.346029
    10147.133400       0.349851
    10157.440300       0.353689
    10167.768200       0.357544
    10178.117000       0.361414
    10188.487000       0.365299
    10198.878100       0.369201
    10209.290500       0.373117
    10219.724100       0.377047
    10230.179000       0.380993
    10240.655400       0.384952
    10251.153300       0.388926
    10261.672700       0.392913
    10272.213700       0.396913
    10282.776300       0.400927
    10293.360800       0.404953
    10303.967000       0.408992
    10314.595200       0.413043
    10325.245200       0.417106
    10335.917300       0.421181
    10346.611500       0.425267
    10357.327800       0.429364
    10368.066400       0.433471
    10378.827200       0.437589
    10389.610400       0.441717
    10400.416000       0.445854
    10411.244100       0.450001
    10422.094800       0.454157
    10432.968200       0.458322
    10443.864200       0.462495
    10454.783100       0.466676
    10465.724800       0.470864
    10476.689400       0.475060
    10487.677000       0.479263
    10498.687700       0.483473
    10509.721500       0.487689
    10520.778500       0.491910
    10531.858900       0.496138
    10542.962600       0.500370
    10554.089700       0.504607
    10565.240400       0.508849
    10576.414600       0.513095
    10587.612500       0.517344
    10598.834100       0.521598
    10610.079600       0.525853
    10621.348900       0.530112
    10632.642200       0.534373
    10643.959600       0.538635
    10655.301000       0.542899
    10666.666700       0.547164
    10678.056600       0.551430
    10689.470900       0.555696
    10700.909600       0.559962
    10712.372800       0.564227
    10723.860600       0.568492
    10735.373100       0.572755
    10746.910300       0.577017
    10758.472300       0.581277
    10770.059200       0.585534
    10781.671200       0.589788
    10793.308100       0.594039
    10804.970300       0.598287
    10816.657700       0.602530
    10828.370300       0.606769
    10840.108400       0.611003
    10851.871900       0.615232
    10863.661100       0.619455
    10875.475800       0.623672
    10887.316300       0.627883
    10899.182600       0.632087
    10911.074700       0.636283
    10922.992900       0.640472
    10934.937100       0.644653
    10946.907500       0.648825
    10958.904100       0.652989
    10970.927000       0.657143
    10982.976400       0.661288
    10995.052200       0.665422
    11007.154700       0.669546
    11019.283700       0.673659
    11031.439600       0.677761
    11043.622300       0.681851
    11055.832000       0.685930
    11068.068600       0.689995
    11080.332400       0.694048
    11092.623400       0.698088
    11104.941700       0.702113
    11117.287400       0.706125
    11129.660500       0.710122
    11142.061300       0.714105
    11154.489700       0.718072
    11166.945800       0.722024
    11179.429800       0.725960
    11191.941800       0.729879
    11204.481800       0.733781
    11217.049900       0.737667
    11229.646300       0.741535
    11242.270900       0.745385
    11254.924000       0.749216
    11267.605600       0.753029
    11280.315800       0.756823
    11293.054800       0.760598
    11305.822500       0.764353
    11318.619100       0.768088
    11331.444800       0.771802
    11344.299500       0.775496
    11357.183400       0.779168
    11370.096600       0.782819
    11383.039300       0.786448
    11396.011400       0.790055
    11409.013100       0.793639
    11422.044500       0.797200
    11435.105800       0.800738
    11448.196900       0.804252
    11461.318100       0.807743
    11474.469300       0.811209
    11487.650800       0.814650
    11500.862600       0.818067
    11514.104800       0.821459
    11527.377500       0.824825
    11540.680900       0.828165
    11554.015000       0.831479
    11567.380000       0.834767
    11580.775900       0.838028
    11594.202900       0.841262
    11607.661100       0.844468
    11621.150500       0.847647
    11634.671300       0.850798
    11648.223600       0.853921
    11661.807600       0.857016
    11675.423200       0.860082
    11689.070700       0.863119
    11702.750100       0.866126
    11716.461600       0.869105
    11730.205300       0.872053
    11743.981200       0.874972
    11757.789500       0.877860
    11771.630400       0.880718
    11785.503800       0.883545
    11799.410000       0.886341
    11813.349100       0.889106
    11827.321100       0.891840
    11841.326200       0.894542
    11855.364600       0.897212
    11869.436200       0.899851
    11883.541300       0.902457
    11897.680000       0.905031
    11911.852300       0.907572
    11926.058400       0.910081
    11940.298500       0.912557
    11954.572600       0.914999
    11968.880900       0.917409
    11983.223500       0.919785
    11997.600500       0.922127
    12012.012000       0.924436
    12026.458200       0.926711
    12040.939200       0.928952
    12055.455100       0.931159
    12070.006000       0.933332
    12084.592100       0.935470
    12099.213600       0.937574
    12113.870400       0.939643
    12128.562800       0.941678
    12143.290800       0.943678
    12158.054700       0.945643
    12172.854500       0.947573
    12187.690400       0.949468
    12202.562500       0.951328
    12217.471000       0.953153
    12232.415900       0.954942
    12247.397400       0.956696
    12262.415700       0.958415
    12277.470800       0.960099
    12292.563000       0.961747
    12307.692300       0.963359
    12322.858900       0.964937
    12338.062900       0.966478
    12353.304500       0.967985
    12368.583800       0.969455
    12383.900900       0.970890
    12399.256000       0.972290
    12414.649300       0.973654
    12430.080800       0.974983
    12445.550700       0.976276
    12461.059200       0.977534
    12476.606400       0.978757
    12492.192400       0.979944
    12507.817400       0.981095
    12523.481500       0.982212
    12539.185000       0.983293
    12554.927800       0.984340
    12570.710200       0.985351
    12586.532400       0.986327
    12602.394500       0.987269
    12618.296500       0.988175
    12634.238800       0.989047
    12650.221400       0.989885
    12666.244500       0.990688
    12682.308200       0.991456
    12698.412700       0.992190
    12714.558200       0.992891
    12730.744700       0.993557
    12746.972600       0.994189
    12763.241900       0.994788
    12779.552700       0.995353
    12795.905300       0.995885
    12812.299800       0.996383
    12828.736400       0.996848
    12845.215200       0.997281
    12861.736300       0.997681
    12878.300100       0.998048
    12894.906500       0.998383
    12911.555800       0.998686
    12928.248200       0.998957
    12944.983800       0.999196
    12961.762800       0.999403
    12978.585300       0.999580
    12995.451600       0.999725
    13012.361700       0.999839
    13029.316000       0.999923
    13046.314400       0.999977
    13063.357300       1.000000
    13080.444700       0.999993
    13097.576900       0.999957
    13114.754100       0.999892
    13131.976400       0.999797
    13149.243900       0.999673
    13166.556900       0.999521
    13183.915600       0.999341
    13201.320100       0.999133
    13218.770700       0.998897
    13236.267400       0.998633
    13253.810500       0.998343
    13271.400100       0.998025
    13289.036500       0.997681
    13306.719900       0.997311
    13324.450400       0.996915
    13342.228200       0.996494
    13360.053400       0.996047
    13377.926400       0.995575
    13395.847300       0.995079
    13413.816200       0.994559
    13431.833400       0.994014
    13449.899100       0.993446
    13468.013500       0.992855
    13486.176700       0.992241
    13504.388900       0.991604
    13522.650400       0.990946
    13540.961400       0.990265
    13559.322000       0.989563
    13577.732500       0.988840
    13596.193100       0.988097
    13614.703900       0.987333
    13633.265200       0.986549
    13651.877100       0.985745
    13670.540000       0.984923
    13689.253900       0.984081
    13708.019200       0.983222
    13726.836000       0.982344
    13745.704500       0.981448
    13764.624900       0.980536
    13783.597500       0.979606
    13802.622500       0.978660
    13821.700100       0.977698
    13840.830400       0.976721
    13860.013900       0.975728
    13879.250500       0.974720
    13898.540700       0.973698
    13917.884500       0.972662
    13937.282200       0.971612
    13956.734100       0.970550
    13976.240400       0.969474
    13995.801300       0.968386
    14015.417000       0.967286
    14035.087700       0.966175
    14054.813800       0.965052
    14074.595400       0.963919
    14094.432700       0.962776
    14114.326000       0.961623
    14134.275600       0.960460
    14154.281700       0.959288
    14174.344400       0.958108
    14194.464200       0.956920
    14214.641100       0.955723
    14234.875400       0.954520
    14255.167500       0.953309
    14275.517500       0.952092
    14295.925700       0.950869
    14316.392300       0.949641
    14336.917600       0.948407
    14357.501800       0.947168
    14378.145200       0.945925
    14398.848100       0.944678
    14419.610700       0.943427
    14440.433200       0.942173
    14461.316000       0.940916
    14482.259200       0.939657
    14503.263200       0.938396
    14524.328200       0.937133
    14545.454500       0.935870
    14566.642400       0.934605
    14587.892000       0.933340
    14609.203800       0.932075
    14630.577900       0.930811
    14652.014700       0.929547
    14673.514300       0.928285
    14695.077100       0.927024
    14716.703500       0.925765
    14738.393500       0.924509
    14760.147600       0.923255
    14781.966000       0.922004
    14803.849000       0.920757
    14825.796900       0.919514
    14847.809900       0.918274
    14869.888500       0.917040
    14892.032800       0.915810
    14914.243100       0.914585
    14936.519800       0.913366
    14958.863100       0.912154
    14981.273400       0.910947
    15003.750900       0.909747
    15026.296000       0.908553
    15048.909000       0.907367
    15071.590100       0.906189
    15094.339600       0.905019
    15117.158000       0.903856
    15140.045400       0.902702
    15163.002300       0.901557
    15186.028900       0.900422
    15209.125500       0.899295
    15232.292500       0.898178
    15255.530100       0.897071
    15278.838800       0.895974
    15302.218800       0.894888
    15325.670500       0.893812
    15349.194200       0.892748
    15372.790200       0.891694
    15396.458800       0.890652
    15420.200500       0.889622
    15444.015400       0.888603
    15467.904100       0.887597
    15491.866800       0.886603
    15515.903800       0.885622
    15540.015500       0.884653
    15564.202300       0.883697
    15588.464500       0.882755
    15612.802500       0.881825
    15637.216600       0.880909
    15661.707100       0.880007
    15686.274500       0.879119
    15710.919100       0.878244
    15735.641200       0.877383
    15760.441300       0.876537
    15785.319700       0.875705
    15810.276700       0.874887
    15835.312700       0.874084
    15860.428200       0.873295
    15885.623500       0.872521
    15910.899000       0.871762
    15936.255000       0.871018
    15961.691900       0.870289
    15987.210200       0.869574
    16012.810200       0.868875
    16038.492400       0.868191
    16064.257000       0.867521
    16090.104600       0.866867
    16116.035500       0.866228
    16142.050000       0.865604
    16168.148700       0.864995
    16194.332000       0.864401
    16220.600200       0.863823
    16246.953700       0.863259
    16273.393000       0.862710
    16299.918500       0.862176
    16326.530600       0.861657
    16353.229800       0.861153
    16380.016400       0.860663
    16406.890900       0.860188
    16433.853700       0.859727
    16460.905300       0.859281
    16488.046200       0.858849
    16515.276600       0.858431
    16542.597200       0.858027
    16570.008300       0.857636
    16597.510400       0.857259
    16625.103900       0.856896
    16652.789300       0.856546
    16680.567100       0.856209
    16708.437800       0.855885
    16736.401700       0.855574
    16764.459300       0.855274
    16792.611300       0.854987
    16820.857900       0.854712
    16849.199700       0.854449
    16877.637100       0.854197
    16906.170800       0.853956
    16934.801000       0.853726
    16963.528400       0.853506
    16992.353400       0.853296
    17021.276600       0.853097
    17050.298400       0.852907
    17079.419300       0.852726
    17108.639900       0.852554
    17137.960600       0.852390
    17167.382000       0.852234
    17196.904600       0.852086
    17226.528900       0.851946
    17256.255400       0.851812
    17286.084700       0.851685
