66,   66, MVIRI VIS channel from srf_MET5_1999168_1999169_1801-Release_S10EL_10.dat
Number of data points:
806
Wavenumber (cm-1)   Filter response
     8350.730700       0.000000
     8357.710000       0.000000
     8364.701000       0.000000
     8371.703600       0.000002
     8378.718100       0.000004
     8385.744200       0.000009
     8392.782200       0.000016
     8399.832000       0.000027
     8406.893700       0.000041
     8413.967200       0.000060
     8421.052600       0.000083
     8428.150000       0.000111
     8435.259400       0.000145
     8442.380800       0.000185
     8449.514200       0.000232
     8456.659600       0.000285
     8463.817200       0.000346
     8470.986900       0.000414
     8478.168700       0.000490
     8485.362700       0.000575
     8492.569000       0.000669
     8499.787500       0.000771
     8507.018300       0.000883
     8514.261400       0.001005
     8521.516800       0.001136
     8528.784600       0.001278
     8536.064900       0.001431
     8543.357500       0.001594
     8550.662700       0.001768
     8557.980300       0.001954
     8565.310500       0.002151
     8572.653200       0.002360
     8580.008600       0.002581
     8587.376600       0.002815
     8594.757200       0.003061
     8602.150500       0.003320
     8609.556600       0.003591
     8616.975400       0.003876
     8624.407100       0.004174
     8631.851500       0.004486
     8639.308900       0.004811
     8646.779100       0.005150
     8654.262200       0.005503
     8661.758300       0.005871
     8669.267400       0.006252
     8676.789600       0.006648
     8684.324800       0.007059
     8691.873100       0.007485
     8699.434500       0.007926
     8707.009100       0.008382
     8714.596900       0.008853
     8722.198000       0.009339
     8729.812300       0.009841
     8737.439900       0.010359
     8745.080900       0.010893
     8752.735200       0.011442
     8760.403000       0.012008
     8768.084200       0.012589
     8775.778900       0.013188
     8783.487000       0.013802
     8791.208800       0.014433
     8798.944100       0.015081
     8806.693100       0.015746
     8814.455700       0.016427
     8822.232000       0.017126
     8830.022100       0.017841
     8837.825900       0.018574
     8845.643500       0.019325
     8853.475000       0.020092
     8861.320300       0.020878
     8869.179600       0.021681
     8877.052800       0.022502
     8884.940000       0.023340
     8892.841300       0.024197
     8900.756600       0.025072
     8908.686000       0.025965
     8916.629500       0.026877
     8924.587200       0.027807
     8932.559200       0.028755
     8940.545400       0.029722
     8948.545900       0.030708
     8956.560700       0.031713
     8964.589900       0.032737
     8972.633500       0.033780
     8980.691500       0.034842
     8988.764000       0.035923
     8996.851100       0.037024
     9004.952700       0.038144
     9013.068900       0.039283
     9021.199800       0.040443
     9029.345400       0.041622
     9037.505600       0.042821
     9045.680700       0.044040
     9053.870500       0.045279
     9062.075200       0.046538
     9070.294800       0.047817
     9078.529300       0.049117
     9086.778700       0.050437
     9095.043200       0.051778
     9103.322700       0.053140
     9111.617300       0.054522
     9119.927000       0.055925
     9128.251900       0.057349
     9136.592100       0.058794
     9144.947400       0.060260
     9153.318100       0.061747
     9161.704100       0.063256
     9170.105500       0.064786
     9178.522300       0.066337
     9186.954500       0.067910
     9195.402300       0.069505
     9203.865600       0.071121
     9212.344500       0.072760
     9220.839100       0.074420
     9229.349300       0.076102
     9237.875300       0.077806
     9246.417000       0.079532
     9254.974500       0.081281
     9263.547900       0.083052
     9272.137200       0.084845
     9280.742500       0.086660
     9289.363700       0.088498
     9298.000900       0.090359
     9306.654300       0.092243
     9315.323700       0.094148
     9324.009300       0.096077
     9332.711200       0.098029
     9341.429200       0.100004
     9350.163600       0.102002
     9358.914400       0.104022
     9367.681500       0.106066
     9376.465100       0.108133
     9385.265100       0.110223
     9394.081700       0.112336
     9402.914900       0.114473
     9411.764700       0.116633
     9420.631200       0.118816
     9429.514400       0.121023
     9438.414300       0.123253
     9447.331100       0.125507
     9456.264800       0.127784
     9465.215300       0.130085
     9474.182900       0.132409
     9483.167400       0.134757
     9492.169000       0.137129
     9501.187600       0.139524
     9510.223500       0.141943
     9519.276500       0.144385
     9528.346800       0.146851
     9537.434400       0.149342
     9546.539400       0.151855
     9555.661700       0.154392
     9564.801500       0.156953
     9573.958800       0.159538
     9583.133700       0.162146
     9592.326100       0.164778
     9601.536200       0.167434
     9610.764100       0.170113
     9620.009600       0.172816
     9629.273000       0.175542
     9638.554200       0.178292
     9647.853400       0.181066
     9657.170400       0.183862
     9666.505600       0.186683
     9675.858700       0.189527
     9685.230000       0.192394
     9694.619500       0.195284
     9704.027200       0.198197
     9713.453100       0.201134
     9722.897400       0.204094
     9732.360100       0.207077
     9741.841200       0.210083
     9751.340800       0.213112
     9760.859000       0.216163
     9770.395700       0.219238
     9779.951100       0.222334
     9789.525200       0.225454
     9799.118100       0.228596
     9808.729800       0.231760
     9818.360300       0.234947
     9828.009800       0.238155
     9837.678300       0.241386
     9847.365800       0.244639
     9857.072400       0.247913
     9866.798200       0.251209
     9876.543200       0.254527
     9886.307500       0.257866
     9896.091000       0.261226
     9905.894000       0.264608
     9915.716400       0.268010
     9925.558300       0.271433
     9935.419800       0.274877
     9945.300800       0.278342
     9955.201600       0.281827
     9965.122100       0.285332
     9975.062300       0.288857
     9985.022500       0.292402
     9995.002500       0.295966
    10005.002500       0.299550
    10015.022500       0.303154
    10025.062700       0.306776
    10035.122900       0.310417
    10045.203400       0.314077
    10055.304200       0.317756
    10065.425300       0.321453
    10075.566800       0.325168
    10085.728700       0.328901
    10095.911200       0.332651
    10106.114200       0.336419
    10116.337900       0.340204
    10126.582300       0.344006
    10136.847400       0.347825
    10147.133400       0.351660
    10157.440300       0.355512
    10167.768200       0.359379
    10178.117000       0.363262
    10188.487000       0.367161
    10198.878100       0.371075
    10209.290500       0.375004
    10219.724100       0.378947
    10230.179000       0.382905
    10240.655400       0.386877
    10251.153300       0.390863
    10261.672700       0.394862
    10272.213700       0.398875
    10282.776300       0.402900
    10293.360800       0.406939
    10303.967000       0.410990
    10314.595200       0.415052
    10325.245200       0.419127
    10335.917300       0.423213
    10346.611500       0.427310
    10357.327800       0.431418
    10368.066400       0.435537
    10378.827200       0.439666
    10389.610400       0.443805
    10400.416000       0.447953
    10411.244100       0.452110
    10422.094800       0.456277
    10432.968200       0.460452
    10443.864200       0.464635
    10454.783100       0.468826
    10465.724800       0.473024
    10476.689400       0.477230
    10487.677000       0.481443
    10498.687700       0.485661
    10509.721500       0.489886
    10520.778500       0.494117
    10531.858900       0.498353
    10542.962600       0.502595
    10554.089700       0.506841
    10565.240400       0.511091
    10576.414600       0.515345
    10587.612500       0.519602
    10598.834100       0.523863
    10610.079600       0.528127
    10621.348900       0.532393
    10632.642200       0.536661
    10643.959600       0.540931
    10655.301000       0.545202
    10666.666700       0.549473
    10678.056600       0.553746
    10689.470900       0.558018
    10700.909600       0.562290
    10712.372800       0.566562
    10723.860600       0.570832
    10735.373100       0.575101
    10746.910300       0.579368
    10758.472300       0.583633
    10770.059200       0.587895
    10781.671200       0.592154
    10793.308100       0.596409
    10804.970300       0.600661
    10816.657700       0.604908
    10828.370300       0.609151
    10840.108400       0.613389
    10851.871900       0.617621
    10863.661100       0.621847
    10875.475800       0.626067
    10887.316300       0.630281
    10899.182600       0.634487
    10911.074700       0.638686
    10922.992900       0.642877
    10934.937100       0.647059
    10946.907500       0.651233
    10958.904100       0.655398
    10970.927000       0.659553
    10982.976400       0.663698
    10995.052200       0.667833
    11007.154700       0.671958
    11019.283700       0.676071
    11031.439600       0.680173
    11043.622300       0.684262
    11055.832000       0.688340
    11068.068600       0.692404
    11080.332400       0.696456
    11092.623400       0.700494
    11104.941700       0.704518
    11117.287400       0.708528
    11129.660500       0.712523
    11142.061300       0.716503
    11154.489700       0.720467
    11166.945800       0.724416
    11179.429800       0.728348
    11191.941800       0.732264
    11204.481800       0.736163
    11217.049900       0.740044
    11229.646300       0.743908
    11242.270900       0.747753
    11254.924000       0.751580
    11267.605600       0.755388
    11280.315800       0.759176
    11293.054800       0.762945
    11305.822500       0.766694
    11318.619100       0.770423
    11331.444800       0.774131
    11344.299500       0.777817
    11357.183400       0.781483
    11370.096600       0.785126
    11383.039300       0.788748
    11396.011400       0.792347
    11409.013100       0.795923
    11422.044500       0.799475
    11435.105800       0.803005
    11448.196900       0.806510
    11461.318100       0.809992
    11474.469300       0.813448
    11487.650800       0.816880
    11500.862600       0.820287
    11514.104800       0.823668
    11527.377500       0.827024
    11540.680900       0.830353
    11554.015000       0.833657
    11567.380000       0.836933
    11580.775900       0.840182
    11594.202900       0.843404
    11607.661100       0.846599
    11621.150500       0.849766
    11634.671300       0.852904
    11648.223600       0.856014
    11661.807600       0.859096
    11675.423200       0.862148
    11689.070700       0.865171
    11702.750100       0.868165
    11716.461600       0.871129
    11730.205300       0.874063
    11743.981200       0.876967
    11757.789500       0.879841
    11771.630400       0.882683
    11785.503800       0.885495
    11799.410000       0.888275
    11813.349100       0.891025
    11827.321100       0.893742
    11841.326200       0.896428
    11855.364600       0.899082
    11869.436200       0.901703
    11883.541300       0.904293
    11897.680000       0.906849
    11911.852300       0.909373
    11926.058400       0.911864
    11940.298500       0.914322
    11954.572600       0.916746
    11968.880900       0.919137
    11983.223500       0.921494
    11997.600500       0.923818
    12012.012000       0.926107
    12026.458200       0.928363
    12040.939200       0.930584
    12055.455100       0.932771
    12070.006000       0.934924
    12084.592100       0.937042
    12099.213600       0.939125
    12113.870400       0.941174
    12128.562800       0.943188
    12143.290800       0.945166
    12158.054700       0.947110
    12172.854500       0.949018
    12187.690400       0.950892
    12202.562500       0.952730
    12217.471000       0.954532
    12232.415900       0.956300
    12247.397400       0.958031
    12262.415700       0.959727
    12277.470800       0.961388
    12292.563000       0.963013
    12307.692300       0.964603
    12322.858900       0.966156
    12338.062900       0.967674
    12353.304500       0.969157
    12368.583800       0.970604
    12383.900900       0.972015
    12399.256000       0.973390
    12414.649300       0.974730
    12430.080800       0.976034
    12445.550700       0.977303
    12461.059200       0.978535
    12476.606400       0.979733
    12492.192400       0.980895
    12507.817400       0.982021
    12523.481500       0.983112
    12539.185000       0.984168
    12554.927800       0.985189
    12570.710200       0.986174
    12586.532400       0.987124
    12602.394500       0.988039
    12618.296500       0.988920
    12634.238800       0.989765
    12650.221400       0.990576
    12666.244500       0.991352
    12682.308200       0.992094
    12698.412700       0.992801
    12714.558200       0.993474
    12730.744700       0.994113
    12746.972600       0.994718
    12763.241900       0.995290
    12779.552700       0.995827
    12795.905300       0.996331
    12812.299800       0.996802
    12828.736400       0.997240
    12845.215200       0.997645
    12861.736300       0.998016
    12878.300100       0.998356
    12894.906500       0.998663
    12911.555800       0.998937
    12928.248200       0.999180
    12944.983800       0.999391
    12961.762800       0.999570
    12978.585300       0.999718
    12995.451600       0.999834
    13012.361700       0.999920
    13029.316000       0.999975
    13046.314400       1.000000
    13063.357300       0.999994
    13080.444700       0.999959
    13097.576900       0.999894
    13114.754100       0.999799
    13131.976400       0.999676
    13149.243900       0.999523
    13166.556900       0.999342
    13183.915600       0.999132
    13201.320100       0.998895
    13218.770700       0.998630
    13236.267400       0.998337
    13253.810500       0.998017
    13271.400100       0.997670
    13289.036500       0.997297
    13306.719900       0.996898
    13324.450400       0.996472
    13342.228200       0.996021
    13360.053400       0.995545
    13377.926400       0.995044
    13395.847300       0.994518
    13413.816200       0.993968
    13431.833400       0.993395
    13449.899100       0.992797
    13468.013500       0.992176
    13486.176700       0.991533
    13504.388900       0.990867
    13522.650400       0.990179
    13540.961400       0.989469
    13559.322000       0.988737
    13577.732500       0.987985
    13596.193100       0.987212
    13614.703900       0.986418
    13633.265200       0.985605
    13651.877100       0.984772
    13670.540000       0.983920
    13689.253900       0.983049
    13708.019200       0.982160
    13726.836000       0.981253
    13745.704500       0.980328
    13764.624900       0.979386
    13783.597500       0.978427
    13802.622500       0.977451
    13821.700100       0.976460
    13840.830400       0.975453
    13860.013900       0.974431
    13879.250500       0.973394
    13898.540700       0.972343
    13917.884500       0.971278
    13937.282200       0.970199
    13956.734100       0.969107
    13976.240400       0.968002
    13995.801300       0.966885
    14015.417000       0.965756
    14035.087700       0.964616
    14054.813800       0.963465
    14074.595400       0.962302
    14094.432700       0.961130
    14114.326000       0.959948
    14134.275600       0.958756
    14154.281700       0.957556
    14174.344400       0.956347
    14194.464200       0.955129
    14214.641100       0.953904
    14234.875400       0.952672
    14255.167500       0.951433
    14275.517500       0.950188
    14295.925700       0.948936
    14316.392300       0.947679
    14336.917600       0.946416
    14357.501800       0.945149
    14378.145200       0.943877
    14398.848100       0.942602
    14419.610700       0.941322
    14440.433200       0.940040
    14461.316000       0.938755
    14482.259200       0.937467
    14503.263200       0.936178
    14524.328200       0.934887
    14545.454500       0.933595
    14566.642400       0.932302
    14587.892000       0.931009
    14609.203800       0.929716
    14630.577900       0.928424
    14652.014700       0.927132
    14673.514300       0.925841
    14695.077100       0.924553
    14716.703500       0.923266
    14738.393500       0.921981
    14760.147600       0.920699
    14781.966000       0.919421
    14803.849000       0.918145
    14825.796900       0.916874
    14847.809900       0.915607
    14869.888500       0.914344
    14892.032800       0.913086
    14914.243100       0.911834
    14936.519800       0.910587
    14958.863100       0.909346
    14981.273400       0.908112
    15003.750900       0.906883
    15026.296000       0.905662
    15048.909000       0.904449
    15071.590100       0.903242
    15094.339600       0.902044
    15117.158000       0.900854
    15140.045400       0.899672
    15163.002300       0.898499
    15186.028900       0.897335
    15209.125500       0.896180
    15232.292500       0.895036
    15255.530100       0.893901
    15278.838800       0.892776
    15302.218800       0.891661
    15325.670500       0.890558
    15349.194200       0.889465
    15372.790200       0.888383
    15396.458800       0.887313
    15420.200500       0.886255
    15444.015400       0.885208
    15467.904100       0.884174
    15491.866800       0.883151
    15515.903800       0.882142
    15540.015500       0.881145
    15564.202300       0.880160
    15588.464500       0.879189
    15612.802500       0.878232
    15637.216600       0.877287
    15661.707100       0.876356
    15686.274500       0.875439
    15710.919100       0.874536
    15735.641200       0.873646
    15760.441300       0.872771
    15785.319700       0.871910
    15810.276700       0.871064
    15835.312700       0.870231
    15860.428200       0.869414
    15885.623500       0.868611
    15910.899000       0.867822
    15936.255000       0.867049
    15961.691900       0.866290
    15987.210200       0.865546
    16012.810200       0.864817
    16038.492400       0.864104
    16064.257000       0.863405
    16090.104600       0.862721
    16116.035500       0.862052
    16142.050000       0.861398
    16168.148700       0.860759
    16194.332000       0.860135
    16220.600200       0.859526
    16246.953700       0.858932
    16273.393000       0.858353
    16299.918500       0.857788
    16326.530600       0.857239
    16353.229800       0.856704
    16380.016400       0.856183
    16406.890900       0.855677
    16433.853700       0.855186
    16460.905300       0.854708
    16488.046200       0.854245
    16515.276600       0.853795
    16542.597200       0.853360
    16570.008300       0.852938
    16597.510400       0.852530
    16625.103900       0.852135
    16652.789300       0.851753
    16680.567100       0.851384
    16708.437800       0.851028
    16736.401700       0.850684
    16764.459300       0.850353
    16792.611300       0.850033
    16820.857900       0.849726
    16849.199700       0.849430
    16877.637100       0.849145
    16906.170800       0.848871
    16934.801000       0.848608
    16963.528400       0.848355
    16992.353400       0.848112
    17021.276600       0.847879
    17050.298400       0.847656
    17079.419300       0.847442
    17108.639900       0.847236
    17137.960600       0.847038
    17167.382000       0.846849
    17196.904600       0.846667
    17226.528900       0.846493
    17256.255400       0.846325
    17286.084700       0.846163
