15, GOES 12.3um ABI FM2 SRF CWG processed March 10, 2016
Number of data points:
1370
Wavenumber (cm-1)   Filter response
      756.700000       0.001029
      756.800000       0.001191
      756.900000       0.001354
      757.000000       0.001517
      757.100000       0.001677
      757.200000       0.001954
      757.300000       0.002281
      757.400000       0.002607
      757.500000       0.002934
      757.600000       0.003260
      757.700000       0.003587
      757.800000       0.003913
      757.900000       0.004240
      758.000000       0.004567
      758.100000       0.004864
      758.200000       0.005098
      758.300000       0.005334
      758.400000       0.005570
      758.500000       0.005806
      758.600000       0.006042
      758.700000       0.006277
      758.800000       0.006512
      758.900000       0.006749
      759.000000       0.006946
      759.100000       0.006821
      759.200000       0.006651
      759.300000       0.006484
      759.400000       0.006316
      759.500000       0.006147
      759.600000       0.005979
      759.700000       0.005811
      759.800000       0.005643
      759.900000       0.005474
      760.000000       0.005310
      760.100000       0.005148
      760.200000       0.004987
      760.300000       0.004825
      760.400000       0.004663
      760.500000       0.004501
      760.600000       0.004339
      760.700000       0.004177
      760.800000       0.004014
      760.900000       0.003942
      761.000000       0.004067
      761.100000       0.004195
      761.200000       0.004323
      761.300000       0.004451
      761.400000       0.004579
      761.500000       0.004707
      761.600000       0.004835
      761.700000       0.004964
      761.800000       0.005078
      761.900000       0.005100
      762.000000       0.005102
      762.100000       0.005104
      762.200000       0.005106
      762.300000       0.005109
      762.400000       0.005111
      762.500000       0.005114
      762.600000       0.005116
      762.700000       0.005118
      762.800000       0.005130
      762.900000       0.005148
      763.000000       0.005167
      763.100000       0.005185
      763.200000       0.005203
      763.300000       0.005222
      763.400000       0.005240
      763.500000       0.005258
      763.600000       0.005276
      763.700000       0.005313
      763.800000       0.005400
      763.900000       0.005490
      764.000000       0.005579
      764.100000       0.005668
      764.200000       0.005757
      764.300000       0.005847
      764.400000       0.005937
      764.500000       0.006027
      764.600000       0.006127
      764.700000       0.006381
      764.800000       0.006662
      764.900000       0.006945
      765.000000       0.007227
      765.100000       0.007510
      765.200000       0.007792
      765.300000       0.008075
      765.400000       0.008357
      765.500000       0.008645
      765.600000       0.008791
      765.700000       0.008831
      765.800000       0.008872
      765.900000       0.008914
      766.000000       0.008955
      766.100000       0.008997
      766.200000       0.009039
      766.300000       0.009080
      766.400000       0.009122
      766.500000       0.009218
      766.600000       0.009480
      766.700000       0.009749
      766.800000       0.010018
      766.900000       0.010286
      767.000000       0.010555
      767.100000       0.010824
      767.200000       0.011094
      767.300000       0.011364
      767.400000       0.011648
      767.500000       0.012097
      767.600000       0.012597
      767.700000       0.013097
      767.800000       0.013596
      767.900000       0.014095
      768.000000       0.014596
      768.100000       0.015098
      768.200000       0.015603
      768.300000       0.016104
      768.400000       0.016775
      768.500000       0.017601
      768.600000       0.018430
      768.700000       0.019258
      768.800000       0.020086
      768.900000       0.020913
      769.000000       0.021738
      769.100000       0.022561
      769.200000       0.023331
      769.300000       0.024067
      769.400000       0.024702
      769.500000       0.025321
      769.600000       0.025935
      769.700000       0.026552
      769.800000       0.027168
      769.900000       0.027783
      770.000000       0.028396
      770.100000       0.029009
      770.200000       0.029621
      770.300000       0.030244
      770.400000       0.030994
      770.500000       0.031803
      770.600000       0.032610
      770.700000       0.033420
      770.800000       0.034231
      770.900000       0.035039
      771.000000       0.035848
      771.100000       0.036664
      771.200000       0.037484
      771.300000       0.038309
      771.400000       0.039267
      771.500000       0.040349
      771.600000       0.041423
      771.700000       0.042501
      771.800000       0.043581
      771.900000       0.044662
      772.000000       0.045737
      772.100000       0.046771
      772.200000       0.047799
      772.300000       0.048823
      772.400000       0.049883
      772.500000       0.051166
      772.600000       0.052454
      772.700000       0.053742
      772.800000       0.055029
      772.900000       0.056315
      773.000000       0.057602
      773.100000       0.058887
      773.200000       0.060166
      773.300000       0.061449
      773.400000       0.062729
      773.500000       0.064101
      773.600000       0.065617
      773.700000       0.067141
      773.800000       0.068658
      773.900000       0.070180
      774.000000       0.071700
      774.100000       0.073221
      774.200000       0.074740
      774.300000       0.076259
      774.400000       0.077773
      774.500000       0.079286
      774.600000       0.081102
      774.700000       0.083132
      774.800000       0.085156
      774.900000       0.087181
      775.000000       0.089212
      775.100000       0.091245
      775.200000       0.093268
      775.300000       0.095305
      775.400000       0.097343
      775.500000       0.099383
      775.600000       0.101442
      775.700000       0.104029
      775.800000       0.106776
      775.900000       0.109522
      776.000000       0.112259
      776.100000       0.115016
      776.200000       0.117778
      776.300000       0.120545
      776.400000       0.123315
      776.500000       0.126082
      776.600000       0.128851
      776.700000       0.131691
      776.800000       0.134974
      776.900000       0.138306
      777.000000       0.141648
      777.100000       0.144990
      777.200000       0.148327
      777.300000       0.151656
      777.400000       0.154979
      777.500000       0.158334
      777.600000       0.161663
      777.700000       0.164982
      777.800000       0.168545
      777.900000       0.172645
      778.000000       0.176751
      778.100000       0.180832
      778.200000       0.184934
      778.300000       0.189032
      778.400000       0.193126
      778.500000       0.197216
      778.600000       0.201300
      778.700000       0.205377
      778.800000       0.209451
      778.900000       0.213915
      779.000000       0.218728
      779.100000       0.223500
      779.200000       0.228288
      779.300000       0.233067
      779.400000       0.237848
      779.500000       0.242597
      779.600000       0.247372
      779.700000       0.252143
      779.800000       0.256887
      779.900000       0.261696
      780.000000       0.267068
      780.100000       0.272666
      780.200000       0.278237
      780.300000       0.283738
      780.400000       0.289146
      780.500000       0.294557
      780.600000       0.299928
      780.700000       0.305337
      780.800000       0.310710
      780.900000       0.316115
      781.000000       0.321545
      781.100000       0.327442
      781.200000       0.333577
      781.300000       0.339707
      781.400000       0.345803
      781.500000       0.351953
      781.600000       0.358108
      781.700000       0.364274
      781.800000       0.370443
      781.900000       0.376615
      782.000000       0.382743
      782.100000       0.388908
      782.200000       0.395461
      782.300000       0.402203
      782.400000       0.408955
      782.500000       0.415707
      782.600000       0.422464
      782.700000       0.429184
      782.800000       0.435956
      782.900000       0.442739
      783.000000       0.449527
      783.100000       0.456319
      783.200000       0.463125
      783.300000       0.470006
      783.400000       0.476855
      783.500000       0.483593
      783.600000       0.490311
      783.700000       0.497003
      783.800000       0.503719
      783.900000       0.510443
      784.000000       0.517158
      784.100000       0.523830
      784.200000       0.530488
      784.300000       0.537137
      784.400000       0.543749
      784.500000       0.550226
      784.600000       0.556721
      784.700000       0.563206
      784.800000       0.569678
      784.900000       0.576141
      785.000000       0.582599
      785.100000       0.589041
      785.200000       0.595484
      785.300000       0.601925
      785.400000       0.608339
      785.500000       0.614701
      785.600000       0.621038
      785.700000       0.627255
      785.800000       0.633390
      785.900000       0.639627
      786.000000       0.645863
      786.100000       0.652096
      786.200000       0.658291
      786.300000       0.664494
      786.400000       0.670715
      786.500000       0.676942
      786.600000       0.683172
      786.700000       0.689335
      786.800000       0.695219
      786.900000       0.701088
      787.000000       0.706929
      787.100000       0.712767
      787.200000       0.718508
      787.300000       0.724026
      787.400000       0.729613
      787.500000       0.735181
      787.600000       0.740723
      787.700000       0.746240
      787.800000       0.751740
      787.900000       0.757009
      788.000000       0.761883
      788.100000       0.766638
      788.200000       0.771405
      788.300000       0.776231
      788.400000       0.781072
      788.500000       0.785932
      788.600000       0.790787
      788.700000       0.795629
      788.800000       0.800449
      788.900000       0.805392
      789.000000       0.810372
      789.100000       0.815205
      789.200000       0.819330
      789.300000       0.823599
      789.400000       0.827726
      789.500000       0.832074
      789.600000       0.836434
      789.700000       0.840810
      789.800000       0.845196
      789.900000       0.849590
      790.000000       0.854016
      790.100000       0.858254
      790.200000       0.862710
      790.300000       0.866636
      790.400000       0.869981
      790.500000       0.873196
      790.600000       0.876366
      790.700000       0.879522
      790.800000       0.882472
      790.900000       0.885602
      791.000000       0.888701
      791.100000       0.891776
      791.200000       0.894816
      791.300000       0.897826
      791.400000       0.900819
      791.500000       0.903457
      791.600000       0.905449
      791.700000       0.907405
      791.800000       0.909358
      791.900000       0.911181
      792.000000       0.913099
      792.100000       0.914993
      792.200000       0.916870
      792.300000       0.918734
      792.400000       0.920588
      792.500000       0.922353
      792.600000       0.924157
      792.700000       0.925718
      792.800000       0.926929
      792.900000       0.927988
      793.000000       0.929153
      793.100000       0.930187
      793.200000       0.931330
      793.300000       0.932465
      793.400000       0.933606
      793.500000       0.934765
      793.600000       0.935947
      793.700000       0.937079
      793.800000       0.938303
      793.900000       0.939437
      794.000000       0.940327
      794.100000       0.941229
      794.200000       0.942140
      794.300000       0.943054
      794.400000       0.943892
      794.500000       0.944713
      794.600000       0.945661
      794.700000       0.946604
      794.800000       0.947534
      794.900000       0.948159
      795.000000       0.948541
      795.100000       0.948720
      795.200000       0.948513
      795.300000       0.948305
      795.400000       0.948134
      795.500000       0.947956
      795.600000       0.947773
      795.700000       0.947587
      795.800000       0.947398
      795.900000       0.947208
      796.000000       0.947031
      796.100000       0.946782
      796.200000       0.946607
      796.300000       0.946259
      796.400000       0.945616
      796.500000       0.944959
      796.600000       0.944366
      796.700000       0.943786
      796.800000       0.943220
      796.900000       0.942671
      797.000000       0.942137
      797.100000       0.941569
      797.200000       0.940900
      797.300000       0.940389
      797.400000       0.939868
      797.500000       0.939227
      797.600000       0.938389
      797.700000       0.937536
      797.800000       0.936626
      797.900000       0.935711
      798.000000       0.934829
      798.100000       0.933936
      798.200000       0.933046
      798.300000       0.932125
      798.400000       0.931181
      798.500000       0.930312
      798.600000       0.929456
      798.700000       0.928646
      798.800000       0.927901
      798.900000       0.927204
      799.000000       0.926545
      799.100000       0.925920
      799.200000       0.925321
      799.300000       0.924740
      799.400000       0.924104
      799.500000       0.923506
      799.600000       0.922948
      799.700000       0.922394
      799.800000       0.921838
      799.900000       0.921224
      800.000000       0.920523
      800.100000       0.919809
      800.200000       0.919085
      800.300000       0.918346
      800.400000       0.917599
      800.500000       0.916767
      800.600000       0.915861
      800.700000       0.915046
      800.800000       0.914504
      800.900000       0.914141
      801.000000       0.913795
      801.100000       0.913437
      801.200000       0.913045
      801.300000       0.912656
      801.400000       0.912273
      801.500000       0.911894
      801.600000       0.911519
      801.700000       0.911042
      801.800000       0.910668
      801.900000       0.910278
      802.000000       0.909879
      802.100000       0.909465
      802.200000       0.909039
      802.300000       0.908612
      802.400000       0.908084
      802.500000       0.907656
      802.600000       0.907174
      802.700000       0.906680
      802.800000       0.906225
      802.900000       0.905767
      803.000000       0.905311
      803.100000       0.904741
      803.200000       0.904280
      803.300000       0.903815
      803.400000       0.903351
      803.500000       0.903009
      803.600000       0.902904
      803.700000       0.902822
      803.800000       0.902739
      803.900000       0.902574
      804.000000       0.902402
      804.100000       0.902332
      804.200000       0.902268
      804.300000       0.902216
      804.400000       0.902179
      804.500000       0.902162
      804.600000       0.902171
      804.700000       0.902205
      804.800000       0.902187
      804.900000       0.902300
      805.000000       0.902430
      805.100000       0.902566
      805.200000       0.902653
      805.300000       0.902846
      805.400000       0.903046
      805.500000       0.903239
      805.600000       0.903418
      805.700000       0.903568
      805.800000       0.903682
      805.900000       0.903699
      806.000000       0.903895
      806.100000       0.903992
      806.200000       0.904175
      806.300000       0.904333
      806.400000       0.904472
      806.500000       0.904597
      806.600000       0.904725
      806.700000       0.904856
      806.800000       0.905107
      806.900000       0.905431
      807.000000       0.905810
      807.100000       0.906166
      807.200000       0.906471
      807.300000       0.906757
      807.400000       0.907026
      807.500000       0.907279
      807.600000       0.907536
      807.700000       0.907545
      807.800000       0.907752
      807.900000       0.907896
      808.000000       0.907986
      808.100000       0.908036
      808.200000       0.908058
      808.300000       0.908147
      808.400000       0.908515
      808.500000       0.908820
      808.600000       0.909231
      808.700000       0.909633
      808.800000       0.910041
      808.900000       0.910460
      809.000000       0.910894
      809.100000       0.911368
      809.200000       0.911896
      809.300000       0.912437
      809.400000       0.912906
      809.500000       0.913582
      809.600000       0.914368
      809.700000       0.915189
      809.800000       0.916042
      809.900000       0.916966
      810.000000       0.917950
      810.100000       0.918977
      810.200000       0.920027
      810.300000       0.921088
      810.400000       0.922141
      810.500000       0.923217
      810.600000       0.924332
      810.700000       0.925363
      810.800000       0.926722
      810.900000       0.928076
      811.000000       0.929385
      811.100000       0.930644
      811.200000       0.931855
      811.300000       0.932987
      811.400000       0.934037
      811.500000       0.935057
      811.600000       0.936041
      811.700000       0.936941
      811.800000       0.937744
      811.900000       0.938540
      812.000000       0.939237
      812.100000       0.939994
      812.200000       0.940750
      812.300000       0.941515
      812.400000       0.942293
      812.500000       0.943072
      812.600000       0.943856
      812.700000       0.944653
      812.800000       0.945466
      812.900000       0.946331
      813.000000       0.947149
      813.100000       0.948051
      813.200000       0.948883
      813.300000       0.949690
      813.400000       0.950511
      813.500000       0.951352
      813.600000       0.952196
      813.700000       0.953037
      813.800000       0.953872
      813.900000       0.954711
      814.000000       0.955440
      814.100000       0.956272
      814.200000       0.957112
      814.300000       0.957754
      814.400000       0.958613
      814.500000       0.959459
      814.600000       0.960319
      814.700000       0.961188
      814.800000       0.962065
      814.900000       0.962948
      815.000000       0.963831
      815.100000       0.964719
      815.200000       0.965611
      815.300000       0.966444
      815.400000       0.967289
      815.500000       0.968187
      815.600000       0.969200
      815.700000       0.970291
      815.800000       0.971367
      815.900000       0.972440
      816.000000       0.973519
      816.100000       0.974555
      816.200000       0.975617
      816.300000       0.976730
      816.400000       0.977859
      816.500000       0.978896
      816.600000       0.980026
      816.700000       0.981143
      816.800000       0.982209
      816.900000       0.983237
      817.000000       0.984243
      817.100000       0.985226
      817.200000       0.986186
      817.300000       0.987125
      817.400000       0.988045
      817.500000       0.988953
      817.600000       0.989856
      817.700000       0.990763
      817.800000       0.991708
      817.900000       0.992640
      818.000000       0.993438
      818.100000       0.994012
      818.200000       0.994717
      818.300000       0.995537
      818.400000       0.996208
      818.500000       0.996845
      818.600000       0.997460
      818.700000       0.998061
