08 , goes_08_sounder_08.flt
Number of data points:
998
Wavenumber (cm-1)   Filter response
      858.600000       0.000349
      858.700000       0.000353
      858.800000       0.000356
      858.900000       0.000359
      859.000000       0.000361
      859.100000       0.000364
      859.200000       0.000366
      859.300000       0.000369
      859.400000       0.000371
      859.500000       0.000374
      859.600000       0.000377
      859.700000       0.000381
      859.800000       0.000385
      859.900000       0.000389
      860.000000       0.000393
      860.100000       0.000399
      860.200000       0.000404
      860.300000       0.000411
      860.400000       0.000418
      860.500000       0.000425
      860.600000       0.000433
      860.700000       0.000442
      860.800000       0.000451
      860.900000       0.000459
      861.000000       0.000468
      861.100000       0.000477
      861.200000       0.000486
      861.300000       0.000494
      861.400000       0.000502
      861.500000       0.000510
      861.600000       0.000517
      861.700000       0.000524
      861.800000       0.000531
      861.900000       0.000537
      862.000000       0.000542
      862.100000       0.000548
      862.200000       0.000552
      862.300000       0.000556
      862.400000       0.000560
      862.500000       0.000564
      862.600000       0.000568
      862.700000       0.000573
      862.800000       0.000579
      862.900000       0.000586
      863.000000       0.000594
      863.100000       0.000604
      863.200000       0.000616
      863.300000       0.000631
      863.400000       0.000646
      863.500000       0.000663
      863.600000       0.000680
      863.700000       0.000699
      863.800000       0.000717
      863.900000       0.000735
      864.000000       0.000752
      864.100000       0.000769
      864.200000       0.000784
      864.300000       0.000798
      864.400000       0.000812
      864.500000       0.000825
      864.600000       0.000837
      864.700000       0.000850
      864.800000       0.000862
      864.900000       0.000875
      865.000000       0.000889
      865.100000       0.000903
      865.200000       0.000918
      865.300000       0.000934
      865.400000       0.000951
      865.500000       0.000968
      865.600000       0.000986
      865.700000       0.001005
      865.800000       0.001024
      865.900000       0.001044
      866.000000       0.001065
      866.100000       0.001086
      866.200000       0.001107
      866.300000       0.001128
      866.400000       0.001149
      866.500000       0.001170
      866.600000       0.001189
      866.700000       0.001208
      866.800000       0.001225
      866.900000       0.001240
      867.000000       0.001253
      867.100000       0.001265
      867.200000       0.001275
      867.300000       0.001283
      867.400000       0.001290
      867.500000       0.001295
      867.600000       0.001298
      867.700000       0.001300
      867.800000       0.001300
      867.900000       0.001299
      868.000000       0.001296
      868.100000       0.001292
      868.200000       0.001287
      868.300000       0.001284
      868.400000       0.001283
      868.500000       0.001285
      868.600000       0.001293
      868.700000       0.001307
      868.800000       0.001329
      868.900000       0.001360
      869.000000       0.001402
      869.100000       0.001458
      869.200000       0.001528
      869.300000       0.001616
      869.400000       0.001722
      869.500000       0.001850
      869.600000       0.002002
      869.700000       0.002178
      869.800000       0.002377
      869.900000       0.002599
      870.000000       0.002838
      870.100000       0.003094
      870.200000       0.003365
      870.300000       0.003647
      870.400000       0.003941
      870.500000       0.004244
      870.600000       0.004548
      870.700000       0.004854
      870.800000       0.005160
      870.900000       0.005464
      871.000000       0.005763
      871.100000       0.006058
      871.200000       0.006343
      871.300000       0.006617
      871.400000       0.006879
      871.500000       0.007128
      871.600000       0.007367
      871.700000       0.007606
      871.800000       0.007849
      871.900000       0.008109
      872.000000       0.008393
      872.100000       0.008711
      872.200000       0.009077
      872.300000       0.009493
      872.400000       0.009973
      872.500000       0.010529
      872.600000       0.011171
      872.700000       0.011917
      872.800000       0.012784
      872.900000       0.013774
      873.000000       0.014887
      873.100000       0.016100
      873.200000       0.017390
      873.300000       0.018738
      873.400000       0.020128
      873.500000       0.021511
      873.600000       0.022870
      873.700000       0.024172
      873.800000       0.025383
      873.900000       0.026494
      874.000000       0.027567
      874.100000       0.028653
      874.200000       0.029832
      874.300000       0.031174
      874.400000       0.032753
      874.500000       0.034657
      874.600000       0.036991
      874.700000       0.039796
      874.800000       0.043044
      874.900000       0.046568
      875.000000       0.050215
      875.100000       0.053833
      875.200000       0.057213
      875.300000       0.060356
      875.400000       0.063323
      875.500000       0.066165
      875.600000       0.068947
      875.700000       0.071737
      875.800000       0.074547
      875.900000       0.077469
      876.000000       0.080547
      876.100000       0.083843
      876.200000       0.087428
      876.300000       0.091346
      876.400000       0.095554
      876.500000       0.100088
      876.600000       0.104958
      876.700000       0.110178
      876.800000       0.115779
      876.900000       0.121811
      877.000000       0.128187
      877.100000       0.134957
      877.200000       0.142050
      877.300000       0.149385
      877.400000       0.156918
      877.500000       0.164595
      877.600000       0.172259
      877.700000       0.179918
      877.800000       0.187471
      877.900000       0.194868
      878.000000       0.202046
      878.100000       0.208990
      878.200000       0.215946
      878.300000       0.223094
      878.400000       0.230615
      878.500000       0.238753
      878.600000       0.247645
      878.700000       0.256823
      878.800000       0.265734
      878.900000       0.273842
      879.000000       0.281290
      879.100000       0.289031
      879.200000       0.298041
      879.300000       0.308885
      879.400000       0.321318
      879.500000       0.334495
      879.600000       0.347593
      879.700000       0.360158
      879.800000       0.372225
      879.900000       0.383741
      880.000000       0.394878
      880.100000       0.405592
      880.200000       0.415862
      880.300000       0.425680
      880.400000       0.435059
      880.500000       0.443945
      880.600000       0.452508
      880.700000       0.460829
      880.800000       0.468964
      880.900000       0.477020
      881.000000       0.485059
      881.100000       0.493065
      881.200000       0.501181
      881.300000       0.509450
      881.400000       0.517946
      881.500000       0.526730
      881.600000       0.535697
      881.700000       0.544608
      881.800000       0.553403
      881.900000       0.561973
      882.000000       0.570186
      882.100000       0.577975
      882.200000       0.585308
      882.300000       0.592164
      882.400000       0.598680
      882.500000       0.604892
      882.600000       0.610865
      882.700000       0.616666
      882.800000       0.622304
      882.900000       0.627766
      883.000000       0.633098
      883.100000       0.638283
      883.200000       0.643332
      883.300000       0.648230
      883.400000       0.652933
      883.500000       0.657455
      883.600000       0.661805
      883.700000       0.666001
      883.800000       0.670078
      883.900000       0.674062
      884.000000       0.677943
      884.100000       0.681765
      884.200000       0.685543
      884.300000       0.689286
      884.400000       0.693021
      884.500000       0.696746
      884.600000       0.700423
      884.700000       0.704059
      884.800000       0.707637
      884.900000       0.711140
      885.000000       0.714558
      885.100000       0.717879
      885.200000       0.721065
      885.300000       0.724109
      885.400000       0.727011
      885.500000       0.729790
      885.600000       0.732478
      885.700000       0.735103
      885.800000       0.737681
      885.900000       0.740254
      886.000000       0.742846
      886.100000       0.745493
      886.200000       0.748227
      886.300000       0.751038
      886.400000       0.753909
      886.500000       0.756809
      886.600000       0.759711
      886.700000       0.762592
      886.800000       0.765418
      886.900000       0.768162
      887.000000       0.770793
      887.100000       0.773283
      887.200000       0.775625
      887.300000       0.777843
      887.400000       0.779960
      887.500000       0.781993
      887.600000       0.783970
      887.700000       0.785907
      887.800000       0.787819
      887.900000       0.789726
      888.000000       0.791640
      888.100000       0.793566
      888.200000       0.795504
      888.300000       0.797448
      888.400000       0.799394
      888.500000       0.801336
      888.600000       0.803272
      888.700000       0.805194
      888.800000       0.807104
      888.900000       0.809001
      889.000000       0.810882
      889.100000       0.812744
      889.200000       0.814581
      889.300000       0.816391
      889.400000       0.818170
      889.500000       0.819913
      889.600000       0.821616
      889.700000       0.823274
      889.800000       0.824884
      889.900000       0.826448
      890.000000       0.827976
      890.100000       0.829487
      890.200000       0.830979
      890.300000       0.832459
      890.400000       0.833936
      890.500000       0.835415
      890.600000       0.836908
      890.700000       0.838424
      890.800000       0.839962
      890.900000       0.841517
      891.000000       0.843078
      891.100000       0.844636
      891.200000       0.846183
      891.300000       0.847708
      891.400000       0.849204
      891.500000       0.850659
      891.600000       0.852066
      891.700000       0.853422
      891.800000       0.854730
      891.900000       0.855994
      892.000000       0.857217
      892.100000       0.858409
      892.200000       0.859570
      892.300000       0.860703
      892.400000       0.861814
      892.500000       0.862904
      892.600000       0.863977
      892.700000       0.865038
      892.800000       0.866086
      892.900000       0.867127
      893.000000       0.868162
      893.100000       0.869193
      893.200000       0.870226
      893.300000       0.871263
      893.400000       0.872305
      893.500000       0.873357
      893.600000       0.874422
      893.700000       0.875503
      893.800000       0.876606
      893.900000       0.877731
      894.000000       0.878884
      894.100000       0.880071
      894.200000       0.881297
      894.300000       0.882567
      894.400000       0.883881
      894.500000       0.885237
      894.600000       0.886631
      894.700000       0.888057
      894.800000       0.889517
      894.900000       0.891004
      895.000000       0.892511
      895.100000       0.894033
      895.200000       0.895557
      895.300000       0.897073
      895.400000       0.898583
      895.500000       0.900076
      895.600000       0.901546
      895.700000       0.902992
      895.800000       0.904409
      895.900000       0.905791
      896.000000       0.907137
      896.100000       0.908438
      896.200000       0.909689
      896.300000       0.910894
      896.400000       0.912055
      896.500000       0.913177
      896.600000       0.914270
      896.700000       0.915342
      896.800000       0.916398
      896.900000       0.917453
      897.000000       0.918513
      897.100000       0.919583
      897.200000       0.920653
      897.300000       0.921709
      897.400000       0.922744
      897.500000       0.923745
      897.600000       0.924704
      897.700000       0.925610
      897.800000       0.926449
      897.900000       0.927208
      898.000000       0.927886
      898.100000       0.928500
      898.200000       0.929069
      898.300000       0.929612
      898.400000       0.930144
      898.500000       0.930682
      898.600000       0.931244
      898.700000       0.931849
      898.800000       0.932516
      898.900000       0.933255
      899.000000       0.934056
      899.100000       0.934912
      899.200000       0.935817
      899.300000       0.936764
      899.400000       0.937747
      899.500000       0.938766
      899.600000       0.939796
      899.700000       0.940829
      899.800000       0.941858
      899.900000       0.942887
      900.000000       0.943959
      900.100000       0.945097
      900.200000       0.946167
      900.300000       0.947158
      900.400000       0.948056
      900.500000       0.948852
      900.600000       0.949547
      900.700000       0.950144
      900.800000       0.950659
      900.900000       0.951112
      901.000000       0.951519
      901.100000       0.951894
      901.200000       0.952257
      901.300000       0.952623
      901.400000       0.953009
      901.500000       0.953435
      901.600000       0.953905
      901.700000       0.954416
      901.800000       0.954956
      901.900000       0.955521
      902.000000       0.956102
      902.100000       0.956692
      902.200000       0.957286
      902.300000       0.957876
      902.400000       0.958454
      902.500000       0.959018
      902.600000       0.959575
      902.700000       0.960124
      902.800000       0.960665
      902.900000       0.961192
      903.000000       0.961700
      903.100000       0.962183
      903.200000       0.962632
      903.300000       0.963044
      903.400000       0.963412
      903.500000       0.963736
      903.600000       0.964013
      903.700000       0.964244
      903.800000       0.964425
      903.900000       0.964554
      904.000000       0.964630
      904.100000       0.964650
      904.200000       0.964607
      904.300000       0.964502
      904.400000       0.964328
      904.500000       0.964077
      904.600000       0.963753
      904.700000       0.963361
      904.800000       0.962901
      904.900000       0.962390
      905.000000       0.961834
      905.100000       0.961234
      905.200000       0.960600
      905.300000       0.959928
      905.400000       0.959235
      905.500000       0.958529
      905.600000       0.957811
      905.700000       0.957087
      905.800000       0.956368
      905.900000       0.955644
      906.000000       0.954944
      906.100000       0.954263
      906.200000       0.953597
      906.300000       0.952942
      906.400000       0.952296
      906.500000       0.951644
      906.600000       0.950998
      906.700000       0.950353
      906.800000       0.949701
      906.900000       0.949038
      907.000000       0.948371
      907.100000       0.947700
      907.200000       0.947056
      907.300000       0.946453
      907.400000       0.945900
      907.500000       0.945416
      907.600000       0.945013
      907.700000       0.944693
      907.800000       0.944471
      907.900000       0.944345
      908.000000       0.944302
      908.100000       0.944334
      908.200000       0.944427
      908.300000       0.944574
      908.400000       0.944766
      908.500000       0.944991
      908.600000       0.945241
      908.700000       0.945504
      908.800000       0.945778
      908.900000       0.946065
      909.000000       0.946373
      909.100000       0.946707
      909.200000       0.947070
      909.300000       0.947471
      909.400000       0.947914
      909.500000       0.948405
      909.600000       0.948949
      909.700000       0.949549
      909.800000       0.950199
      909.900000       0.950890
      910.000000       0.951621
      910.100000       0.952377
      910.200000       0.953156
      910.300000       0.953950
      910.400000       0.954752
      910.500000       0.955558
      910.600000       0.956366
      910.700000       0.957176
      910.800000       0.957989
      910.900000       0.958814
      911.000000       0.959653
      911.100000       0.960516
      911.200000       0.961395
      911.300000       0.962298
      911.400000       0.963230
      911.500000       0.964193
      911.600000       0.965181
      911.700000       0.966201
      911.800000       0.967233
      911.900000       0.968281
      912.000000       0.969341
      912.100000       0.970409
      912.200000       0.971482
      912.300000       0.972561
      912.400000       0.973633
      912.500000       0.974699
      912.600000       0.975758
      912.700000       0.976806
      912.800000       0.977842
      912.900000       0.978865
      913.000000       0.979865
      913.100000       0.980843
      913.200000       0.981795
      913.300000       0.982718
      913.400000       0.983615
      913.500000       0.984487
      913.600000       0.985334
      913.700000       0.986156
      913.800000       0.986959
      913.900000       0.987739
      914.000000       0.988501
      914.100000       0.989244
      914.200000       0.989969
      914.300000       0.990678
      914.400000       0.991374
      914.500000       0.992058
      914.600000       0.992730
      914.700000       0.993394
      914.800000       0.994050
      914.900000       0.994700
      915.000000       0.995347
      915.100000       0.995986
      915.200000       0.996610
      915.300000       0.997210
      915.400000       0.997779
      915.500000       0.998305
      915.600000       0.998778
      915.700000       0.999188
      915.800000       0.999521
      915.900000       0.999772
      916.000000       0.999932
      916.100000       1.000000
      916.200000       0.999973
      916.300000       0.999850
      916.400000       0.999620
      916.500000       0.999297
      916.600000       0.998885
      916.700000       0.998398
      916.800000       0.997851
      916.900000       0.997231
      917.000000       0.996569
      917.100000       0.995850
      917.200000       0.995070
      917.300000       0.994233
      917.400000       0.993329
      917.500000       0.992342
      917.600000       0.991306
      917.700000       0.990196
      917.800000       0.989020
      917.900000       0.987780
      918.000000       0.986499
      918.100000       0.985155
      918.200000       0.983804
      918.300000       0.982439
      918.400000       0.981065
      918.500000       0.979696
      918.600000       0.978341
      918.700000       0.976980
      918.800000       0.975657
      918.900000       0.974338
      919.000000       0.973028
      919.100000       0.971716
      919.200000       0.970378
      919.300000       0.969054
      919.400000       0.967715
      919.500000       0.966363
      919.600000       0.964993
      919.700000       0.963616
      919.800000       0.962223
      919.900000       0.960863
      920.000000       0.959532
      920.100000       0.958232
      920.200000       0.956978
      920.300000       0.955778
      920.400000       0.954626
      920.500000       0.953563
      920.600000       0.952570
      920.700000       0.951642
