97,   97, MVIRI VIS channel from srf_MET7_2009258_2009259_1801-Release_S10EE_10.dat
Number of data points:
793
Wavenumber (cm-1)   Filter response
     8442.380800       0.000000
     8449.514200       0.000000
     8456.659600       0.000004
     8463.817200       0.000056
     8470.986900       0.000166
     8478.168700       0.000331
     8485.362700       0.000552
     8492.569000       0.000825
     8499.787500       0.001149
     8507.018300       0.001523
     8514.261400       0.001946
     8521.516800       0.002416
     8528.784600       0.002931
     8536.064900       0.003491
     8543.357500       0.004094
     8550.662700       0.004738
     8557.980300       0.005424
     8565.310500       0.006149
     8572.653200       0.006913
     8580.008600       0.007715
     8587.376600       0.008553
     8594.757200       0.009427
     8602.150500       0.010336
     8609.556600       0.011279
     8616.975400       0.012254
     8624.407100       0.013262
     8631.851500       0.014302
     8639.308900       0.015373
     8646.779100       0.016473
     8654.262200       0.017603
     8661.758300       0.018762
     8669.267400       0.019949
     8676.789600       0.021164
     8684.324800       0.022406
     8691.873100       0.023675
     8699.434500       0.024970
     8707.009100       0.026290
     8714.596900       0.027636
     8722.198000       0.029007
     8729.812300       0.030402
     8737.439900       0.031821
     8745.080900       0.033264
     8752.735200       0.034730
     8760.403000       0.036220
     8768.084200       0.037732
     8775.778900       0.039267
     8783.487000       0.040824
     8791.208800       0.042404
     8798.944100       0.044005
     8806.693100       0.045629
     8814.455700       0.047273
     8822.232000       0.048940
     8830.022100       0.050627
     8837.825900       0.052336
     8845.643500       0.054066
     8853.475000       0.055817
     8861.320300       0.057589
     8869.179600       0.059381
     8877.052800       0.061195
     8884.940000       0.063029
     8892.841300       0.064884
     8900.756600       0.066759
     8908.686000       0.068656
     8916.629500       0.070572
     8924.587200       0.072510
     8932.559200       0.074468
     8940.545400       0.076447
     8948.545900       0.078447
     8956.560700       0.080467
     8964.589900       0.082508
     8972.633500       0.084569
     8980.691500       0.086652
     8988.764000       0.088756
     8996.851100       0.090880
     9004.952700       0.093026
     9013.068900       0.095192
     9021.199800       0.097380
     9029.345400       0.099590
     9037.505600       0.101820
     9045.680700       0.104072
     9053.870500       0.106345
     9062.075200       0.108640
     9070.294800       0.110957
     9078.529300       0.113295
     9086.778700       0.115656
     9095.043200       0.118038
     9103.322700       0.120442
     9111.617300       0.122868
     9119.927000       0.125317
     9128.251900       0.127788
     9136.592100       0.130281
     9144.947400       0.132796
     9153.318100       0.135335
     9161.704100       0.137895
     9170.105500       0.140479
     9178.522300       0.143086
     9186.954500       0.145715
     9195.402300       0.148367
     9203.865600       0.151042
     9212.344500       0.153740
     9220.839100       0.156462
     9229.349300       0.159206
     9237.875300       0.161975
     9246.417000       0.164766
     9254.974500       0.167581
     9263.547900       0.170419
     9272.137200       0.173281
     9280.742500       0.176166
     9289.363700       0.179075
     9298.000900       0.182007
     9306.654300       0.184964
     9315.323700       0.187943
     9324.009300       0.190947
     9332.711200       0.193974
     9341.429200       0.197025
     9350.163600       0.200100
     9358.914400       0.203198
     9367.681500       0.206320
     9376.465100       0.209466
     9385.265100       0.212636
     9394.081700       0.215829
     9402.914900       0.219046
     9411.764700       0.222286
     9420.631200       0.225550
     9429.514400       0.228838
     9438.414300       0.232149
     9447.331100       0.235483
     9456.264800       0.238841
     9465.215300       0.242222
     9474.182900       0.245626
     9483.167400       0.249053
     9492.169000       0.252503
     9501.187600       0.255976
     9510.223500       0.259472
     9519.276500       0.262991
     9528.346800       0.266532
     9537.434400       0.270096
     9546.539400       0.273682
     9555.661700       0.277290
     9564.801500       0.280921
     9573.958800       0.284573
     9583.133700       0.288247
     9592.326100       0.291943
     9601.536200       0.295660
     9610.764100       0.299398
     9620.009600       0.303157
     9629.273000       0.306938
     9638.554200       0.310739
     9647.853400       0.314560
     9657.170400       0.318402
     9666.505600       0.322264
     9675.858700       0.326146
     9685.230000       0.330047
     9694.619500       0.333968
     9704.027200       0.337908
     9713.453100       0.341867
     9722.897400       0.345845
     9732.360100       0.349840
     9741.841200       0.353855
     9751.340800       0.357887
     9760.859000       0.361937
     9770.395700       0.366004
     9779.951100       0.370088
     9789.525200       0.374189
     9799.118100       0.378306
     9808.729800       0.382440
     9818.360300       0.386589
     9828.009800       0.390754
     9837.678300       0.394934
     9847.365800       0.399129
     9857.072400       0.403339
     9866.798200       0.407563
     9876.543200       0.411800
     9886.307500       0.416052
     9896.091000       0.420317
     9905.894000       0.424594
     9915.716400       0.428884
     9925.558300       0.433186
     9935.419800       0.437500
     9945.300800       0.441825
     9955.201600       0.446161
     9965.122100       0.450508
     9975.062300       0.454865
     9985.022500       0.459232
     9995.002500       0.463609
    10005.002500       0.467994
    10015.022500       0.472388
    10025.062700       0.476791
    10035.122900       0.481201
    10045.203400       0.485618
    10055.304200       0.490043
    10065.425300       0.494474
    10075.566800       0.498912
    10085.728700       0.503355
    10095.911200       0.507804
    10106.114200       0.512257
    10116.337900       0.516715
    10126.582300       0.521176
    10136.847400       0.525642
    10147.133400       0.530110
    10157.440300       0.534581
    10167.768200       0.539055
    10178.117000       0.543530
    10188.487000       0.548006
    10198.878100       0.552484
    10209.290500       0.556961
    10219.724100       0.561439
    10230.179000       0.565916
    10240.655400       0.570393
    10251.153300       0.574867
    10261.672700       0.579340
    10272.213700       0.583810
    10282.776300       0.588278
    10293.360800       0.592742
    10303.967000       0.597203
    10314.595200       0.601659
    10325.245200       0.606111
    10335.917300       0.610557
    10346.611500       0.614998
    10357.327800       0.619432
    10368.066400       0.623860
    10378.827200       0.628281
    10389.610400       0.632695
    10400.416000       0.637100
    10411.244100       0.641496
    10422.094800       0.645884
    10432.968200       0.650262
    10443.864200       0.654631
    10454.783100       0.658989
    10465.724800       0.663336
    10476.689400       0.667672
    10487.677000       0.671996
    10498.687700       0.676308
    10509.721500       0.680607
    10520.778500       0.684892
    10531.858900       0.689164
    10542.962600       0.693423
    10554.089700       0.697666
    10565.240400       0.701894
    10576.414600       0.706107
    10587.612500       0.710304
    10598.834100       0.714485
    10610.079600       0.718648
    10621.348900       0.722794
    10632.642200       0.726923
    10643.959600       0.731033
    10655.301000       0.735125
    10666.666700       0.739197
    10678.056600       0.743250
    10689.470900       0.747283
    10700.909600       0.751296
    10712.372800       0.755288
    10723.860600       0.759258
    10735.373100       0.763207
    10746.910300       0.767134
    10758.472300       0.771038
    10770.059200       0.774920
    10781.671200       0.778778
    10793.308100       0.782612
    10804.970300       0.786422
    10816.657700       0.790208
    10828.370300       0.793968
    10840.108400       0.797704
    10851.871900       0.801413
    10863.661100       0.805097
    10875.475800       0.808754
    10887.316300       0.812384
    10899.182600       0.815987
    10911.074700       0.819563
    10922.992900       0.823110
    10934.937100       0.826629
    10946.907500       0.830120
    10958.904100       0.833581
    10970.927000       0.837014
    10982.976400       0.840416
    10995.052200       0.843789
    11007.154700       0.847131
    11019.283700       0.850443
    11031.439600       0.853724
    11043.622300       0.856973
    11055.832000       0.860191
    11068.068600       0.863376
    11080.332400       0.866530
    11092.623400       0.869651
    11104.941700       0.872740
    11117.287400       0.875795
    11129.660500       0.878817
    11142.061300       0.881806
    11154.489700       0.884761
    11166.945800       0.887681
    11179.429800       0.890568
    11191.941800       0.893420
    11204.481800       0.896236
    11217.049900       0.899018
    11229.646300       0.901765
    11242.270900       0.904476
    11254.924000       0.907151
    11267.605600       0.909791
    11280.315800       0.912394
    11293.054800       0.914961
    11305.822500       0.917491
    11318.619100       0.919985
    11331.444800       0.922442
    11344.299500       0.924862
    11357.183400       0.927244
    11370.096600       0.929590
    11383.039300       0.931898
    11396.011400       0.934168
    11409.013100       0.936400
    11422.044500       0.938594
    11435.105800       0.940751
    11448.196900       0.942869
    11461.318100       0.944949
    11474.469300       0.946990
    11487.650800       0.948993
    11500.862600       0.950958
    11514.104800       0.952884
    11527.377500       0.954771
    11540.680900       0.956619
    11554.015000       0.958429
    11567.380000       0.960199
    11580.775900       0.961931
    11594.202900       0.963623
    11607.661100       0.965276
    11621.150500       0.966891
    11634.671300       0.968466
    11648.223600       0.970002
    11661.807600       0.971499
    11675.423200       0.972957
    11689.070700       0.974376
    11702.750100       0.975755
    11716.461600       0.977096
    11730.205300       0.978397
    11743.981200       0.979660
    11757.789500       0.980883
    11771.630400       0.982067
    11785.503800       0.983213
    11799.410000       0.984319
    11813.349100       0.985387
    11827.321100       0.986416
    11841.326200       0.987406
    11855.364600       0.988358
    11869.436200       0.989272
    11883.541300       0.990147
    11897.680000       0.990983
    11911.852300       0.991782
    11926.058400       0.992542
    11940.298500       0.993265
    11954.572600       0.993950
    11968.880900       0.994597
    11983.223500       0.995207
    11997.600500       0.995779
    12012.012000       0.996314
    12026.458200       0.996812
    12040.939200       0.997273
    12055.455100       0.997697
    12070.006000       0.998085
    12084.592100       0.998437
    12099.213600       0.998752
    12113.870400       0.999032
    12128.562800       0.999276
    12143.290800       0.999484
    12158.054700       0.999657
    12172.854500       0.999795
    12187.690400       0.999898
    12202.562500       0.999966
    12217.471000       1.000000
    12232.415900       1.000000
    12247.397400       0.999966
    12262.415700       0.999898
    12277.470800       0.999797
    12292.563000       0.999663
    12307.692300       0.999496
    12322.858900       0.999297
    12338.062900       0.999065
    12353.304500       0.998801
    12368.583800       0.998506
    12383.900900       0.998179
    12399.256000       0.997821
    12414.649300       0.997433
    12430.080800       0.997014
    12445.550700       0.996564
    12461.059200       0.996085
    12476.606400       0.995577
    12492.192400       0.995039
    12507.817400       0.994473
    12523.481500       0.993878
    12539.185000       0.993255
    12554.927800       0.992604
    12570.710200       0.991926
    12586.532400       0.991221
    12602.394500       0.990489
    12618.296500       0.989731
    12634.238800       0.988947
    12650.221400       0.988137
    12666.244500       0.987302
    12682.308200       0.986442
    12698.412700       0.985558
    12714.558200       0.984650
    12730.744700       0.983718
    12746.972600       0.982763
    12763.241900       0.981785
    12779.552700       0.980785
    12795.905300       0.979762
    12812.299800       0.978718
    12828.736400       0.977653
    12845.215200       0.976567
    12861.736300       0.975460
    12878.300100       0.974334
    12894.906500       0.973188
    12911.555800       0.972023
    12928.248200       0.970839
    12944.983800       0.969637
    12961.762800       0.968417
    12978.585300       0.967179
    12995.451600       0.965925
    13012.361700       0.964654
    13029.316000       0.963367
    13046.314400       0.962065
    13063.357300       0.960747
    13080.444700       0.959414
    13097.576900       0.958067
    13114.754100       0.956706
    13131.976400       0.955332
    13149.243900       0.953945
    13166.556900       0.952545
    13183.915600       0.951133
    13201.320100       0.949710
    13218.770700       0.948275
    13236.267400       0.946830
    13253.810500       0.945374
    13271.400100       0.943909
    13289.036500       0.942434
    13306.719900       0.940950
    13324.450400       0.939458
    13342.228200       0.937957
    13360.053400       0.936449
    13377.926400       0.934934
    13395.847300       0.933413
    13413.816200       0.931885
    13431.833400       0.930351
    13449.899100       0.928812
    13468.013500       0.927268
    13486.176700       0.925720
    13504.388900       0.924168
    13522.650400       0.922612
    13540.961400       0.921053
    13559.322000       0.919491
    13577.732500       0.917928
    13596.193100       0.916362
    13614.703900       0.914795
    13633.265200       0.913228
    13651.877100       0.911659
    13670.540000       0.910091
    13689.253900       0.908523
    13708.019200       0.906956
    13726.836000       0.905391
    13745.704500       0.903827
    13764.624900       0.902265
    13783.597500       0.900705
    13802.622500       0.899149
    13821.700100       0.897595
    13840.830400       0.896046
    13860.013900       0.894501
    13879.250500       0.892960
    13898.540700       0.891424
    13917.884500       0.889894
    13937.282200       0.888369
    13956.734100       0.886850
    13976.240400       0.885338
    13995.801300       0.883833
    14015.417000       0.882335
    14035.087700       0.880845
    14054.813800       0.879362
    14074.595400       0.877888
    14094.432700       0.876423
    14114.326000       0.874967
    14134.275600       0.873520
    14154.281700       0.872083
    14174.344400       0.870656
    14194.464200       0.869240
    14214.641100       0.867834
    14234.875400       0.866440
    14255.167500       0.865057
    14275.517500       0.863686
    14295.925700       0.862326
    14316.392300       0.860979
    14336.917600       0.859645
    14357.501800       0.858324
    14378.145200       0.857015
    14398.848100       0.855721
    14419.610700       0.854440
    14440.433200       0.853173
    14461.316000       0.851921
    14482.259200       0.850683
    14503.263200       0.849460
    14524.328200       0.848252
    14545.454500       0.847059
    14566.642400       0.845882
    14587.892000       0.844721
    14609.203800       0.843575
    14630.577900       0.842446
    14652.014700       0.841333
    14673.514300       0.840237
    14695.077100       0.839158
    14716.703500       0.838095
    14738.393500       0.837050
    14760.147600       0.836022
    14781.966000       0.835011
    14803.849000       0.834018
    14825.796900       0.833043
    14847.809900       0.832086
    14869.888500       0.831147
    14892.032800       0.830226
    14914.243100       0.829323
    14936.519800       0.828439
    14958.863100       0.827573
    14981.273400       0.826725
    15003.750900       0.825897
    15026.296000       0.825087
    15048.909000       0.824296
    15071.590100       0.823523
    15094.339600       0.822770
    15117.158000       0.822035
    15140.045400       0.821320
    15163.002300       0.820623
    15186.028900       0.819946
    15209.125500       0.819288
    15232.292500       0.818648
    15255.530100       0.818028
    15278.838800       0.817426
    15302.218800       0.816844
    15325.670500       0.816281
    15349.194200       0.815736
    15372.790200       0.815210
    15396.458800       0.814703
    15420.200500       0.814215
    15444.015400       0.813746
    15467.904100       0.813295
    15491.866800       0.812862
    15515.903800       0.812448
    15540.015500       0.812052
    15564.202300       0.811674
    15588.464500       0.811314
    15612.802500       0.810972
    15637.216600       0.810647
    15661.707100       0.810340
    15686.274500       0.810050
    15710.919100       0.809778
    15735.641200       0.809522
    15760.441300       0.809284
    15785.319700       0.809061
    15810.276700       0.808855
    15835.312700       0.808666
    15860.428200       0.808492
    15885.623500       0.808333
    15910.899000       0.808191
    15936.255000       0.808063
    15961.691900       0.807950
    15987.210200       0.807851
    16012.810200       0.807767
    16038.492400       0.807697
    16064.257000       0.807641
    16090.104600       0.807597
    16116.035500       0.807567
    16142.050000       0.807550
    16168.148700       0.807545
    16194.332000       0.807551
    16220.600200       0.807570
    16246.953700       0.807599
    16273.393000       0.807640
    16299.918500       0.807691
    16326.530600       0.807752
    16353.229800       0.807823
    16380.016400       0.807903
    16406.890900       0.807991
    16433.853700       0.808088
    16460.905300       0.808193
    16488.046200       0.808306
    16515.276600       0.808425
    16542.597200       0.808551
    16570.008300       0.808684
    16597.510400       0.808821
    16625.103900       0.808964
    16652.789300       0.809112
    16680.567100       0.809263
    16708.437800       0.809418
    16736.401700       0.809576
    16764.459300       0.809737
    16792.611300       0.809899
    16820.857900       0.810063
    16849.199700       0.810228
    16877.637100       0.810393
    16906.170800       0.810557
    16934.801000       0.810721
    16963.528400       0.810884
    16992.353400       0.811044
    17021.276600       0.811202
    17050.298400       0.811356
    17079.419300       0.811506
    17108.639900       0.811652
    17137.960600       0.811793
    17167.382000       0.811928
    17196.904600       0.812057
    17226.528900       0.812179
    17256.255400       0.812292
    17286.084700       0.812398
    17316.017300       0.812494
    17346.053800       0.812581
    17376.194600       0.812657
    17406.440400       0.812723
    17436.791600       0.812776
    17467.248900       0.812817
    17497.812800       0.812845
    17528.483800       0.812859
    17559.262500       0.812858
    17590.149500       0.812842
    17621.145400       0.812810
    17652.250700       0.812762
    17683.466000       0.812696
