71,   71, MVIRI VIS channel from srf_MET5_2000033_2000034_1801-Release_S10EL_10.dat
Number of data points:
806
Wavenumber (cm-1)   Filter response
     8350.730700       0.000000
     8357.710000       0.000000
     8364.701000       0.000000
     8371.703600       0.000002
     8378.718100       0.000004
     8385.744200       0.000009
     8392.782200       0.000016
     8399.832000       0.000027
     8406.893700       0.000041
     8413.967200       0.000060
     8421.052600       0.000083
     8428.150000       0.000112
     8435.259400       0.000146
     8442.380800       0.000186
     8449.514200       0.000233
     8456.659600       0.000286
     8463.817200       0.000347
     8470.986900       0.000415
     8478.168700       0.000492
     8485.362700       0.000577
     8492.569000       0.000671
     8499.787500       0.000774
     8507.018300       0.000886
     8514.261400       0.001008
     8521.516800       0.001140
     8528.784600       0.001282
     8536.064900       0.001435
     8543.357500       0.001599
     8550.662700       0.001774
     8557.980300       0.001960
     8565.310500       0.002158
     8572.653200       0.002368
     8580.008600       0.002589
     8587.376600       0.002824
     8594.757200       0.003070
     8602.150500       0.003330
     8609.556600       0.003602
     8616.975400       0.003888
     8624.407100       0.004187
     8631.851500       0.004499
     8639.308900       0.004826
     8646.779100       0.005166
     8654.262200       0.005520
     8661.758300       0.005888
     8669.267400       0.006271
     8676.789600       0.006669
     8684.324800       0.007081
     8691.873100       0.007508
     8699.434500       0.007950
     8707.009100       0.008407
     8714.596900       0.008879
     8722.198000       0.009367
     8729.812300       0.009871
     8737.439900       0.010390
     8745.080900       0.010925
     8752.735200       0.011476
     8760.403000       0.012043
     8768.084200       0.012627
     8775.778900       0.013227
     8783.487000       0.013843
     8791.208800       0.014476
     8798.944100       0.015125
     8806.693100       0.015792
     8814.455700       0.016475
     8822.232000       0.017176
     8830.022100       0.017893
     8837.825900       0.018628
     8845.643500       0.019381
     8853.475000       0.020150
     8861.320300       0.020938
     8869.179600       0.021743
     8877.052800       0.022566
     8884.940000       0.023408
     8892.841300       0.024267
     8900.756600       0.025144
     8908.686000       0.026040
     8916.629500       0.026954
     8924.587200       0.027886
     8932.559200       0.028837
     8940.545400       0.029807
     8948.545900       0.030795
     8956.560700       0.031803
     8964.589900       0.032829
     8972.633500       0.033875
     8980.691500       0.034940
     8988.764000       0.036024
     8996.851100       0.037127
     9004.952700       0.038250
     9013.068900       0.039393
     9021.199800       0.040555
     9029.345400       0.041737
     9037.505600       0.042939
     9045.680700       0.044162
     9053.870500       0.045404
     9062.075200       0.046666
     9070.294800       0.047949
     9078.529300       0.049252
     9086.778700       0.050576
     9095.043200       0.051920
     9103.322700       0.053284
     9111.617300       0.054670
     9119.927000       0.056077
     9128.251900       0.057504
     9136.592100       0.058953
     9144.947400       0.060422
     9153.318100       0.061913
     9161.704100       0.063426
     9170.105500       0.064959
     9178.522300       0.066515
     9186.954500       0.068091
     9195.402300       0.069690
     9203.865600       0.071310
     9212.344500       0.072952
     9220.839100       0.074616
     9229.349300       0.076302
     9237.875300       0.078011
     9246.417000       0.079741
     9254.974500       0.081493
     9263.547900       0.083268
     9272.137200       0.085066
     9280.742500       0.086886
     9289.363700       0.088728
     9298.000900       0.090593
     9306.654300       0.092481
     9315.323700       0.094391
     9324.009300       0.096324
     9332.711200       0.098281
     9341.429200       0.100260
     9350.163600       0.102262
     9358.914400       0.104287
     9367.681500       0.106335
     9376.465100       0.108407
     9385.265100       0.110501
     9394.081700       0.112619
     9402.914900       0.114761
     9411.764700       0.116925
     9420.631200       0.119114
     9429.514400       0.121325
     9438.414300       0.123560
     9447.331100       0.125818
     9456.264800       0.128100
     9465.215300       0.130406
     9474.182900       0.132735
     9483.167400       0.135088
     9492.169000       0.137465
     9501.187600       0.139865
     9510.223500       0.142289
     9519.276500       0.144736
     9528.346800       0.147208
     9537.434400       0.149703
     9546.539400       0.152221
     9555.661700       0.154764
     9564.801500       0.157330
     9573.958800       0.159920
     9583.133700       0.162533
     9592.326100       0.165170
     9601.536200       0.167831
     9610.764100       0.170515
     9620.009600       0.173224
     9629.273000       0.175956
     9638.554200       0.178711
     9647.853400       0.181489
     9657.170400       0.184291
     9666.505600       0.187117
     9675.858700       0.189967
     9685.230000       0.192839
     9694.619500       0.195735
     9704.027200       0.198653
     9713.453100       0.201596
     9722.897400       0.204561
     9732.360100       0.207549
     9741.841200       0.210561
     9751.340800       0.213595
     9760.859000       0.216652
     9770.395700       0.219732
     9779.951100       0.222834
     9789.525200       0.225959
     9799.118100       0.229107
     9808.729800       0.232276
     9818.360300       0.235468
     9828.009800       0.238682
     9837.678300       0.241919
     9847.365800       0.245177
     9857.072400       0.248457
     9866.798200       0.251758
     9876.543200       0.255081
     9886.307500       0.258426
     9896.091000       0.261792
     9905.894000       0.265179
     9915.716400       0.268587
     9925.558300       0.272015
     9935.419800       0.275465
     9945.300800       0.278935
     9955.201600       0.282425
     9965.122100       0.285935
     9975.062300       0.289466
     9985.022500       0.293016
     9995.002500       0.296586
    10005.002500       0.300176
    10015.022500       0.303784
    10025.062700       0.307412
    10035.122900       0.311059
    10045.203400       0.314724
    10055.304200       0.318408
    10065.425300       0.322110
    10075.566800       0.325830
    10085.728700       0.329568
    10095.911200       0.333324
    10106.114200       0.337097
    10116.337900       0.340887
    10126.582300       0.344695
    10136.847400       0.348518
    10147.133400       0.352359
    10157.440300       0.356215
    10167.768200       0.360088
    10178.117000       0.363976
    10188.487000       0.367879
    10198.878100       0.371798
    10209.290500       0.375732
    10219.724100       0.379680
    10230.179000       0.383643
    10240.655400       0.387620
    10251.153300       0.391611
    10261.672700       0.395615
    10272.213700       0.399632
    10282.776300       0.403662
    10293.360800       0.407705
    10303.967000       0.411761
    10314.595200       0.415828
    10325.245200       0.419907
    10335.917300       0.423998
    10346.611500       0.428099
    10357.327800       0.432211
    10368.066400       0.436334
    10378.827200       0.440467
    10389.610400       0.444610
    10400.416000       0.448763
    10411.244100       0.452924
    10422.094800       0.457094
    10432.968200       0.461273
    10443.864200       0.465461
    10454.783100       0.469655
    10465.724800       0.473858
    10476.689400       0.478067
    10487.677000       0.482283
    10498.687700       0.486506
    10509.721500       0.490734
    10520.778500       0.494968
    10531.858900       0.499208
    10542.962600       0.503453
    10554.089700       0.507702
    10565.240400       0.511955
    10576.414600       0.516212
    10587.612500       0.520473
    10598.834100       0.524737
    10610.079600       0.529004
    10621.348900       0.533272
    10632.642200       0.537543
    10643.959600       0.541816
    10655.301000       0.546089
    10666.666700       0.550364
    10678.056600       0.554638
    10689.470900       0.558913
    10700.909600       0.563188
    10712.372800       0.567461
    10723.860600       0.571734
    10735.373100       0.576005
    10746.910300       0.580274
    10758.472300       0.584541
    10770.059200       0.588804
    10781.671200       0.593065
    10793.308100       0.597322
    10804.970300       0.601576
    10816.657700       0.605825
    10828.370300       0.610069
    10840.108400       0.614308
    10851.871900       0.618541
    10863.661100       0.622769
    10875.475800       0.626990
    10887.316300       0.631204
    10899.182600       0.635411
    10911.074700       0.639611
    10922.992900       0.643803
    10934.937100       0.647986
    10946.907500       0.652160
    10958.904100       0.656325
    10970.927000       0.660481
    10982.976400       0.664627
    10995.052200       0.668762
    11007.154700       0.672886
    11019.283700       0.676999
    11031.439600       0.681101
    11043.622300       0.685190
    11055.832000       0.689267
    11068.068600       0.693331
    11080.332400       0.697383
    11092.623400       0.701420
    11104.941700       0.705443
    11117.287400       0.709452
    11129.660500       0.713446
    11142.061300       0.717425
    11154.489700       0.721389
    11166.945800       0.725336
    11179.429800       0.729267
    11191.941800       0.733182
    11204.481800       0.737079
    11217.049900       0.740958
    11229.646300       0.744820
    11242.270900       0.748664
    11254.924000       0.752489
    11267.605600       0.756294
    11280.315800       0.760081
    11293.054800       0.763848
    11305.822500       0.767594
    11318.619100       0.771320
    11331.444800       0.775026
    11344.299500       0.778710
    11357.183400       0.782372
    11370.096600       0.786013
    11383.039300       0.789631
    11396.011400       0.793227
    11409.013100       0.796800
    11422.044500       0.800350
    11435.105800       0.803876
    11448.196900       0.807378
    11461.318100       0.810855
    11474.469300       0.814308
    11487.650800       0.817736
    11500.862600       0.821140
    11514.104800       0.824517
    11527.377500       0.827868
    11540.680900       0.831193
    11554.015000       0.834492
    11567.380000       0.837764
    11580.775900       0.841009
    11594.202900       0.844227
    11607.661100       0.847416
    11621.150500       0.850578
    11634.671300       0.853712
    11648.223600       0.856817
    11661.807600       0.859893
    11675.423200       0.862940
    11689.070700       0.865959
    11702.750100       0.868947
    11716.461600       0.871905
    11730.205300       0.874834
    11743.981200       0.877732
    11757.789500       0.880599
    11771.630400       0.883436
    11785.503800       0.886242
    11799.410000       0.889016
    11813.349100       0.891759
    11827.321100       0.894471
    11841.326200       0.897150
    11855.364600       0.899797
    11869.436200       0.902412
    11883.541300       0.904995
    11897.680000       0.907545
    11911.852300       0.910062
    11926.058400       0.912546
    11940.298500       0.914996
    11954.572600       0.917414
    11968.880900       0.919797
    11983.223500       0.922147
    11997.600500       0.924463
    12012.012000       0.926746
    12026.458200       0.928994
    12040.939200       0.931207
    12055.455100       0.933387
    12070.006000       0.935532
    12084.592100       0.937642
    12099.213600       0.939717
    12113.870400       0.941758
    12128.562800       0.943763
    12143.290800       0.945734
    12158.054700       0.947669
    12172.854500       0.949569
    12187.690400       0.951434
    12202.562500       0.953264
    12217.471000       0.955058
    12232.415900       0.956816
    12247.397400       0.958539
    12262.415700       0.960227
    12277.470800       0.961878
    12292.563000       0.963495
    12307.692300       0.965075
    12322.858900       0.966620
    12338.062900       0.968128
    12353.304500       0.969602
    12368.583800       0.971039
    12383.900900       0.972441
    12399.256000       0.973807
    12414.649300       0.975137
    12430.080800       0.976432
    12445.550700       0.977691
    12461.059200       0.978914
    12476.606400       0.980102
    12492.192400       0.981254
    12507.817400       0.982370
    12523.481500       0.983452
    12539.185000       0.984497
    12554.927800       0.985508
    12570.710200       0.986483
    12586.532400       0.987423
    12602.394500       0.988328
    12618.296500       0.989199
    12634.238800       0.990034
    12650.221400       0.990834
    12666.244500       0.991600
    12682.308200       0.992332
    12698.412700       0.993028
    12714.558200       0.993691
    12730.744700       0.994320
    12746.972600       0.994914
    12763.241900       0.995475
    12779.552700       0.996002
    12795.905300       0.996495
    12812.299800       0.996955
    12828.736400       0.997382
    12845.215200       0.997776
    12861.736300       0.998137
    12878.300100       0.998466
    12894.906500       0.998762
    12911.555800       0.999025
    12928.248200       0.999257
    12944.983800       0.999457
    12961.762800       0.999625
    12978.585300       0.999762
    12995.451600       0.999868
    13012.361700       0.999942
    13029.316000       0.999986
    13046.314400       1.000000
    13063.357300       0.999983
    13080.444700       0.999937
    13097.576900       0.999860
    13114.754100       0.999755
    13131.976400       0.999620
    13149.243900       0.999456
    13166.556900       0.999264
    13183.915600       0.999043
    13201.320100       0.998794
    13218.770700       0.998518
    13236.267400       0.998214
    13253.810500       0.997882
    13271.400100       0.997524
    13289.036500       0.997140
    13306.719900       0.996729
    13324.450400       0.996292
    13342.228200       0.995830
    13360.053400       0.995342
    13377.926400       0.994830
    13395.847300       0.994293
    13413.816200       0.993732
    13431.833400       0.993146
    13449.899100       0.992537
    13468.013500       0.991905
    13486.176700       0.991250
    13504.388900       0.990573
    13522.650400       0.989873
    13540.961400       0.989152
    13559.322000       0.988409
    13577.732500       0.987645
    13596.193100       0.986861
    13614.703900       0.986056
    13633.265200       0.985231
    13651.877100       0.984387
    13670.540000       0.983524
    13689.253900       0.982641
    13708.019200       0.981741
    13726.836000       0.980822
    13745.704500       0.979886
    13764.624900       0.978933
    13783.597500       0.977962
    13802.622500       0.976976
    13821.700100       0.975973
    13840.830400       0.974955
    13860.013900       0.973922
    13879.250500       0.972873
    13898.540700       0.971811
    13917.884500       0.970734
    13937.282200       0.969644
    13956.734100       0.968541
    13976.240400       0.967425
    13995.801300       0.966297
    14015.417000       0.965157
    14035.087700       0.964005
    14054.813800       0.962843
    14074.595400       0.961669
    14094.432700       0.960486
    14114.326000       0.959293
    14134.275600       0.958090
    14154.281700       0.956878
    14174.344400       0.955658
    14194.464200       0.954430
    14214.641100       0.953194
    14234.875400       0.951950
    14255.167500       0.950700
    14275.517500       0.949444
    14295.925700       0.948181
    14316.392300       0.946913
    14336.917600       0.945639
    14357.501800       0.944361
    14378.145200       0.943078
    14398.848100       0.941792
    14419.610700       0.940502
    14440.433200       0.939208
    14461.316000       0.937912
    14482.259200       0.936614
    14503.263200       0.935314
    14524.328200       0.934012
    14545.454500       0.932709
    14566.642400       0.931405
    14587.892000       0.930102
    14609.203800       0.928798
    14630.577900       0.927494
    14652.014700       0.926192
    14673.514300       0.924890
    14695.077100       0.923591
    14716.703500       0.922293
    14738.393500       0.920998
    14760.147600       0.919705
    14781.966000       0.918416
    14803.849000       0.917129
    14825.796900       0.915847
    14847.809900       0.914569
    14869.888500       0.913296
    14892.032800       0.912028
    14914.243100       0.910764
    14936.519800       0.909507
    14958.863100       0.908255
    14981.273400       0.907010
    15003.750900       0.905771
    15026.296000       0.904539
    15048.909000       0.903315
    15071.590100       0.902098
    15094.339600       0.900888
    15117.158000       0.899687
    15140.045400       0.898495
    15163.002300       0.897311
    15186.028900       0.896137
    15209.125500       0.894971
    15232.292500       0.893816
    15255.530100       0.892670
    15278.838800       0.891534
    15302.218800       0.890409
    15325.670500       0.889295
    15349.194200       0.888191
    15372.790200       0.887099
    15396.458800       0.886018
    15420.200500       0.884949
    15444.015400       0.883891
    15467.904100       0.882846
    15491.866800       0.881813
    15515.903800       0.880792
    15540.015500       0.879784
    15564.202300       0.878789
    15588.464500       0.877807
    15612.802500       0.876838
    15637.216600       0.875883
    15661.707100       0.874941
    15686.274500       0.874013
    15710.919100       0.873099
    15735.641200       0.872198
    15760.441300       0.871312
    15785.319700       0.870440
    15810.276700       0.869582
    15835.312700       0.868739
    15860.428200       0.867910
    15885.623500       0.867096
    15910.899000       0.866296
    15936.255000       0.865512
    15961.691900       0.864742
    15987.210200       0.863987
    16012.810200       0.863246
    16038.492400       0.862521
    16064.257000       0.861811
    16090.104600       0.861115
    16116.035500       0.860435
    16142.050000       0.859770
    16168.148700       0.859119
    16194.332000       0.858484
    16220.600200       0.857863
    16246.953700       0.857258
    16273.393000       0.856667
    16299.918500       0.856091
    16326.530600       0.855529
    16353.229800       0.854982
    16380.016400       0.854450
    16406.890900       0.853932
    16433.853700       0.853429
    16460.905300       0.852939
    16488.046200       0.852464
    16515.276600       0.852003
    16542.597200       0.851555
    16570.008300       0.851121
    16597.510400       0.850701
    16625.103900       0.850294
    16652.789300       0.849900
    16680.567100       0.849518
    16708.437800       0.849150
    16736.401700       0.848794
    16764.459300       0.848450
    16792.611300       0.848118
    16820.857900       0.847798
    16849.199700       0.847490
    16877.637100       0.847192
    16906.170800       0.846906
    16934.801000       0.846630
    16963.528400       0.846365
    16992.353400       0.846109
    17021.276600       0.845864
    17050.298400       0.845627
    17079.419300       0.845400
    17108.639900       0.845182
    17137.960600       0.844971
    17167.382000       0.844769
    17196.904600       0.844574
    17226.528900       0.844386
    17256.255400       0.844206
    17286.084700       0.844031
