99,   99, MVIRI VIS channel from srf_MET7_2009348_2009349_1801-Release_S10EE_10.dat
Number of data points:
793
Wavenumber (cm-1)   Filter response
     8442.380800       0.000000
     8449.514200       0.000000
     8456.659600       0.000004
     8463.817200       0.000056
     8470.986900       0.000166
     8478.168700       0.000332
     8485.362700       0.000552
     8492.569000       0.000826
     8499.787500       0.001150
     8507.018300       0.001525
     8514.261400       0.001948
     8521.516800       0.002418
     8528.784600       0.002934
     8536.064900       0.003494
     8543.357500       0.004097
     8550.662700       0.004743
     8557.980300       0.005429
     8565.310500       0.006155
     8572.653200       0.006920
     8580.008600       0.007722
     8587.376600       0.008561
     8594.757200       0.009436
     8602.150500       0.010346
     8609.556600       0.011289
     8616.975400       0.012266
     8624.407100       0.013275
     8631.851500       0.014316
     8639.308900       0.015387
     8646.779100       0.016489
     8654.262200       0.017620
     8661.758300       0.018780
     8669.267400       0.019968
     8676.789600       0.021184
     8684.324800       0.022427
     8691.873100       0.023697
     8699.434500       0.024993
     8707.009100       0.026314
     8714.596900       0.027661
     8722.198000       0.029033
     8729.812300       0.030429
     8737.439900       0.031850
     8745.080900       0.033294
     8752.735200       0.034761
     8760.403000       0.036252
     8768.084200       0.037766
     8775.778900       0.039302
     8783.487000       0.040861
     8791.208800       0.042442
     8798.944100       0.044045
     8806.693100       0.045669
     8814.455700       0.047315
     8822.232000       0.048983
     8830.022100       0.050672
     8837.825900       0.052382
     8845.643500       0.054114
     8853.475000       0.055866
     8861.320300       0.057639
     8869.179600       0.059433
     8877.052800       0.061248
     8884.940000       0.063084
     8892.841300       0.064940
     8900.756600       0.066817
     8908.686000       0.068715
     8916.629500       0.070633
     8924.587200       0.072572
     8932.559200       0.074532
     8940.545400       0.076512
     8948.545900       0.078514
     8956.560700       0.080535
     8964.589900       0.082578
     8972.633500       0.084641
     8980.691500       0.086725
     8988.764000       0.088831
     8996.851100       0.090957
     9004.952700       0.093104
     9013.068900       0.095272
     9021.199800       0.097462
     9029.345400       0.099673
     9037.505600       0.101905
     9045.680700       0.104159
     9053.870500       0.106433
     9062.075200       0.108730
     9070.294800       0.111049
     9078.529300       0.113389
     9086.778700       0.115751
     9095.043200       0.118135
     9103.322700       0.120540
     9111.617300       0.122969
     9119.927000       0.125419
     9128.251900       0.127891
     9136.592100       0.130386
     9144.947400       0.132904
     9153.318100       0.135444
     9161.704100       0.138006
     9170.105500       0.140591
     9178.522300       0.143200
     9186.954500       0.145831
     9195.402300       0.148485
     9203.865600       0.151162
     9212.344500       0.153862
     9220.839100       0.156585
     9229.349300       0.159332
     9237.875300       0.162102
     9246.417000       0.164895
     9254.974500       0.167711
     9263.547900       0.170552
     9272.137200       0.173415
     9280.742500       0.176302
     9289.363700       0.179213
     9298.000900       0.182147
     9306.654300       0.185105
     9315.323700       0.188087
     9324.009300       0.191092
     9332.711200       0.194122
     9341.429200       0.197174
     9350.163600       0.200251
     9358.914400       0.203351
     9367.681500       0.206475
     9376.465100       0.209623
     9385.265100       0.212794
     9394.081700       0.215990
     9402.914900       0.219208
     9411.764700       0.222451
     9420.631200       0.225717
     9429.514400       0.229006
     9438.414300       0.232319
     9447.331100       0.235655
     9456.264800       0.239014
     9465.215300       0.242397
     9474.182900       0.245803
     9483.167400       0.249233
     9492.169000       0.252684
     9501.187600       0.256160
     9510.223500       0.259658
     9519.276500       0.263178
     9528.346800       0.266721
     9537.434400       0.270287
     9546.539400       0.273875
     9555.661700       0.277485
     9564.801500       0.281117
     9573.958800       0.284772
     9583.133700       0.288448
     9592.326100       0.292145
     9601.536200       0.295864
     9610.764100       0.299604
     9620.009600       0.303366
     9629.273000       0.307148
     9638.554200       0.310951
     9647.853400       0.314774
     9657.170400       0.318617
     9666.505600       0.322481
     9675.858700       0.326365
     9685.230000       0.330268
     9694.619500       0.334191
     9704.027200       0.338132
     9713.453100       0.342093
     9722.897400       0.346073
     9732.360100       0.350071
     9741.841200       0.354087
     9751.340800       0.358120
     9760.859000       0.362172
     9770.395700       0.366241
     9779.951100       0.370326
     9789.525200       0.374429
     9799.118100       0.378549
     9808.729800       0.382683
     9818.360300       0.386835
     9828.009800       0.391001
     9837.678300       0.395183
     9847.365800       0.399380
     9857.072400       0.403591
     9866.798200       0.407817
     9876.543200       0.412056
     9886.307500       0.416309
     9896.091000       0.420575
     9905.894000       0.424854
     9915.716400       0.429146
     9925.558300       0.433449
     9935.419800       0.437764
     9945.300800       0.442091
     9955.201600       0.446429
     9965.122100       0.450777
     9975.062300       0.455135
     9985.022500       0.459504
     9995.002500       0.463882
    10005.002500       0.468269
    10015.022500       0.472664
    10025.062700       0.477068
    10035.122900       0.481479
    10045.203400       0.485898
    10055.304200       0.490324
    10065.425300       0.494757
    10075.566800       0.499195
    10085.728700       0.503640
    10095.911200       0.508090
    10106.114200       0.512544
    10116.337900       0.517003
    10126.582300       0.521466
    10136.847400       0.525932
    10147.133400       0.530402
    10157.440300       0.534874
    10167.768200       0.539348
    10178.117000       0.543824
    10188.487000       0.548302
    10198.878100       0.552780
    10209.290500       0.557259
    10219.724100       0.561737
    10230.179000       0.566215
    10240.655400       0.570692
    10251.153300       0.575168
    10261.672700       0.579641
    10272.213700       0.584112
    10282.776300       0.588581
    10293.360800       0.593046
    10303.967000       0.597507
    10314.595200       0.601964
    10325.245200       0.606416
    10335.917300       0.610863
    10346.611500       0.615304
    10357.327800       0.619739
    10368.066400       0.624167
    10378.827200       0.628588
    10389.610400       0.633002
    10400.416000       0.637408
    10411.244100       0.641805
    10422.094800       0.646193
    10432.968200       0.650571
    10443.864200       0.654940
    10454.783100       0.659298
    10465.724800       0.663645
    10476.689400       0.667981
    10487.677000       0.672306
    10498.687700       0.676617
    10509.721500       0.680916
    10520.778500       0.685202
    10531.858900       0.689474
    10542.962600       0.693732
    10554.089700       0.697975
    10565.240400       0.702203
    10576.414600       0.706416
    10587.612500       0.710612
    10598.834100       0.714793
    10610.079600       0.718956
    10621.348900       0.723102
    10632.642200       0.727230
    10643.959600       0.731340
    10655.301000       0.735431
    10666.666700       0.739503
    10678.056600       0.743555
    10689.470900       0.747588
    10700.909600       0.751600
    10712.372800       0.755591
    10723.860600       0.759561
    10735.373100       0.763509
    10746.910300       0.767435
    10758.472300       0.771338
    10770.059200       0.775219
    10781.671200       0.779076
    10793.308100       0.782909
    10804.970300       0.786718
    10816.657700       0.790503
    10828.370300       0.794262
    10840.108400       0.797997
    10851.871900       0.801705
    10863.661100       0.805388
    10875.475800       0.809043
    10887.316300       0.812672
    10899.182600       0.816274
    10911.074700       0.819848
    10922.992900       0.823394
    10934.937100       0.826912
    10946.907500       0.830401
    10958.904100       0.833861
    10970.927000       0.837292
    10982.976400       0.840693
    10995.052200       0.844064
    11007.154700       0.847405
    11019.283700       0.850715
    11031.439600       0.853994
    11043.622300       0.857241
    11055.832000       0.860457
    11068.068600       0.863641
    11080.332400       0.866793
    11092.623400       0.869913
    11104.941700       0.872999
    11117.287400       0.876052
    11129.660500       0.879073
    11142.061300       0.882059
    11154.489700       0.885012
    11166.945800       0.887930
    11179.429800       0.890814
    11191.941800       0.893664
    11204.481800       0.896479
    11217.049900       0.899258
    11229.646300       0.902003
    11242.270900       0.904711
    11254.924000       0.907384
    11267.605600       0.910021
    11280.315800       0.912622
    11293.054800       0.915187
    11305.822500       0.917715
    11318.619100       0.920206
    11331.444800       0.922660
    11344.299500       0.925077
    11357.183400       0.927457
    11370.096600       0.929800
    11383.039300       0.932105
    11396.011400       0.934372
    11409.013100       0.936602
    11422.044500       0.938794
    11435.105800       0.940947
    11448.196900       0.943063
    11461.318100       0.945140
    11474.469300       0.947178
    11487.650800       0.949178
    11500.862600       0.951140
    11514.104800       0.953063
    11527.377500       0.954947
    11540.680900       0.956792
    11554.015000       0.958598
    11567.380000       0.960366
    11580.775900       0.962094
    11594.202900       0.963783
    11607.661100       0.965434
    11621.150500       0.967045
    11634.671300       0.968617
    11648.223600       0.970150
    11661.807600       0.971643
    11675.423200       0.973098
    11689.070700       0.974513
    11702.750100       0.975889
    11716.461600       0.977227
    11730.205300       0.978524
    11743.981200       0.979783
    11757.789500       0.981003
    11771.630400       0.982184
    11785.503800       0.983326
    11799.410000       0.984429
    11813.349100       0.985493
    11827.321100       0.986519
    11841.326200       0.987506
    11855.364600       0.988454
    11869.436200       0.989364
    11883.541300       0.990235
    11897.680000       0.991068
    11911.852300       0.991863
    11926.058400       0.992620
    11940.298500       0.993338
    11954.572600       0.994019
    11968.880900       0.994663
    11983.223500       0.995269
    11997.600500       0.995837
    12012.012000       0.996368
    12026.458200       0.996863
    12040.939200       0.997320
    12055.455100       0.997741
    12070.006000       0.998125
    12084.592100       0.998472
    12099.213600       0.998784
    12113.870400       0.999059
    12128.562800       0.999299
    12143.290800       0.999504
    12158.054700       0.999673
    12172.854500       0.999807
    12187.690400       0.999906
    12202.562500       0.999970
    12217.471000       1.000000
    12232.415900       0.999996
    12247.397400       0.999958
    12262.415700       0.999886
    12277.470800       0.999781
    12292.563000       0.999643
    12307.692300       0.999472
    12322.858900       0.999269
    12338.062900       0.999033
    12353.304500       0.998765
    12368.583800       0.998466
    12383.900900       0.998135
    12399.256000       0.997773
    12414.649300       0.997380
    12430.080800       0.996957
    12445.550700       0.996504
    12461.059200       0.996021
    12476.606400       0.995508
    12492.192400       0.994967
    12507.817400       0.994396
    12523.481500       0.993797
    12539.185000       0.993170
    12554.927800       0.992515
    12570.710200       0.991833
    12586.532400       0.991124
    12602.394500       0.990388
    12618.296500       0.989625
    12634.238800       0.988837
    12650.221400       0.988023
    12666.244500       0.987184
    12682.308200       0.986320
    12698.412700       0.985432
    12714.558200       0.984520
    12730.744700       0.983584
    12746.972600       0.982625
    12763.241900       0.981643
    12779.552700       0.980638
    12795.905300       0.979612
    12812.299800       0.978563
    12828.736400       0.977494
    12845.215200       0.976404
    12861.736300       0.975293
    12878.300100       0.974163
    12894.906500       0.973013
    12911.555800       0.971843
    12928.248200       0.970655
    12944.983800       0.969449
    12961.762800       0.968225
    12978.585300       0.966984
    12995.451600       0.965725
    13012.361700       0.964450
    13029.316000       0.963160
    13046.314400       0.961853
    13063.357300       0.960531
    13080.444700       0.959194
    13097.576900       0.957843
    13114.754100       0.956479
    13131.976400       0.955100
    13149.243900       0.953709
    13166.556900       0.952305
    13183.915600       0.950889
    13201.320100       0.949462
    13218.770700       0.948023
    13236.267400       0.946574
    13253.810500       0.945114
    13271.400100       0.943645
    13289.036500       0.942166
    13306.719900       0.940678
    13324.450400       0.939182
    13342.228200       0.937678
    13360.053400       0.936166
    13377.926400       0.934647
    13395.847300       0.933121
    13413.816200       0.931589
    13431.833400       0.930052
    13449.899100       0.928509
    13468.013500       0.926961
    13486.176700       0.925409
    13504.388900       0.923853
    13522.650400       0.922293
    13540.961400       0.920730
    13559.322000       0.919165
    13577.732500       0.917597
    13596.193100       0.916028
    13614.703900       0.914457
    13633.265200       0.912886
    13651.877100       0.911314
    13670.540000       0.909742
    13689.253900       0.908170
    13708.019200       0.906599
    13726.836000       0.905030
    13745.704500       0.903462
    13764.624900       0.901896
    13783.597500       0.900333
    13802.622500       0.898772
    13821.700100       0.897215
    13840.830400       0.895662
    13860.013900       0.894113
    13879.250500       0.892568
    13898.540700       0.891029
    13917.884500       0.889494
    13937.282200       0.887966
    13956.734100       0.886444
    13976.240400       0.884928
    13995.801300       0.883419
    14015.417000       0.881917
    14035.087700       0.880423
    14054.813800       0.878937
    14074.595400       0.877459
    14094.432700       0.875990
    14114.326000       0.874530
    14134.275600       0.873079
    14154.281700       0.871639
    14174.344400       0.870208
    14194.464200       0.868788
    14214.641100       0.867378
    14234.875400       0.865980
    14255.167500       0.864593
    14275.517500       0.863218
    14295.925700       0.861855
    14316.392300       0.860504
    14336.917600       0.859166
    14357.501800       0.857841
    14378.145200       0.856529
    14398.848100       0.855231
    14419.610700       0.853946
    14440.433200       0.852676
    14461.316000       0.851419
    14482.259200       0.850178
    14503.263200       0.848951
    14524.328200       0.847739
    14545.454500       0.846542
    14566.642400       0.845361
    14587.892000       0.844196
    14609.203800       0.843047
    14630.577900       0.841914
    14652.014700       0.840797
    14673.514300       0.839697
    14695.077100       0.838614
    14716.703500       0.837547
    14738.393500       0.836498
    14760.147600       0.835466
    14781.966000       0.834451
    14803.849000       0.833454
    14825.796900       0.832475
    14847.809900       0.831514
    14869.888500       0.830571
    14892.032800       0.829646
    14914.243100       0.828739
    14936.519800       0.827851
    14958.863100       0.826981
    14981.273400       0.826129
    15003.750900       0.825296
    15026.296000       0.824482
    15048.909000       0.823687
    15071.590100       0.822911
    15094.339600       0.822153
    15117.158000       0.821414
    15140.045400       0.820695
    15163.002300       0.819994
    15186.028900       0.819312
    15209.125500       0.818650
    15232.292500       0.818006
    15255.530100       0.817381
    15278.838800       0.816776
    15302.218800       0.816189
    15325.670500       0.815621
    15349.194200       0.815072
    15372.790200       0.814542
    15396.458800       0.814031
    15420.200500       0.813538
    15444.015400       0.813064
    15467.904100       0.812609
    15491.866800       0.812172
    15515.903800       0.811753
    15540.015500       0.811352
    15564.202300       0.810970
    15588.464500       0.810605
    15612.802500       0.810259
    15637.216600       0.809930
    15661.707100       0.809618
    15686.274500       0.809324
    15710.919100       0.809046
    15735.641200       0.808786
    15760.441300       0.808543
    15785.319700       0.808316
    15810.276700       0.808105
    15835.312700       0.807910
    15860.428200       0.807732
    15885.623500       0.807568
    15910.899000       0.807421
    15936.255000       0.807288
    15961.691900       0.807170
    15987.210200       0.807067
    16012.810200       0.806978
    16038.492400       0.806902
    16064.257000       0.806841
    16090.104600       0.806793
    16116.035500       0.806757
    16142.050000       0.806735
    16168.148700       0.806725
    16194.332000       0.806726
    16220.600200       0.806739
    16246.953700       0.806764
    16273.393000       0.806799
    16299.918500       0.806845
    16326.530600       0.806901
    16353.229800       0.806966
    16380.016400       0.807041
    16406.890900       0.807124
    16433.853700       0.807216
    16460.905300       0.807315
    16488.046200       0.807422
    16515.276600       0.807537
    16542.597200       0.807657
    16570.008300       0.807784
    16597.510400       0.807916
    16625.103900       0.808053
    16652.789300       0.808195
    16680.567100       0.808341
    16708.437800       0.808491
    16736.401700       0.808643
    16764.459300       0.808798
    16792.611300       0.808955
    16820.857900       0.809113
    16849.199700       0.809272
    16877.637100       0.809432
    16906.170800       0.809591
    16934.801000       0.809749
    16963.528400       0.809905
    16992.353400       0.810060
    17021.276600       0.810212
    17050.298400       0.810361
    17079.419300       0.810505
    17108.639900       0.810646
    17137.960600       0.810781
    17167.382000       0.810910
    17196.904600       0.811033
    17226.528900       0.811149
    17256.255400       0.811257
    17286.084700       0.811356
    17316.017300       0.811447
    17346.053800       0.811528
    17376.194600       0.811598
    17406.440400       0.811658
    17436.791600       0.811705
    17467.248900       0.811741
    17497.812800       0.811763
    17528.483800       0.811771
    17559.262500       0.811764
    17590.149500       0.811743
    17621.145400       0.811705
    17652.250700       0.811651
    17683.466000       0.811579
