14,   14, MVIRI VIS channel from srf_MET7_1999123_1999124_1801-Release_S10EE_10.dat
Number of data points:
793
Wavenumber (cm-1)   Filter response
     8442.380800       0.000000
     8449.514200       0.000000
     8456.659600       0.000004
     8463.817200       0.000052
     8470.986900       0.000154
     8478.168700       0.000309
     8485.362700       0.000514
     8492.569000       0.000768
     8499.787500       0.001070
     8507.018300       0.001419
     8514.261400       0.001812
     8521.516800       0.002250
     8528.784600       0.002730
     8536.064900       0.003252
     8543.357500       0.003814
     8550.662700       0.004416
     8557.980300       0.005055
     8565.310500       0.005732
     8572.653200       0.006445
     8580.008600       0.007193
     8587.376600       0.007976
     8594.757200       0.008792
     8602.150500       0.009641
     8609.556600       0.010522
     8616.975400       0.011433
     8624.407100       0.012376
     8631.851500       0.013347
     8639.308900       0.014348
     8646.779100       0.015378
     8654.262200       0.016435
     8661.758300       0.017519
     8669.267400       0.018630
     8676.789600       0.019767
     8684.324800       0.020930
     8691.873100       0.022118
     8699.434500       0.023331
     8707.009100       0.024568
     8714.596900       0.025829
     8722.198000       0.027113
     8729.812300       0.028421
     8737.439900       0.029752
     8745.080900       0.031105
     8752.735200       0.032480
     8760.403000       0.033878
     8768.084200       0.035297
     8775.778900       0.036738
     8783.487000       0.038201
     8791.208800       0.039684
     8798.944100       0.041188
     8806.693100       0.042714
     8814.455700       0.044259
     8822.232000       0.045826
     8830.022100       0.047413
     8837.825900       0.049020
     8845.643500       0.050647
     8853.475000       0.052294
     8861.320300       0.053962
     8869.179600       0.055649
     8877.052800       0.057357
     8884.940000       0.059084
     8892.841300       0.060832
     8900.756600       0.062599
     8908.686000       0.064386
     8916.629500       0.066193
     8924.587200       0.068020
     8932.559200       0.069867
     8940.545400       0.071734
     8948.545900       0.073620
     8956.560700       0.075527
     8964.589900       0.077454
     8972.633500       0.079401
     8980.691500       0.081368
     8988.764000       0.083355
     8996.851100       0.085363
     9004.952700       0.087391
     9013.068900       0.089440
     9021.199800       0.091509
     9029.345400       0.093598
     9037.505600       0.095709
     9045.680700       0.097840
     9053.870500       0.099992
     9062.075200       0.102165
     9070.294800       0.104359
     9078.529300       0.106574
     9086.778700       0.108810
     9095.043200       0.111068
     9103.322700       0.113347
     9111.617300       0.115648
     9119.927000       0.117970
     9128.251900       0.120314
     9136.592100       0.122680
     9144.947400       0.125068
     9153.318100       0.127478
     9161.704100       0.129910
     9170.105500       0.132364
     9178.522300       0.134840
     9186.954500       0.137339
     9195.402300       0.139860
     9203.865600       0.142404
     9212.344500       0.144970
     9220.839100       0.147559
     9229.349300       0.150171
     9237.875300       0.152806
     9246.417000       0.155463
     9254.974500       0.158144
     9263.547900       0.160847
     9272.137200       0.163574
     9280.742500       0.166324
     9289.363700       0.169097
     9298.000900       0.171893
     9306.654300       0.174713
     9315.323700       0.177555
     9324.009300       0.180422
     9332.711200       0.183311
     9341.429200       0.186224
     9350.163600       0.189161
     9358.914400       0.192120
     9367.681500       0.195104
     9376.465100       0.198111
     9385.265100       0.201141
     9394.081700       0.204194
     9402.914900       0.207271
     9411.764700       0.210372
     9420.631200       0.213496
     9429.514400       0.216643
     9438.414300       0.219813
     9447.331100       0.223007
     9456.264800       0.226224
     9465.215300       0.229464
     9474.182900       0.232727
     9483.167400       0.236014
     9492.169000       0.239323
     9501.187600       0.242656
     9510.223500       0.246011
     9519.276500       0.249389
     9528.346800       0.252789
     9537.434400       0.256212
     9546.539400       0.259658
     9555.661700       0.263126
     9564.801500       0.266616
     9573.958800       0.270128
     9583.133700       0.273662
     9592.326100       0.277218
     9601.536200       0.280795
     9610.764100       0.284394
     9620.009600       0.288015
     9629.273000       0.291657
     9638.554200       0.295319
     9647.853400       0.299003
     9657.170400       0.302707
     9666.505600       0.306432
     9675.858700       0.310177
     9685.230000       0.313942
     9694.619500       0.317727
     9704.027200       0.321532
     9713.453100       0.325356
     9722.897400       0.329200
     9732.360100       0.333062
     9741.841200       0.336944
     9751.340800       0.340844
     9760.859000       0.344762
     9770.395700       0.348698
     9779.951100       0.352652
     9789.525200       0.356624
     9799.118100       0.360613
     9808.729800       0.364618
     9818.360300       0.368641
     9828.009800       0.372680
     9837.678300       0.376735
     9847.365800       0.380806
     9857.072400       0.384892
     9866.798200       0.388994
     9876.543200       0.393111
     9886.307500       0.397242
     9896.091000       0.401388
     9905.894000       0.405547
     9915.716400       0.409721
     9925.558300       0.413907
     9935.419800       0.418106
     9945.300800       0.422319
     9955.201600       0.426543
     9965.122100       0.430779
     9975.062300       0.435026
     9985.022500       0.439286
     9995.002500       0.443556
    10005.002500       0.447836
    10015.022500       0.452126
    10025.062700       0.456426
    10035.122900       0.460735
    10045.203400       0.465054
    10055.304200       0.469381
    10065.425300       0.473716
    10075.566800       0.478059
    10085.728700       0.482409
    10095.911200       0.486766
    10106.114200       0.491130
    10116.337900       0.495499
    10126.582300       0.499875
    10136.847400       0.504256
    10147.133400       0.508642
    10157.440300       0.513032
    10167.768200       0.517427
    10178.117000       0.521825
    10188.487000       0.526226
    10198.878100       0.530630
    10209.290500       0.535036
    10219.724100       0.539445
    10230.179000       0.543854
    10240.655400       0.548265
    10251.153300       0.552677
    10261.672700       0.557088
    10272.213700       0.561499
    10282.776300       0.565910
    10293.360800       0.570320
    10303.967000       0.574727
    10314.595200       0.579133
    10325.245200       0.583536
    10335.917300       0.587937
    10346.611500       0.592334
    10357.327800       0.596727
    10368.066400       0.601115
    10378.827200       0.605499
    10389.610400       0.609878
    10400.416000       0.614251
    10411.244100       0.618618
    10422.094800       0.622979
    10432.968200       0.627332
    10443.864200       0.631678
    10454.783100       0.636016
    10465.724800       0.640345
    10476.689400       0.644666
    10487.677000       0.648977
    10498.687700       0.653279
    10509.721500       0.657570
    10520.778500       0.661851
    10531.858900       0.666121
    10542.962600       0.670379
    10554.089700       0.674625
    10565.240400       0.678859
    10576.414600       0.683080
    10587.612500       0.687287
    10598.834100       0.691481
    10610.079600       0.695661
    10621.348900       0.699826
    10632.642200       0.703975
    10643.959600       0.708110
    10655.301000       0.712228
    10666.666700       0.716330
    10678.056600       0.720415
    10689.470900       0.724483
    10700.909600       0.728534
    10712.372800       0.732566
    10723.860600       0.736580
    10735.373100       0.740574
    10746.910300       0.744550
    10758.472300       0.748506
    10770.059200       0.752441
    10781.671200       0.756356
    10793.308100       0.760250
    10804.970300       0.764123
    10816.657700       0.767974
    10828.370300       0.771803
    10840.108400       0.775609
    10851.871900       0.779393
    10863.661100       0.783153
    10875.475800       0.786890
    10887.316300       0.790602
    10899.182600       0.794290
    10911.074700       0.797954
    10922.992900       0.801592
    10934.937100       0.805204
    10946.907500       0.808791
    10958.904100       0.812352
    10970.927000       0.815886
    10982.976400       0.819393
    10995.052200       0.822873
    11007.154700       0.826325
    11019.283700       0.829750
    11031.439600       0.833146
    11043.622300       0.836514
    11055.832000       0.839853
    11068.068600       0.843163
    11080.332400       0.846443
    11092.623400       0.849694
    11104.941700       0.852914
    11117.287400       0.856105
    11129.660500       0.859264
    11142.061300       0.862393
    11154.489700       0.865491
    11166.945800       0.868557
    11179.429800       0.871591
    11191.941800       0.874594
    11204.481800       0.877564
    11217.049900       0.880502
    11229.646300       0.883408
    11242.270900       0.886280
    11254.924000       0.889119
    11267.605600       0.891925
    11280.315800       0.894697
    11293.054800       0.897435
    11305.822500       0.900140
    11318.619100       0.902810
    11331.444800       0.905446
    11344.299500       0.908047
    11357.183400       0.910614
    11370.096600       0.913145
    11383.039300       0.915642
    11396.011400       0.918103
    11409.013100       0.920528
    11422.044500       0.922919
    11435.105800       0.925273
    11448.196900       0.927592
    11461.318100       0.929874
    11474.469300       0.932121
    11487.650800       0.934331
    11500.862600       0.936505
    11514.104800       0.938642
    11527.377500       0.940743
    11540.680900       0.942807
    11554.015000       0.944835
    11567.380000       0.946825
    11580.775900       0.948779
    11594.202900       0.950696
    11607.661100       0.952575
    11621.150500       0.954418
    11634.671300       0.956224
    11648.223600       0.957992
    11661.807600       0.959723
    11675.423200       0.961417
    11689.070700       0.963074
    11702.750100       0.964693
    11716.461600       0.966275
    11730.205300       0.967820
    11743.981200       0.969327
    11757.789500       0.970798
    11771.630400       0.972231
    11785.503800       0.973626
    11799.410000       0.974985
    11813.349100       0.976306
    11827.321100       0.977591
    11841.326200       0.978838
    11855.364600       0.980048
    11869.436200       0.981222
    11883.541300       0.982358
    11897.680000       0.983458
    11911.852300       0.984520
    11926.058400       0.985547
    11940.298500       0.986536
    11954.572600       0.987490
    11968.880900       0.988407
    11983.223500       0.989287
    11997.600500       0.990132
    12012.012000       0.990941
    12026.458200       0.991714
    12040.939200       0.992451
    12055.455100       0.993152
    12070.006000       0.993819
    12084.592100       0.994450
    12099.213600       0.995046
    12113.870400       0.995607
    12128.562800       0.996133
    12143.290800       0.996625
    12158.054700       0.997082
    12172.854500       0.997506
    12187.690400       0.997895
    12202.562500       0.998250
    12217.471000       0.998573
    12232.415900       0.998861
    12247.397400       0.999117
    12262.415700       0.999340
    12277.470800       0.999530
    12292.563000       0.999688
    12307.692300       0.999813
    12322.858900       0.999907
    12338.062900       0.999969
    12353.304500       1.000000
    12368.583800       1.000000
    12383.900900       0.999968
    12399.256000       0.999907
    12414.649300       0.999815
    12430.080800       0.999693
    12445.550700       0.999541
    12461.059200       0.999360
    12476.606400       0.999150
    12492.192400       0.998911
    12507.817400       0.998644
    12523.481500       0.998349
    12539.185000       0.998025
    12554.927800       0.997675
    12570.710200       0.997297
    12586.532400       0.996892
    12602.394500       0.996461
    12618.296500       0.996004
    12634.238800       0.995520
    12650.221400       0.995012
    12666.244500       0.994478
    12682.308200       0.993920
    12698.412700       0.993338
    12714.558200       0.992731
    12730.744700       0.992101
    12746.972600       0.991447
    12763.241900       0.990771
    12779.552700       0.990072
    12795.905300       0.989352
    12812.299800       0.988609
    12828.736400       0.987846
    12845.215200       0.987061
    12861.736300       0.986256
    12878.300100       0.985431
    12894.906500       0.984586
    12911.555800       0.983722
    12928.248200       0.982839
    12944.983800       0.981938
    12961.762800       0.981018
    12978.585300       0.980081
    12995.451600       0.979127
    13012.361700       0.978157
    13029.316000       0.977169
    13046.314400       0.976166
    13063.357300       0.975148
    13080.444700       0.974114
    13097.576900       0.973066
    13114.754100       0.972004
    13131.976400       0.970928
    13149.243900       0.969839
    13166.556900       0.968737
    13183.915600       0.967622
    13201.320100       0.966496
    13218.770700       0.965358
    13236.267400       0.964209
    13253.810500       0.963050
    13271.400100       0.961880
    13289.036500       0.960701
    13306.719900       0.959512
    13324.450400       0.958315
    13342.228200       0.957109
    13360.053400       0.955896
    13377.926400       0.954675
    13395.847300       0.953447
    13413.816200       0.952212
    13431.833400       0.950971
    13449.899100       0.949725
    13468.013500       0.948474
    13486.176700       0.947218
    13504.388900       0.945957
    13522.650400       0.944693
    13540.961400       0.943425
    13559.322000       0.942154
    13577.732500       0.940881
    13596.193100       0.939606
    13614.703900       0.938329
    13633.265200       0.937051
    13651.877100       0.935773
    13670.540000       0.934494
    13689.253900       0.933215
    13708.019200       0.931937
    13726.836000       0.930659
    13745.704500       0.929384
    13764.624900       0.928110
    13783.597500       0.926839
    13802.622500       0.925570
    13821.700100       0.924304
    13840.830400       0.923043
    13860.013900       0.921785
    13879.250500       0.920531
    13898.540700       0.919283
    13917.884500       0.918039
    13937.282200       0.916802
    13956.734100       0.915570
    13976.240400       0.914345
    13995.801300       0.913127
    14015.417000       0.911916
    14035.087700       0.910713
    14054.813800       0.909518
    14074.595400       0.908331
    14094.432700       0.907153
    14114.326000       0.905984
    14134.275600       0.904825
    14154.281700       0.903676
    14174.344400       0.902537
    14194.464200       0.901409
    14214.641100       0.900291
    14234.875400       0.899185
    14255.167500       0.898091
    14275.517500       0.897009
    14295.925700       0.895939
    14316.392300       0.894882
    14336.917600       0.893837
    14357.501800       0.892807
    14378.145200       0.891789
    14398.848100       0.890786
    14419.610700       0.889797
    14440.433200       0.888823
    14461.316000       0.887863
    14482.259200       0.886919
    14503.263200       0.885990
    14524.328200       0.885076
    14545.454500       0.884179
    14566.642400       0.883298
    14587.892000       0.882433
    14609.203800       0.881585
    14630.577900       0.880754
    14652.014700       0.879940
    14673.514300       0.879143
    14695.077100       0.878364
    14716.703500       0.877603
    14738.393500       0.876860
    14760.147600       0.876135
    14781.966000       0.875428
    14803.849000       0.874741
    14825.796900       0.874071
    14847.809900       0.873421
    14869.888500       0.872790
    14892.032800       0.872179
    14914.243100       0.871586
    14936.519800       0.871013
    14958.863100       0.870460
    14981.273400       0.869927
    15003.750900       0.869413
    15026.296000       0.868920
    15048.909000       0.868446
    15071.590100       0.867993
    15094.339600       0.867560
    15117.158000       0.867147
    15140.045400       0.866755
    15163.002300       0.866383
    15186.028900       0.866032
    15209.125500       0.865701
    15232.292500       0.865390
    15255.530100       0.865101
    15278.838800       0.864831
    15302.218800       0.864583
    15325.670500       0.864355
    15349.194200       0.864147
    15372.790200       0.863960
    15396.458800       0.863794
    15420.200500       0.863647
    15444.015400       0.863522
    15467.904100       0.863416
    15491.866800       0.863331
    15515.903800       0.863266
    15540.015500       0.863220
    15564.202300       0.863195
    15588.464500       0.863190
    15612.802500       0.863204
    15637.216600       0.863238
    15661.707100       0.863291
    15686.274500       0.863363
    15710.919100       0.863455
    15735.641200       0.863565
    15760.441300       0.863695
    15785.319700       0.863842
    15810.276700       0.864008
    15835.312700       0.864192
    15860.428200       0.864394
    15885.623500       0.864614
    15910.899000       0.864851
    15936.255000       0.865105
    15961.691900       0.865376
    15987.210200       0.865664
    16012.810200       0.865968
    16038.492400       0.866287
    16064.257000       0.866623
    16090.104600       0.866974
    16116.035500       0.867340
    16142.050000       0.867721
    16168.148700       0.868116
    16194.332000       0.868525
    16220.600200       0.868948
    16246.953700       0.869384
    16273.393000       0.869832
    16299.918500       0.870294
    16326.530600       0.870767
    16353.229800       0.871252
    16380.016400       0.871748
    16406.890900       0.872255
    16433.853700       0.872772
    16460.905300       0.873299
    16488.046200       0.873835
    16515.276600       0.874381
    16542.597200       0.874934
    16570.008300       0.875496
    16597.510400       0.876065
    16625.103900       0.876640
    16652.789300       0.877222
    16680.567100       0.877810
    16708.437800       0.878403
    16736.401700       0.879001
    16764.459300       0.879603
    16792.611300       0.880208
    16820.857900       0.880816
    16849.199700       0.881427
    16877.637100       0.882039
    16906.170800       0.882652
    16934.801000       0.883266
    16963.528400       0.883879
    16992.353400       0.884492
    17021.276600       0.885103
    17050.298400       0.885712
    17079.419300       0.886319
    17108.639900       0.886921
    17137.960600       0.887520
    17167.382000       0.888114
    17196.904600       0.888702
    17226.528900       0.889283
    17256.255400       0.889858
    17286.084700       0.890425
    17316.017300       0.890984
    17346.053800       0.891533
    17376.194600       0.892072
    17406.440400       0.892600
    17436.791600       0.893117
    17467.248900       0.893622
    17497.812800       0.894113
    17528.483800       0.894590
    17559.262500       0.895053
    17590.149500       0.895500
    17621.145400       0.895931
    17652.250700       0.896345
    17683.466000       0.896741
