38,   38, MVIRI VIS channel from srf_MET7_2002123_2002124_1801-Release_S10EE_10.dat
Number of data points:
793
Wavenumber (cm-1)   Filter response
     8442.380800       0.000000
     8449.514200       0.000000
     8456.659600       0.000004
     8463.817200       0.000054
     8470.986900       0.000159
     8478.168700       0.000317
     8485.362700       0.000528
     8492.569000       0.000790
     8499.787500       0.001101
     8507.018300       0.001460
     8514.261400       0.001865
     8521.516800       0.002315
     8528.784600       0.002809
     8536.064900       0.003346
     8543.357500       0.003924
     8550.662700       0.004542
     8557.980300       0.005200
     8565.310500       0.005896
     8572.653200       0.006629
     8580.008600       0.007398
     8587.376600       0.008202
     8594.757200       0.009041
     8602.150500       0.009913
     8609.556600       0.010818
     8616.975400       0.011755
     8624.407100       0.012723
     8631.851500       0.013722
     8639.308900       0.014750
     8646.779100       0.015807
     8654.262200       0.016893
     8661.758300       0.018007
     8669.267400       0.019148
     8676.789600       0.020315
     8684.324800       0.021509
     8691.873100       0.022729
     8699.434500       0.023974
     8707.009100       0.025244
     8714.596900       0.026538
     8722.198000       0.027856
     8729.812300       0.029198
     8737.439900       0.030564
     8745.080900       0.031952
     8752.735200       0.033363
     8760.403000       0.034797
     8768.084200       0.036253
     8775.778900       0.037731
     8783.487000       0.039231
     8791.208800       0.040752
     8798.944100       0.042295
     8806.693100       0.043859
     8814.455700       0.045443
     8822.232000       0.047049
     8830.022100       0.048675
     8837.825900       0.050323
     8845.643500       0.051990
     8853.475000       0.053678
     8861.320300       0.055387
     8869.179600       0.057116
     8877.052800       0.058865
     8884.940000       0.060635
     8892.841300       0.062424
     8900.756600       0.064234
     8908.686000       0.066064
     8916.629500       0.067915
     8924.587200       0.069785
     8932.559200       0.071676
     8940.545400       0.073587
     8948.545900       0.075518
     8956.560700       0.077470
     8964.589900       0.079442
     8972.633500       0.081434
     8980.691500       0.083447
     8988.764000       0.085480
     8996.851100       0.087534
     9004.952700       0.089608
     9013.068900       0.091703
     9021.199800       0.093819
     9029.345400       0.095956
     9037.505600       0.098114
     9045.680700       0.100293
     9053.870500       0.102493
     9062.075200       0.104714
     9070.294800       0.106956
     9078.529300       0.109220
     9086.778700       0.111506
     9095.043200       0.113813
     9103.322700       0.116141
     9111.617300       0.118492
     9119.927000       0.120864
     9128.251900       0.123258
     9136.592100       0.125674
     9144.947400       0.128113
     9153.318100       0.130573
     9161.704100       0.133056
     9170.105500       0.135562
     9178.522300       0.138090
     9186.954500       0.140640
     9195.402300       0.143213
     9203.865600       0.145809
     9212.344500       0.148427
     9220.839100       0.151069
     9229.349300       0.153733
     9237.875300       0.156421
     9246.417000       0.159132
     9254.974500       0.161865
     9263.547900       0.164623
     9272.137200       0.167403
     9280.742500       0.170206
     9289.363700       0.173033
     9298.000900       0.175884
     9306.654300       0.178757
     9315.323700       0.181654
     9324.009300       0.184575
     9332.711200       0.187520
     9341.429200       0.190487
     9350.163600       0.193479
     9358.914400       0.196494
     9367.681500       0.199532
     9376.465100       0.202594
     9385.265100       0.205680
     9394.081700       0.208789
     9402.914900       0.211921
     9411.764700       0.215078
     9420.631200       0.218258
     9429.514400       0.221460
     9438.414300       0.224687
     9447.331100       0.227937
     9456.264800       0.231210
     9465.215300       0.234506
     9474.182900       0.237825
     9483.167400       0.241168
     9492.169000       0.244533
     9501.187600       0.247922
     9510.223500       0.251334
     9519.276500       0.254767
     9528.346800       0.258224
     9537.434400       0.261704
     9546.539400       0.265205
     9555.661700       0.268729
     9564.801500       0.272275
     9573.958800       0.275843
     9583.133700       0.279434
     9592.326100       0.283045
     9601.536200       0.286679
     9610.764100       0.290333
     9620.009600       0.294010
     9629.273000       0.297707
     9638.554200       0.301425
     9647.853400       0.305164
     9657.170400       0.308923
     9666.505600       0.312703
     9675.858700       0.316503
     9685.230000       0.320322
     9694.619500       0.324162
     9704.027200       0.328021
     9713.453100       0.331899
     9722.897400       0.335797
     9732.360100       0.339713
     9741.841200       0.343648
     9751.340800       0.347601
     9760.859000       0.351572
     9770.395700       0.355561
     9779.951100       0.359567
     9789.525200       0.363591
     9799.118100       0.367632
     9808.729800       0.371689
     9818.360300       0.375763
     9828.009800       0.379852
     9837.678300       0.383958
     9847.365800       0.388079
     9857.072400       0.392215
     9866.798200       0.396367
     9876.543200       0.400532
     9886.307500       0.404712
     9896.091000       0.408906
     9905.894000       0.413113
     9915.716400       0.417334
     9925.558300       0.421567
     9935.419800       0.425813
     9945.300800       0.430071
     9955.201600       0.434340
     9965.122100       0.438622
     9975.062300       0.442914
     9985.022500       0.447217
     9995.002500       0.451530
    10005.002500       0.455853
    10015.022500       0.460186
    10025.062700       0.464528
    10035.122900       0.468878
    10045.203400       0.473237
    10055.304200       0.477604
    10065.425300       0.481979
    10075.566800       0.486360
    10085.728700       0.490749
    10095.911200       0.495144
    10106.114200       0.499544
    10116.337900       0.503950
    10126.582300       0.508361
    10136.847400       0.512777
    10147.133400       0.517197
    10157.440300       0.521621
    10167.768200       0.526048
    10178.117000       0.530478
    10188.487000       0.534911
    10198.878100       0.539346
    10209.290500       0.543782
    10219.724100       0.548219
    10230.179000       0.552657
    10240.655400       0.557096
    10251.153300       0.561534
    10261.672700       0.565971
    10272.213700       0.570407
    10282.776300       0.574842
    10293.360800       0.579275
    10303.967000       0.583705
    10314.595200       0.588133
    10325.245200       0.592557
    10335.917300       0.596977
    10346.611500       0.601393
    10357.327800       0.605804
    10368.066400       0.610210
    10378.827200       0.614611
    10389.610400       0.619005
    10400.416000       0.623393
    10411.244100       0.627773
    10422.094800       0.632146
    10432.968200       0.636511
    10443.864200       0.640868
    10454.783100       0.645216
    10465.724800       0.649554
    10476.689400       0.653882
    10487.677000       0.658201
    10498.687700       0.662508
    10509.721500       0.666805
    10520.778500       0.671089
    10531.858900       0.675362
    10542.962600       0.679622
    10554.089700       0.683869
    10565.240400       0.688102
    10576.414600       0.692322
    10587.612500       0.696527
    10598.834100       0.700718
    10610.079600       0.704893
    10621.348900       0.709052
    10632.642200       0.713196
    10643.959600       0.717323
    10655.301000       0.721432
    10666.666700       0.725525
    10678.056600       0.729599
    10689.470900       0.733655
    10700.909600       0.737693
    10712.372800       0.741711
    10723.860600       0.745709
    10735.373100       0.749688
    10746.910300       0.753646
    10758.472300       0.757584
    10770.059200       0.761500
    10781.671200       0.765394
    10793.308100       0.769267
    10804.970300       0.773117
    10816.657700       0.776944
    10828.370300       0.780748
    10840.108400       0.784528
    10851.871900       0.788284
    10863.661100       0.792016
    10875.475800       0.795723
    10887.316300       0.799405
    10899.182600       0.803061
    10911.074700       0.806692
    10922.992900       0.810296
    10934.937100       0.813874
    10946.907500       0.817425
    10958.904100       0.820948
    10970.927000       0.824444
    10982.976400       0.827912
    10995.052200       0.831351
    11007.154700       0.834762
    11019.283700       0.838143
    11031.439600       0.841496
    11043.622300       0.844819
    11055.832000       0.848112
    11068.068600       0.851375
    11080.332400       0.854607
    11092.623400       0.857808
    11104.941700       0.860978
    11117.287400       0.864117
    11129.660500       0.867224
    11142.061300       0.870299
    11154.489700       0.873342
    11166.945800       0.876353
    11179.429800       0.879330
    11191.941800       0.882275
    11204.481800       0.885187
    11217.049900       0.888065
    11229.646300       0.890909
    11242.270900       0.893719
    11254.924000       0.896495
    11267.605600       0.899237
    11280.315800       0.901944
    11293.054800       0.904616
    11305.822500       0.907253
    11318.619100       0.909856
    11331.444800       0.912422
    11344.299500       0.914953
    11357.183400       0.917449
    11370.096600       0.919908
    11383.039300       0.922332
    11396.011400       0.924719
    11409.013100       0.927069
    11422.044500       0.929384
    11435.105800       0.931661
    11448.196900       0.933902
    11461.318100       0.936106
    11474.469300       0.938273
    11487.650800       0.940402
    11500.862600       0.942495
    11514.104800       0.944550
    11527.377500       0.946568
    11540.680900       0.948548
    11554.015000       0.950490
    11567.380000       0.952395
    11580.775900       0.954262
    11594.202900       0.956092
    11607.661100       0.957883
    11621.150500       0.959637
    11634.671300       0.961352
    11648.223600       0.963030
    11661.807600       0.964670
    11675.423200       0.966271
    11689.070700       0.967835
    11702.750100       0.969360
    11716.461600       0.970848
    11730.205300       0.972298
    11743.981200       0.973709
    11757.789500       0.975083
    11771.630400       0.976418
    11785.503800       0.977716
    11799.410000       0.978976
    11813.349100       0.980198
    11827.321100       0.981382
    11841.326200       0.982528
    11855.364600       0.983637
    11869.436200       0.984708
    11883.541300       0.985742
    11897.680000       0.986738
    11911.852300       0.987697
    11926.058400       0.988619
    11940.298500       0.989504
    11954.572600       0.990352
    11968.880900       0.991162
    11983.223500       0.991936
    11997.600500       0.992674
    12012.012000       0.993375
    12026.458200       0.994039
    12040.939200       0.994668
    12055.455100       0.995260
    12070.006000       0.995817
    12084.592100       0.996338
    12099.213600       0.996823
    12113.870400       0.997273
    12128.562800       0.997688
    12143.290800       0.998067
    12158.054700       0.998413
    12172.854500       0.998723
    12187.690400       0.998999
    12202.562500       0.999241
    12217.471000       0.999450
    12232.415900       0.999624
    12247.397400       0.999765
    12262.415700       0.999873
    12277.470800       0.999948
    12292.563000       0.999990
    12307.692300       1.000000
    12322.858900       0.999978
    12338.062900       0.999923
    12353.304500       0.999837
    12368.583800       0.999720
    12383.900900       0.999572
    12399.256000       0.999393
    12414.649300       0.999183
    12430.080800       0.998943
    12445.550700       0.998673
    12461.059200       0.998374
    12476.606400       0.998046
    12492.192400       0.997688
    12507.817400       0.997302
    12523.481500       0.996888
    12539.185000       0.996445
    12554.927800       0.995975
    12570.710200       0.995478
    12586.532400       0.994954
    12602.394500       0.994403
    12618.296500       0.993826
    12634.238800       0.993223
    12650.221400       0.992594
    12666.244500       0.991941
    12682.308200       0.991262
    12698.412700       0.990559
    12714.558200       0.989833
    12730.744700       0.989082
    12746.972600       0.988308
    12763.241900       0.987512
    12779.552700       0.986693
    12795.905300       0.985852
    12812.299800       0.984989
    12828.736400       0.984105
    12845.215200       0.983200
    12861.736300       0.982274
    12878.300100       0.981329
    12894.906500       0.980363
    12911.555800       0.979379
    12928.248200       0.978376
    12944.983800       0.977354
    12961.762800       0.976314
    12978.585300       0.975257
    12995.451600       0.974183
    13012.361700       0.973092
    13029.316000       0.971985
    13046.314400       0.970862
    13063.357300       0.969723
    13080.444700       0.968570
    13097.576900       0.967402
    13114.754100       0.966220
    13131.976400       0.965024
    13149.243900       0.963816
    13166.556900       0.962594
    13183.915600       0.961360
    13201.320100       0.960115
    13218.770700       0.958858
    13236.267400       0.957590
    13253.810500       0.956311
    13271.400100       0.955022
    13289.036500       0.953724
    13306.719900       0.952417
    13324.450400       0.951101
    13342.228200       0.949777
    13360.053400       0.948445
    13377.926400       0.947105
    13395.847300       0.945759
    13413.816200       0.944406
    13431.833400       0.943048
    13449.899100       0.941683
    13468.013500       0.940314
    13486.176700       0.938940
    13504.388900       0.937562
    13522.650400       0.936180
    13540.961400       0.934795
    13559.322000       0.933407
    13577.732500       0.932016
    13596.193100       0.930624
    13614.703900       0.929230
    13633.265200       0.927835
    13651.877100       0.926439
    13670.540000       0.925044
    13689.253900       0.923648
    13708.019200       0.922253
    13726.836000       0.920859
    13745.704500       0.919467
    13764.624900       0.918076
    13783.597500       0.916688
    13802.622500       0.915303
    13821.700100       0.913921
    13840.830400       0.912543
    13860.013900       0.911169
    13879.250500       0.909799
    13898.540700       0.908434
    13917.884500       0.907074
    13937.282200       0.905720
    13956.734100       0.904372
    13976.240400       0.903031
    13995.801300       0.901696
    14015.417000       0.900369
    14035.087700       0.899049
    14054.813800       0.897737
    14074.595400       0.896434
    14094.432700       0.895139
    14114.326000       0.893853
    14134.275600       0.892577
    14154.281700       0.891311
    14174.344400       0.890055
    14194.464200       0.888810
    14214.641100       0.887575
    14234.875400       0.886352
    14255.167500       0.885140
    14275.517500       0.883940
    14295.925700       0.882752
    14316.392300       0.881577
    14336.917600       0.880415
    14357.501800       0.879266
    14378.145200       0.878130
    14398.848100       0.877008
    14419.610700       0.875900
    14440.433200       0.874807
    14461.316000       0.873728
    14482.259200       0.872663
    14503.263200       0.871614
    14524.328200       0.870581
    14545.454500       0.869563
    14566.642400       0.868561
    14587.892000       0.867575
    14609.203800       0.866606
    14630.577900       0.865653
    14652.014700       0.864717
    14673.514300       0.863798
    14695.077100       0.862896
    14716.703500       0.862012
    14738.393500       0.861145
    14760.147600       0.860297
    14781.966000       0.859466
    14803.849000       0.858653
    14825.796900       0.857859
    14847.809900       0.857083
    14869.888500       0.856326
    14892.032800       0.855588
    14914.243100       0.854868
    14936.519800       0.854168
    14958.863100       0.853487
    14981.273400       0.852825
    15003.750900       0.852182
    15026.296000       0.851559
    15048.909000       0.850955
    15071.590100       0.850371
    15094.339600       0.849807
    15117.158000       0.849263
    15140.045400       0.848738
    15163.002300       0.848233
    15186.028900       0.847748
    15209.125500       0.847283
    15232.292500       0.846837
    15255.530100       0.846412
    15278.838800       0.846006
    15302.218800       0.845621
    15325.670500       0.845255
    15349.194200       0.844909
    15372.790200       0.844583
    15396.458800       0.844277
    15420.200500       0.843990
    15444.015400       0.843723
    15467.904100       0.843476
    15491.866800       0.843248
    15515.903800       0.843039
    15540.015500       0.842850
    15564.202300       0.842680
    15588.464500       0.842528
    15612.802500       0.842396
    15637.216600       0.842283
    15661.707100       0.842188
    15686.274500       0.842111
    15710.919100       0.842053
    15735.641200       0.842013
    15760.441300       0.841990
    15785.319700       0.841986
    15810.276700       0.841999
    15835.312700       0.842029
    15860.428200       0.842076
    15885.623500       0.842140
    15910.899000       0.842220
    15936.255000       0.842317
    15961.691900       0.842430
    15987.210200       0.842558
    16012.810200       0.842702
    16038.492400       0.842861
    16064.257000       0.843035
    16090.104600       0.843224
    16116.035500       0.843426
    16142.050000       0.843642
    16168.148700       0.843872
    16194.332000       0.844115
    16220.600200       0.844371
    16246.953700       0.844639
    16273.393000       0.844919
    16299.918500       0.845211
    16326.530600       0.845514
    16353.229800       0.845828
    16380.016400       0.846152
    16406.890900       0.846486
    16433.853700       0.846829
    16460.905300       0.847182
    16488.046200       0.847543
    16515.276600       0.847912
    16542.597200       0.848288
    16570.008300       0.848672
    16597.510400       0.849062
    16625.103900       0.849459
    16652.789300       0.849861
    16680.567100       0.850268
    16708.437800       0.850679
    16736.401700       0.851094
    16764.459300       0.851513
    16792.611300       0.851935
    16820.857900       0.852359
    16849.199700       0.852784
    16877.637100       0.853211
    16906.170800       0.853638
    16934.801000       0.854064
    16963.528400       0.854491
    16992.353400       0.854915
    17021.276600       0.855338
    17050.298400       0.855758
    17079.419300       0.856174
    17108.639900       0.856587
    17137.960600       0.856995
    17167.382000       0.857398
    17196.904600       0.857795
    17226.528900       0.858185
    17256.255400       0.858567
    17286.084700       0.858942
    17316.017300       0.859308
    17346.053800       0.859664
    17376.194600       0.860010
    17406.440400       0.860345
    17436.791600       0.860668
    17467.248900       0.860979
    17497.812800       0.861277
    17528.483800       0.861560
    17559.262500       0.861829
    17590.149500       0.862083
    17621.145400       0.862320
    17652.250700       0.862540
    17683.466000       0.862742
