20,   20, MVIRI VIS channel from srf_MET4_1991348_1991349_1801-Release_S10EL_10.dat
Number of data points:
752
Wavenumber (cm-1)   Filter response
     8745.080900       0.000000
     8752.735200       0.000000
     8760.403000       0.000001
     8768.084200       0.000059
     8775.778900       0.000199
     8783.487000       0.000420
     8791.208800       0.000718
     8798.944100       0.001092
     8806.693100       0.001540
     8814.455700       0.002058
     8822.232000       0.002645
     8830.022100       0.003300
     8837.825900       0.004019
     8845.643500       0.004800
     8853.475000       0.005643
     8861.320300       0.006545
     8869.179600       0.007505
     8877.052800       0.008520
     8884.940000       0.009588
     8892.841300       0.010710
     8900.756600       0.011882
     8908.686000       0.013103
     8916.629500       0.014372
     8924.587200       0.015688
     8932.559200       0.017048
     8940.545400       0.018452
     8948.545900       0.019899
     8956.560700       0.021386
     8964.589900       0.022914
     8972.633500       0.024480
     8980.691500       0.026085
     8988.764000       0.027726
     8996.851100       0.029402
     9004.952700       0.031113
     9013.068900       0.032858
     9021.199800       0.034636
     9029.345400       0.036445
     9037.505600       0.038286
     9045.680700       0.040156
     9053.870500       0.042056
     9062.075200       0.043986
     9070.294800       0.045943
     9078.529300       0.047927
     9086.778700       0.049938
     9095.043200       0.051975
     9103.322700       0.054037
     9111.617300       0.056124
     9119.927000       0.058236
     9128.251900       0.060371
     9136.592100       0.062530
     9144.947400       0.064711
     9153.318100       0.066915
     9161.704100       0.069140
     9170.105500       0.071388
     9178.522300       0.073656
     9186.954500       0.075945
     9195.402300       0.078255
     9203.865600       0.080585
     9212.344500       0.082935
     9220.839100       0.085304
     9229.349300       0.087692
     9237.875300       0.090100
     9246.417000       0.092526
     9254.974500       0.094971
     9263.547900       0.097434
     9272.137200       0.099915
     9280.742500       0.102414
     9289.363700       0.104931
     9298.000900       0.107466
     9306.654300       0.110018
     9315.323700       0.112588
     9324.009300       0.115175
     9332.711200       0.117779
     9341.429200       0.120399
     9350.163600       0.123038
     9358.914400       0.125692
     9367.681500       0.128364
     9376.465100       0.131053
     9385.265100       0.133758
     9394.081700       0.136480
     9402.914900       0.139218
     9411.764700       0.141973
     9420.631200       0.144745
     9429.514400       0.147533
     9438.414300       0.150337
     9447.331100       0.153158
     9456.264800       0.155996
     9465.215300       0.158850
     9474.182900       0.161721
     9483.167400       0.164608
     9492.169000       0.167511
     9501.187600       0.170432
     9510.223500       0.173368
     9519.276500       0.176321
     9528.346800       0.179291
     9537.434400       0.182278
     9546.539400       0.185281
     9555.661700       0.188301
     9564.801500       0.191337
     9573.958800       0.194390
     9583.133700       0.197460
     9592.326100       0.200546
     9601.536200       0.203649
     9610.764100       0.206769
     9620.009600       0.209906
     9629.273000       0.213060
     9638.554200       0.216230
     9647.853400       0.219418
     9657.170400       0.222622
     9666.505600       0.225843
     9675.858700       0.229081
     9685.230000       0.232336
     9694.619500       0.235608
     9704.027200       0.238896
     9713.453100       0.242202
     9722.897400       0.245525
     9732.360100       0.248865
     9741.841200       0.252221
     9751.340800       0.255595
     9760.859000       0.258985
     9770.395700       0.262393
     9779.951100       0.265817
     9789.525200       0.269258
     9799.118100       0.272716
     9808.729800       0.276191
     9818.360300       0.279682
     9828.009800       0.283190
     9837.678300       0.286715
     9847.365800       0.290257
     9857.072400       0.293815
     9866.798200       0.297390
     9876.543200       0.300981
     9886.307500       0.304589
     9896.091000       0.308213
     9905.894000       0.311853
     9915.716400       0.315509
     9925.558300       0.319182
     9935.419800       0.322870
     9945.300800       0.326575
     9955.201600       0.330295
     9965.122100       0.334031
     9975.062300       0.337782
     9985.022500       0.341549
     9995.002500       0.345331
    10005.002500       0.349129
    10015.022500       0.352941
    10025.062700       0.356768
    10035.122900       0.360611
    10045.203400       0.364467
    10055.304200       0.368339
    10065.425300       0.372224
    10075.566800       0.376124
    10085.728700       0.380038
    10095.911200       0.383965
    10106.114200       0.387907
    10116.337900       0.391861
    10126.582300       0.395829
    10136.847400       0.399809
    10147.133400       0.403803
    10157.440300       0.407809
    10167.768200       0.411828
    10178.117000       0.415859
    10188.487000       0.419901
    10198.878100       0.423956
    10209.290500       0.428022
    10219.724100       0.432099
    10230.179000       0.436187
    10240.655400       0.440286
    10251.153300       0.444395
    10261.672700       0.448514
    10272.213700       0.452643
    10282.776300       0.456782
    10293.360800       0.460931
    10303.967000       0.465088
    10314.595200       0.469254
    10325.245200       0.473429
    10335.917300       0.477612
    10346.611500       0.481802
    10357.327800       0.486001
    10368.066400       0.490206
    10378.827200       0.494419
    10389.610400       0.498638
    10400.416000       0.502864
    10411.244100       0.507095
    10422.094800       0.511332
    10432.968200       0.515574
    10443.864200       0.519822
    10454.783100       0.524074
    10465.724800       0.528330
    10476.689400       0.532590
    10487.677000       0.536854
    10498.687700       0.541121
    10509.721500       0.545391
    10520.778500       0.549663
    10531.858900       0.553937
    10542.962600       0.558213
    10554.089700       0.562490
    10565.240400       0.566769
    10576.414600       0.571047
    10587.612500       0.575326
    10598.834100       0.579605
    10610.079600       0.583883
    10621.348900       0.588160
    10632.642200       0.592436
    10643.959600       0.596710
    10655.301000       0.600982
    10666.666700       0.605251
    10678.056600       0.609517
    10689.470900       0.613780
    10700.909600       0.618039
    10712.372800       0.622293
    10723.860600       0.626543
    10735.373100       0.630788
    10746.910300       0.635027
    10758.472300       0.639261
    10770.059200       0.643488
    10781.671200       0.647708
    10793.308100       0.651921
    10804.970300       0.656127
    10816.657700       0.660324
    10828.370300       0.664513
    10840.108400       0.668693
    10851.871900       0.672864
    10863.661100       0.677025
    10875.475800       0.681176
    10887.316300       0.685316
    10899.182600       0.689446
    10911.074700       0.693564
    10922.992900       0.697669
    10934.937100       0.701763
    10946.907500       0.705844
    10958.904100       0.709911
    10970.927000       0.713965
    10982.976400       0.718005
    10995.052200       0.722031
    11007.154700       0.726042
    11019.283700       0.730037
    11031.439600       0.734017
    11043.622300       0.737980
    11055.832000       0.741927
    11068.068600       0.745857
    11080.332400       0.749769
    11092.623400       0.753664
    11104.941700       0.757540
    11117.287400       0.761398
    11129.660500       0.765237
    11142.061300       0.769056
    11154.489700       0.772855
    11166.945800       0.776634
    11179.429800       0.780392
    11191.941800       0.784129
    11204.481800       0.787845
    11217.049900       0.791538
    11229.646300       0.795209
    11242.270900       0.798858
    11254.924000       0.802484
    11267.605600       0.806086
    11280.315800       0.809664
    11293.054800       0.813217
    11305.822500       0.816746
    11318.619100       0.820251
    11331.444800       0.823730
    11344.299500       0.827183
    11357.183400       0.830609
    11370.096600       0.834010
    11383.039300       0.837383
    11396.011400       0.840730
    11409.013100       0.844048
    11422.044500       0.847339
    11435.105800       0.850602
    11448.196900       0.853836
    11461.318100       0.857041
    11474.469300       0.860217
    11487.650800       0.863363
    11500.862600       0.866480
    11514.104800       0.869566
    11527.377500       0.872621
    11540.680900       0.875646
    11554.015000       0.878639
    11567.380000       0.881602
    11580.775900       0.884532
    11594.202900       0.887430
    11607.661100       0.890296
    11621.150500       0.893129
    11634.671300       0.895929
    11648.223600       0.898697
    11661.807600       0.901430
    11675.423200       0.904130
    11689.070700       0.906796
    11702.750100       0.909428
    11716.461600       0.912026
    11730.205300       0.914588
    11743.981200       0.917116
    11757.789500       0.919608
    11771.630400       0.922066
    11785.503800       0.924487
    11799.410000       0.926873
    11813.349100       0.929222
    11827.321100       0.931536
    11841.326200       0.933813
    11855.364600       0.936053
    11869.436200       0.938256
    11883.541300       0.940423
    11897.680000       0.942552
    11911.852300       0.944644
    11926.058400       0.946699
    11940.298500       0.948716
    11954.572600       0.950695
    11968.880900       0.952636
    11983.223500       0.954539
    11997.600500       0.956403
    12012.012000       0.958230
    12026.458200       0.960018
    12040.939200       0.961767
    12055.455100       0.963478
    12070.006000       0.965150
    12084.592100       0.966783
    12099.213600       0.968377
    12113.870400       0.969932
    12128.562800       0.971448
    12143.290800       0.972925
    12158.054700       0.974363
    12172.854500       0.975761
    12187.690400       0.977120
    12202.562500       0.978439
    12217.471000       0.979720
    12232.415900       0.980960
    12247.397400       0.982161
    12262.415700       0.983323
    12277.470800       0.984445
    12292.563000       0.985528
    12307.692300       0.986571
    12322.858900       0.987575
    12338.062900       0.988539
    12353.304500       0.989464
    12368.583800       0.990350
    12383.900900       0.991196
    12399.256000       0.992002
    12414.649300       0.992770
    12430.080800       0.993498
    12445.550700       0.994187
    12461.059200       0.994837
    12476.606400       0.995448
    12492.192400       0.996020
    12507.817400       0.996553
    12523.481500       0.997047
    12539.185000       0.997503
    12554.927800       0.997920
    12570.710200       0.998298
    12586.532400       0.998639
    12602.394500       0.998941
    12618.296500       0.999205
    12634.238800       0.999431
    12650.221400       0.999619
    12666.244500       0.999770
    12682.308200       0.999883
    12698.412700       0.999959
    12714.558200       0.999998
    12730.744700       1.000000
    12746.972600       0.999965
    12763.241900       0.999894
    12779.552700       0.999786
    12795.905300       0.999641
    12812.299800       0.999461
    12828.736400       0.999245
    12845.215200       0.998994
    12861.736300       0.998707
    12878.300100       0.998385
    12894.906500       0.998028
    12911.555800       0.997637
    12928.248200       0.997211
    12944.983800       0.996751
    12961.762800       0.996257
    12978.585300       0.995730
    12995.451600       0.995169
    13012.361700       0.994575
    13029.316000       0.993948
    13046.314400       0.993289
    13063.357300       0.992597
    13080.444700       0.991873
    13097.576900       0.991118
    13114.754100       0.990332
    13131.976400       0.989514
    13149.243900       0.988666
    13166.556900       0.987787
    13183.915600       0.986878
    13201.320100       0.985940
    13218.770700       0.984972
    13236.267400       0.983975
    13253.810500       0.982949
    13271.400100       0.981895
    13289.036500       0.980812
    13306.719900       0.979702
    13324.450400       0.978565
    13342.228200       0.977400
    13360.053400       0.976209
    13377.926400       0.974992
    13395.847300       0.973749
    13413.816200       0.972480
    13431.833400       0.971186
    13449.899100       0.969868
    13468.013500       0.968525
    13486.176700       0.967158
    13504.388900       0.965767
    13522.650400       0.964354
    13540.961400       0.962917
    13559.322000       0.961458
    13577.732500       0.959978
    13596.193100       0.958475
    13614.703900       0.956952
    13633.265200       0.955407
    13651.877100       0.953843
    13670.540000       0.952258
    13689.253900       0.950654
    13708.019200       0.949031
    13726.836000       0.947390
    13745.704500       0.945730
    13764.624900       0.944052
    13783.597500       0.942357
    13802.622500       0.940646
    13821.700100       0.938917
    13840.830400       0.937173
    13860.013900       0.935413
    13879.250500       0.933638
    13898.540700       0.931848
    13917.884500       0.930044
    13937.282200       0.928226
    13956.734100       0.926395
    13976.240400       0.924551
    13995.801300       0.922694
    14015.417000       0.920826
    14035.087700       0.918945
    14054.813800       0.917054
    14074.595400       0.915152
    14094.432700       0.913240
    14114.326000       0.911318
    14134.275600       0.909387
    14154.281700       0.907446
    14174.344400       0.905498
    14194.464200       0.903541
    14214.641100       0.901577
    14234.875400       0.899606
    14255.167500       0.897628
    14275.517500       0.895644
    14295.925700       0.893655
    14316.392300       0.891659
    14336.917600       0.889660
    14357.501800       0.887656
    14378.145200       0.885647
    14398.848100       0.883636
    14419.610700       0.881621
    14440.433200       0.879604
    14461.316000       0.877584
    14482.259200       0.875563
    14503.263200       0.873541
    14524.328200       0.871517
    14545.454500       0.869494
    14566.642400       0.867470
    14587.892000       0.865447
    14609.203800       0.863424
    14630.577900       0.861403
    14652.014700       0.859383
    14673.514300       0.857366
    14695.077100       0.855351
    14716.703500       0.853339
    14738.393500       0.851330
    14760.147600       0.849325
    14781.966000       0.847325
    14803.849000       0.845328
    14825.796900       0.843337
    14847.809900       0.841351
    14869.888500       0.839371
    14892.032800       0.837397
    14914.243100       0.835429
    14936.519800       0.833468
    14958.863100       0.831515
    14981.273400       0.829569
    15003.750900       0.827631
    15026.296000       0.825701
    15048.909000       0.823780
    15071.590100       0.821868
    15094.339600       0.819966
    15117.158000       0.818073
    15140.045400       0.816190
    15163.002300       0.814318
    15186.028900       0.812456
    15209.125500       0.810606
    15232.292500       0.808766
    15255.530100       0.806939
    15278.838800       0.805123
    15302.218800       0.803320
    15325.670500       0.801529
    15349.194200       0.799751
    15372.790200       0.797986
    15396.458800       0.796235
    15420.200500       0.794497
    15444.015400       0.792773
    15467.904100       0.791064
    15491.866800       0.789369
    15515.903800       0.787688
    15540.015500       0.786023
    15564.202300       0.784372
    15588.464500       0.782737
    15612.802500       0.781118
    15637.216600       0.779515
    15661.707100       0.777927
    15686.274500       0.776356
    15710.919100       0.774801
    15735.641200       0.773263
    15760.441300       0.771741
    15785.319700       0.770237
    15810.276700       0.768749
    15835.312700       0.767279
    15860.428200       0.765826
    15885.623500       0.764391
    15910.899000       0.762974
    15936.255000       0.761574
    15961.691900       0.760192
    15987.210200       0.758828
    16012.810200       0.757482
    16038.492400       0.756155
    16064.257000       0.754845
    16090.104600       0.753555
    16116.035500       0.752282
    16142.050000       0.751028
    16168.148700       0.749792
    16194.332000       0.748576
    16220.600200       0.747377
    16246.953700       0.746198
    16273.393000       0.745036
    16299.918500       0.743894
    16326.530600       0.742770
    16353.229800       0.741665
    16380.016400       0.740579
    16406.890900       0.739511
    16433.853700       0.738461
    16460.905300       0.737430
    16488.046200       0.736418
    16515.276600       0.735423
    16542.597200       0.734448
    16570.008300       0.733490
    16597.510400       0.732551
    16625.103900       0.731629
    16652.789300       0.730725
    16680.567100       0.729840
    16708.437800       0.728971
    16736.401700       0.728121
    16764.459300       0.727287
    16792.611300       0.726471
    16820.857900       0.725672
    16849.199700       0.724890
    16877.637100       0.724125
    16906.170800       0.723376
    16934.801000       0.722643
    16963.528400       0.721926
    16992.353400       0.721225
    17021.276600       0.720540
    17050.298400       0.719870
    17079.419300       0.719215
    17108.639900       0.718575
    17137.960600       0.717950
    17167.382000       0.717339
    17196.904600       0.716742
    17226.528900       0.716158
    17256.255400       0.715589
    17286.084700       0.715032
    17316.017300       0.714487
    17346.053800       0.713956
    17376.194600       0.713436
    17406.440400       0.712928
    17436.791600       0.712431
    17467.248900       0.711946
    17497.812800       0.711471
    17528.483800       0.711006
    17559.262500       0.710551
    17590.149500       0.710105
    17621.145400       0.709668
    17652.250700       0.709240
    17683.466000       0.708820
    17714.791900       0.708407
    17746.228900       0.708002
    17777.777800       0.707604
    17809.439000       0.707211
    17841.213200       0.706825
    17873.101000       0.706444
    17905.103000       0.706067
    17937.219700       0.705695
    17969.451900       0.705327
    18001.800200       0.704962
    18034.265100       0.704599
    18066.847300       0.704239
    18099.547500       0.703880
    18132.366300       0.703523
    18165.304300       0.703166
    18198.362100       0.702809
    18231.540600       0.702451
    18264.840200       0.702092
    18298.261700       0.701731
    18331.805700       0.701368
    18365.472900       0.701002
    18399.264000       0.700632
    18433.179700       0.700258
    18467.220700       0.699879
    18501.387600       0.699495
    18535.681200       0.699104
    18570.102100       0.698707
    18604.651200       0.698302
    18639.329000       0.697889
    18674.136300       0.697468
    18709.073900       0.697037
    18744.142500       0.696595
    18779.342700       0.696143
    18814.675400       0.695680
    18850.141400       0.695204
    18885.741300       0.694715
    18921.475900       0.694213
    18957.346000       0.693697
    18993.352300       0.693165
    19029.495700       0.692618
    19065.776900       0.692054
