36,   36, MVIRI VIS channel from srf_MET4_1993348_1993349_1801-Release_S10EL_10.dat
Number of data points:
752
Wavenumber (cm-1)   Filter response
     8745.080900       0.000000
     8752.735200       0.000000
     8760.403000       0.000001
     8768.084200       0.000060
     8775.778900       0.000202
     8783.487000       0.000426
     8791.208800       0.000728
     8798.944100       0.001107
     8806.693100       0.001561
     8814.455700       0.002086
     8822.232000       0.002682
     8830.022100       0.003345
     8837.825900       0.004073
     8845.643500       0.004866
     8853.475000       0.005720
     8861.320300       0.006634
     8869.179600       0.007606
     8877.052800       0.008634
     8884.940000       0.009717
     8892.841300       0.010853
     8900.756600       0.012041
     8908.686000       0.013278
     8916.629500       0.014563
     8924.587200       0.015896
     8932.559200       0.017273
     8940.545400       0.018696
     8948.545900       0.020161
     8956.560700       0.021667
     8964.589900       0.023214
     8972.633500       0.024800
     8980.691500       0.026424
     8988.764000       0.028086
     8996.851100       0.029783
     9004.952700       0.031515
     9013.068900       0.033281
     9021.199800       0.035081
     9029.345400       0.036913
     9037.505600       0.038775
     9045.680700       0.040669
     9053.870500       0.042592
     9062.075200       0.044544
     9070.294800       0.046524
     9078.529300       0.048532
     9086.778700       0.050566
     9095.043200       0.052627
     9103.322700       0.054713
     9111.617300       0.056825
     9119.927000       0.058961
     9128.251900       0.061121
     9136.592100       0.063304
     9144.947400       0.065510
     9153.318100       0.067739
     9161.704100       0.069989
     9170.105500       0.072262
     9178.522300       0.074556
     9186.954500       0.076870
     9195.402300       0.079205
     9203.865600       0.081560
     9212.344500       0.083936
     9220.839100       0.086331
     9229.349300       0.088745
     9237.875300       0.091178
     9246.417000       0.093630
     9254.974500       0.096101
     9263.547900       0.098590
     9272.137200       0.101097
     9280.742500       0.103622
     9289.363700       0.106165
     9298.000900       0.108726
     9306.654300       0.111304
     9315.323700       0.113900
     9324.009300       0.116513
     9332.711200       0.119143
     9341.429200       0.121790
     9350.163600       0.124454
     9358.914400       0.127135
     9367.681500       0.129833
     9376.465100       0.132548
     9385.265100       0.135279
     9394.081700       0.138027
     9402.914900       0.140791
     9411.764700       0.143573
     9420.631200       0.146370
     9429.514400       0.149184
     9438.414300       0.152015
     9447.331100       0.154862
     9456.264800       0.157726
     9465.215300       0.160606
     9474.182900       0.163502
     9483.167400       0.166416
     9492.169000       0.169345
     9501.187600       0.172291
     9510.223500       0.175254
     9519.276500       0.178233
     9528.346800       0.181228
     9537.434400       0.184241
     9546.539400       0.187269
     9555.661700       0.190315
     9564.801500       0.193376
     9573.958800       0.196455
     9583.133700       0.199550
     9592.326100       0.202662
     9601.536200       0.205791
     9610.764100       0.208936
     9620.009600       0.212098
     9629.273000       0.215277
     9638.554200       0.218472
     9647.853400       0.221685
     9657.170400       0.224914
     9666.505600       0.228160
     9675.858700       0.231423
     9685.230000       0.234703
     9694.619500       0.238000
     9704.027200       0.241313
     9713.453100       0.244643
     9722.897400       0.247991
     9732.360100       0.251354
     9741.841200       0.254736
     9751.340800       0.258133
     9760.859000       0.261548
     9770.395700       0.264979
     9779.951100       0.268427
     9789.525200       0.271893
     9799.118100       0.275374
     9808.729800       0.278873
     9818.360300       0.282388
     9828.009800       0.285919
     9837.678300       0.289468
     9847.365800       0.293033
     9857.072400       0.296614
     9866.798200       0.300212
     9876.543200       0.303826
     9886.307500       0.307456
     9896.091000       0.311103
     9905.894000       0.314765
     9915.716400       0.318444
     9925.558300       0.322139
     9935.419800       0.325849
     9945.300800       0.329576
     9955.201600       0.333317
     9965.122100       0.337075
     9975.062300       0.340848
     9985.022500       0.344636
     9995.002500       0.348440
    10005.002500       0.352258
    10015.022500       0.356091
    10025.062700       0.359939
    10035.122900       0.363802
    10045.203400       0.367679
    10055.304200       0.371571
    10065.425300       0.375476
    10075.566800       0.379396
    10085.728700       0.383329
    10095.911200       0.387276
    10106.114200       0.391236
    10116.337900       0.395210
    10126.582300       0.399196
    10136.847400       0.403196
    10147.133400       0.407208
    10157.440300       0.411232
    10167.768200       0.415269
    10178.117000       0.419317
    10188.487000       0.423377
    10198.878100       0.427449
    10209.290500       0.431532
    10219.724100       0.435626
    10230.179000       0.439730
    10240.655400       0.443845
    10251.153300       0.447970
    10261.672700       0.452106
    10272.213700       0.456250
    10282.776300       0.460405
    10293.360800       0.464568
    10303.967000       0.468740
    10314.595200       0.472921
    10325.245200       0.477110
    10335.917300       0.481306
    10346.611500       0.485511
    10357.327800       0.489722
    10368.066400       0.493941
    10378.827200       0.498166
    10389.610400       0.502398
    10400.416000       0.506636
    10411.244100       0.510879
    10422.094800       0.515128
    10432.968200       0.519381
    10443.864200       0.523640
    10454.783100       0.527902
    10465.724800       0.532169
    10476.689400       0.536439
    10487.677000       0.540712
    10498.687700       0.544988
    10509.721500       0.549267
    10520.778500       0.553548
    10531.858900       0.557830
    10542.962600       0.562114
    10554.089700       0.566399
    10565.240400       0.570684
    10576.414600       0.574970
    10587.612500       0.579255
    10598.834100       0.583540
    10610.079600       0.587824
    10621.348900       0.592106
    10632.642200       0.596387
    10643.959600       0.600666
    10655.301000       0.604942
    10666.666700       0.609214
    10678.056600       0.613484
    10689.470900       0.617750
    10700.909600       0.622011
    10712.372800       0.626268
    10723.860600       0.630520
    10735.373100       0.634766
    10746.910300       0.639007
    10758.472300       0.643241
    10770.059200       0.647468
    10781.671200       0.651688
    10793.308100       0.655900
    10804.970300       0.660105
    10816.657700       0.664301
    10828.370300       0.668488
    10840.108400       0.672666
    10851.871900       0.676834
    10863.661100       0.680992
    10875.475800       0.685140
    10887.316300       0.689276
    10899.182600       0.693401
    10911.074700       0.697514
    10922.992900       0.701614
    10934.937100       0.705702
    10946.907500       0.709777
    10958.904100       0.713838
    10970.927000       0.717885
    10982.976400       0.721918
    10995.052200       0.725935
    11007.154700       0.729937
    11019.283700       0.733924
    11031.439600       0.737894
    11043.622300       0.741848
    11055.832000       0.745785
    11068.068600       0.749704
    11080.332400       0.753606
    11092.623400       0.757489
    11104.941700       0.761353
    11117.287400       0.765199
    11129.660500       0.769024
    11142.061300       0.772830
    11154.489700       0.776616
    11166.945800       0.780381
    11179.429800       0.784124
    11191.941800       0.787846
    11204.481800       0.791546
    11217.049900       0.795224
    11229.646300       0.798879
    11242.270900       0.802510
    11254.924000       0.806119
    11267.605600       0.809703
    11280.315800       0.813263
    11293.054800       0.816798
    11305.822500       0.820308
    11318.619100       0.823793
    11331.444800       0.827252
    11344.299500       0.830684
    11357.183400       0.834090
    11370.096600       0.837469
    11383.039300       0.840821
    11396.011400       0.844145
    11409.013100       0.847442
    11422.044500       0.850709
    11435.105800       0.853949
    11448.196900       0.857159
    11461.318100       0.860340
    11474.469300       0.863491
    11487.650800       0.866612
    11500.862600       0.869703
    11514.104800       0.872763
    11527.377500       0.875792
    11540.680900       0.878790
    11554.015000       0.881756
    11567.380000       0.884691
    11580.775900       0.887593
    11594.202900       0.890463
    11607.661100       0.893300
    11621.150500       0.896104
    11634.671300       0.898875
    11648.223600       0.901612
    11661.807600       0.904315
    11675.423200       0.906984
    11689.070700       0.909619
    11702.750100       0.912220
    11716.461600       0.914785
    11730.205300       0.917315
    11743.981200       0.919810
    11757.789500       0.922270
    11771.630400       0.924694
    11785.503800       0.927081
    11799.410000       0.929433
    11813.349100       0.931748
    11827.321100       0.934027
    11841.326200       0.936269
    11855.364600       0.938473
    11869.436200       0.940641
    11883.541300       0.942772
    11897.680000       0.944865
    11911.852300       0.946920
    11926.058400       0.948937
    11940.298500       0.950917
    11954.572600       0.952858
    11968.880900       0.954761
    11983.223500       0.956626
    11997.600500       0.958452
    12012.012000       0.960240
    12026.458200       0.961988
    12040.939200       0.963698
    12055.455100       0.965369
    12070.006000       0.967001
    12084.592100       0.968594
    12099.213600       0.970148
    12113.870400       0.971662
    12128.562800       0.973137
    12143.290800       0.974573
    12158.054700       0.975969
    12172.854500       0.977325
    12187.690400       0.978642
    12202.562500       0.979919
    12217.471000       0.981157
    12232.415900       0.982355
    12247.397400       0.983513
    12262.415700       0.984632
    12277.470800       0.985711
    12292.563000       0.986750
    12307.692300       0.987750
    12322.858900       0.988710
    12338.062900       0.989630
    12353.304500       0.990511
    12368.583800       0.991352
    12383.900900       0.992153
    12399.256000       0.992915
    12414.649300       0.993638
    12430.080800       0.994321
    12445.550700       0.994965
    12461.059200       0.995569
    12476.606400       0.996135
    12492.192400       0.996661
    12507.817400       0.997149
    12523.481500       0.997597
    12539.185000       0.998007
    12554.927800       0.998378
    12570.710200       0.998711
    12586.532400       0.999005
    12602.394500       0.999261
    12618.296500       0.999478
    12634.238800       0.999658
    12650.221400       0.999800
    12666.244500       0.999904
    12682.308200       0.999971
    12698.412700       1.000000
    12714.558200       0.999992
    12730.744700       0.999947
    12746.972600       0.999865
    12763.241900       0.999747
    12779.552700       0.999592
    12795.905300       0.999401
    12812.299800       0.999174
    12828.736400       0.998911
    12845.215200       0.998612
    12861.736300       0.998279
    12878.300100       0.997910
    12894.906500       0.997506
    12911.555800       0.997067
    12928.248200       0.996594
    12944.983800       0.996087
    12961.762800       0.995547
    12978.585300       0.994972
    12995.451600       0.994364
    13012.361700       0.993723
    13029.316000       0.993050
    13046.314400       0.992344
    13063.357300       0.991605
    13080.444700       0.990835
    13097.576900       0.990033
    13114.754100       0.989200
    13131.976400       0.988336
    13149.243900       0.987441
    13166.556900       0.986516
    13183.915600       0.985561
    13201.320100       0.984576
    13218.770700       0.983562
    13236.267400       0.982519
    13253.810500       0.981447
    13271.400100       0.980347
    13289.036500       0.979219
    13306.719900       0.978063
    13324.450400       0.976880
    13342.228200       0.975670
    13360.053400       0.974434
    13377.926400       0.973172
    13395.847300       0.971883
    13413.816200       0.970570
    13431.833400       0.969231
    13449.899100       0.967868
    13468.013500       0.966480
    13486.176700       0.965069
    13504.388900       0.963634
    13522.650400       0.962176
    13540.961400       0.960696
    13559.322000       0.959193
    13577.732500       0.957669
    13596.193100       0.956123
    13614.703900       0.954556
    13633.265200       0.952968
    13651.877100       0.951361
    13670.540000       0.949733
    13689.253900       0.948086
    13708.019200       0.946421
    13726.836000       0.944737
    13745.704500       0.943035
    13764.624900       0.941315
    13783.597500       0.939578
    13802.622500       0.937824
    13821.700100       0.936054
    13840.830400       0.934269
    13860.013900       0.932467
    13879.250500       0.930651
    13898.540700       0.928821
    13917.884500       0.926976
    13937.282200       0.925118
    13956.734100       0.923246
    13976.240400       0.921362
    13995.801300       0.919465
    14015.417000       0.917557
    14035.087700       0.915637
    14054.813800       0.913706
    14074.595400       0.911765
    14094.432700       0.909814
    14114.326000       0.907853
    14134.275600       0.905883
    14154.281700       0.903904
    14174.344400       0.901917
    14194.464200       0.899923
    14214.641100       0.897920
    14234.875400       0.895911
    14255.167500       0.893896
    14275.517500       0.891875
    14295.925700       0.889848
    14316.392300       0.887816
    14336.917600       0.885779
    14357.501800       0.883738
    14378.145200       0.881694
    14398.848100       0.879646
    14419.610700       0.877595
    14440.433200       0.875542
    14461.316000       0.873486
    14482.259200       0.871430
    14503.263200       0.869372
    14524.328200       0.867313
    14545.454500       0.865254
    14566.642400       0.863195
    14587.892000       0.861137
    14609.203800       0.859080
    14630.577900       0.857024
    14652.014700       0.854970
    14673.514300       0.852919
    14695.077100       0.850870
    14716.703500       0.848824
    14738.393500       0.846781
    14760.147600       0.844743
    14781.966000       0.842709
    14803.849000       0.840679
    14825.796900       0.838655
    14847.809900       0.836636
    14869.888500       0.834623
    14892.032800       0.832616
    14914.243100       0.830615
    14936.519800       0.828622
    14958.863100       0.826636
    14981.273400       0.824658
    15003.750900       0.822688
    15026.296000       0.820726
    15048.909000       0.818773
    15071.590100       0.816829
    15094.339600       0.814895
    15117.158000       0.812971
    15140.045400       0.811056
    15163.002300       0.809153
    15186.028900       0.807260
    15209.125500       0.805378
    15232.292500       0.803507
    15255.530100       0.801648
    15278.838800       0.799802
    15302.218800       0.797967
    15325.670500       0.796146
    15349.194200       0.794337
    15372.790200       0.792541
    15396.458800       0.790759
    15420.200500       0.788991
    15444.015400       0.787236
    15467.904100       0.785496
    15491.866800       0.783770
    15515.903800       0.782059
    15540.015500       0.780363
    15564.202300       0.778682
    15588.464500       0.777017
    15612.802500       0.775367
    15637.216600       0.773733
    15661.707100       0.772115
    15686.274500       0.770514
    15710.919100       0.768929
    15735.641200       0.767360
    15760.441300       0.765808
    15785.319700       0.764273
    15810.276700       0.762755
    15835.312700       0.761255
    15860.428200       0.759771
    15885.623500       0.758306
    15910.899000       0.756858
    15936.255000       0.755427
    15961.691900       0.754015
    15987.210200       0.752620
    16012.810200       0.751244
    16038.492400       0.749886
    16064.257000       0.748546
    16090.104600       0.747224
    16116.035500       0.745921
    16142.050000       0.744636
    16168.148700       0.743369
    16194.332000       0.742121
    16220.600200       0.740892
    16246.953700       0.739681
    16273.393000       0.738489
    16299.918500       0.737315
    16326.530600       0.736160
    16353.229800       0.735023
    16380.016400       0.733905
    16406.890900       0.732805
    16433.853700       0.731724
    16460.905300       0.730661
    16488.046200       0.729617
    16515.276600       0.728591
    16542.597200       0.727583
    16570.008300       0.726593
    16597.510400       0.725621
    16625.103900       0.724667
    16652.789300       0.723731
    16680.567100       0.722812
    16708.437800       0.721912
    16736.401700       0.721028
    16764.459300       0.720162
    16792.611300       0.719312
    16820.857900       0.718480
    16849.199700       0.717665
    16877.637100       0.716866
    16906.170800       0.716083
    16934.801000       0.715317
    16963.528400       0.714566
    16992.353400       0.713831
    17021.276600       0.713112
    17050.298400       0.712408
    17079.419300       0.711719
    17108.639900       0.711044
    17137.960600       0.710384
    17167.382000       0.709739
    17196.904600       0.709107
    17226.528900       0.708488
    17256.255400       0.707883
    17286.084700       0.707291
    17316.017300       0.706712
    17346.053800       0.706145
    17376.194600       0.705589
    17406.440400       0.705046
    17436.791600       0.704514
    17467.248900       0.703992
    17497.812800       0.703481
    17528.483800       0.702980
    17559.262500       0.702489
    17590.149500       0.702007
    17621.145400       0.701534
    17652.250700       0.701069
    17683.466000       0.700613
    17714.791900       0.700164
    17746.228900       0.699722
    17777.777800       0.699286
    17809.439000       0.698857
    17841.213200       0.698434
    17873.101000       0.698016
    17905.103000       0.697602
    17937.219700       0.697193
    17969.451900       0.696788
    18001.800200       0.696386
    18034.265100       0.695986
    18066.847300       0.695589
    18099.547500       0.695193
    18132.366300       0.694798
    18165.304300       0.694404
    18198.362100       0.694010
    18231.540600       0.693615
    18264.840200       0.693219
    18298.261700       0.692821
    18331.805700       0.692421
    18365.472900       0.692018
    18399.264000       0.691611
    18433.179700       0.691200
    18467.220700       0.690784
    18501.387600       0.690363
    18535.681200       0.689936
    18570.102100       0.689502
    18604.651200       0.689060
    18639.329000       0.688611
    18674.136300       0.688153
    18709.073900       0.687686
    18744.142500       0.687208
    18779.342700       0.686720
    18814.675400       0.686221
    18850.141400       0.685710
    18885.741300       0.685186
    18921.475900       0.684649
    18957.346000       0.684097
    18993.352300       0.683531
    19029.495700       0.682950
    19065.776900       0.682352
