5,   channel 5 SRF from file SRF_SSH-1_Delivery_220520/SRF_DMSP-F2_SSH_Chan05.asc received June 2022 from SPASCIA
Number of data points:
1296
Wavenumber (cm-1)   Filter response
      368.000000       0.002000
      368.100000       0.002000
      368.200000       0.002100
      368.300000       0.002100
      368.400000       0.002100
      368.500000       0.002200
      368.600000       0.002200
      368.700000       0.002200
      368.800000       0.002200
      368.900000       0.002200
      369.000000       0.002200
      369.100000       0.002200
      369.200000       0.002300
      369.300000       0.002300
      369.400000       0.002300
      369.500000       0.002400
      369.600000       0.002400
      369.700000       0.002500
      369.800000       0.002500
      369.900000       0.002500
      370.000000       0.002600
      370.100000       0.002600
      370.200000       0.002600
      370.300000       0.002700
      370.400000       0.002700
      370.500000       0.002800
      370.600000       0.002800
      370.700000       0.002800
      370.800000       0.002900
      370.900000       0.002900
      371.000000       0.003000
      371.100000       0.003000
      371.200000       0.003000
      371.300000       0.003100
      371.400000       0.003100
      371.500000       0.003200
      371.600000       0.003200
      371.700000       0.003200
      371.800000       0.003300
      371.900000       0.003300
      372.000000       0.003400
      372.100000       0.003400
      372.200000       0.003400
      372.300000       0.003500
      372.400000       0.003500
      372.500000       0.003600
      372.600000       0.003600
      372.700000       0.003600
      372.800000       0.003700
      372.900000       0.003700
      373.000000       0.003800
      373.100000       0.003800
      373.200000       0.003800
      373.300000       0.003900
      373.400000       0.003900
      373.500000       0.004000
      373.600000       0.004000
      373.700000       0.004000
      373.800000       0.004100
      373.900000       0.004100
      374.000000       0.004200
      374.100000       0.004200
      374.200000       0.004300
      374.300000       0.004400
      374.400000       0.004500
      374.500000       0.004500
      374.600000       0.004600
      374.700000       0.004600
      374.800000       0.004700
      374.900000       0.004700
      375.000000       0.004700
      375.100000       0.004800
      375.200000       0.004900
      375.300000       0.005000
      375.400000       0.005100
      375.500000       0.005100
      375.600000       0.005200
      375.700000       0.005200
      375.800000       0.005300
      375.900000       0.005300
      376.000000       0.005300
      376.100000       0.005400
      376.200000       0.005500
      376.300000       0.005600
      376.400000       0.005700
      376.500000       0.005700
      376.600000       0.005800
      376.700000       0.005900
      376.800000       0.006000
      376.900000       0.006000
      377.000000       0.006100
      377.100000       0.006200
      377.200000       0.006300
      377.300000       0.006400
      377.400000       0.006400
      377.500000       0.006500
      377.600000       0.006600
      377.700000       0.006700
      377.800000       0.006800
      377.900000       0.006800
      378.000000       0.006900
      378.100000       0.007000
      378.200000       0.007200
      378.300000       0.007300
      378.400000       0.007400
      378.500000       0.007500
      378.600000       0.007600
      378.700000       0.007700
      378.800000       0.007900
      378.900000       0.008000
      379.000000       0.008100
      379.100000       0.008200
      379.200000       0.008300
      379.300000       0.008500
      379.400000       0.008600
      379.500000       0.008700
      379.600000       0.008800
      379.700000       0.008900
      379.800000       0.009100
      379.900000       0.009200
      380.000000       0.009300
      380.100000       0.009400
      380.200000       0.009600
      380.300000       0.009800
      380.400000       0.009900
      380.500000       0.010100
      380.600000       0.010200
      380.700000       0.010400
      380.800000       0.010600
      380.900000       0.010700
      381.000000       0.010900
      381.100000       0.011000
      381.200000       0.011200
      381.300000       0.011300
      381.400000       0.011500
      381.500000       0.011700
      381.600000       0.011900
      381.700000       0.012100
      381.800000       0.012300
      381.900000       0.012500
      382.000000       0.012600
      382.100000       0.012800
      382.200000       0.013000
      382.300000       0.013200
      382.400000       0.013400
      382.500000       0.013600
      382.600000       0.013900
      382.700000       0.014100
      382.800000       0.014300
      382.900000       0.014600
      383.000000       0.014800
      383.100000       0.015000
      383.200000       0.015200
      383.300000       0.015400
      383.400000       0.015600
      383.500000       0.015800
      383.600000       0.014900
      383.700000       0.014000
      383.800000       0.013100
      383.900000       0.012200
      384.000000       0.011300
      384.100000       0.012700
      384.200000       0.014100
      384.300000       0.015500
      384.400000       0.017000
      384.500000       0.018400
      384.600000       0.018700
      384.700000       0.018900
      384.800000       0.019200
      384.900000       0.019500
      385.000000       0.019800
      385.100000       0.020200
      385.200000       0.020600
      385.300000       0.020900
      385.400000       0.021300
      385.500000       0.021700
      385.600000       0.022100
      385.700000       0.022500
      385.800000       0.022900
      385.900000       0.023300
      386.000000       0.023700
      386.100000       0.024100
      386.200000       0.024500
      386.300000       0.024900
      386.400000       0.025300
      386.500000       0.025700
      386.600000       0.026100
      386.700000       0.026500
      386.800000       0.026900
      386.900000       0.027300
      387.000000       0.027700
      387.100000       0.028100
      387.200000       0.028500
      387.300000       0.028900
      387.400000       0.029200
      387.500000       0.029600
      387.600000       0.030000
      387.700000       0.030400
      387.800000       0.030800
      387.900000       0.031200
      388.000000       0.031600
      388.100000       0.032000
      388.200000       0.032400
      388.300000       0.032800
      388.400000       0.033200
      388.500000       0.033600
      388.600000       0.034000
      388.700000       0.034400
      388.800000       0.034800
      388.900000       0.035200
      389.000000       0.035600
      389.100000       0.036400
      389.200000       0.037200
      389.300000       0.037900
      389.400000       0.038700
      389.500000       0.039500
      389.600000       0.039900
      389.700000       0.040300
      389.800000       0.040700
      389.900000       0.041100
      390.000000       0.041500
      390.100000       0.042300
      390.200000       0.043100
      390.300000       0.043900
      390.400000       0.044700
      390.500000       0.045500
      390.600000       0.046200
      390.700000       0.047000
      390.800000       0.047800
      390.900000       0.048600
      391.000000       0.049400
      391.100000       0.050200
      391.200000       0.051000
      391.300000       0.051800
      391.400000       0.052600
      391.500000       0.053400
      391.600000       0.054200
      391.700000       0.054900
      391.800000       0.055700
      391.900000       0.056500
      392.000000       0.057300
      392.100000       0.058500
      392.200000       0.059700
      392.300000       0.060900
      392.400000       0.062100
      392.500000       0.063200
      392.600000       0.064400
      392.700000       0.065600
      392.800000       0.066800
      392.900000       0.068000
      393.000000       0.069200
      393.100000       0.070000
      393.200000       0.070800
      393.300000       0.071500
      393.400000       0.072300
      393.500000       0.073100
      393.600000       0.074700
      393.700000       0.076300
      393.800000       0.077900
      393.900000       0.079400
      394.000000       0.081000
      394.100000       0.083400
      394.200000       0.085800
      394.300000       0.088100
      394.400000       0.090500
      394.500000       0.092900
      394.600000       0.095300
      394.700000       0.097600
      394.800000       0.100000
      394.900000       0.102400
      395.000000       0.104700
      395.100000       0.107500
      395.200000       0.110300
      395.300000       0.113000
      395.400000       0.115800
      395.500000       0.118600
      395.600000       0.122500
      395.700000       0.126500
      395.800000       0.130400
      395.900000       0.134400
      396.000000       0.138300
      396.100000       0.141100
      396.200000       0.143900
      396.300000       0.146600
      396.400000       0.149400
      396.500000       0.152200
      396.600000       0.156500
      396.700000       0.160900
      396.800000       0.165200
      396.900000       0.169600
      397.000000       0.173900
      397.100000       0.179400
      397.200000       0.185000
      397.300000       0.190500
      397.400000       0.196000
      397.500000       0.201600
      397.600000       0.209900
      397.700000       0.218200
      397.800000       0.226500
      397.900000       0.234800
      398.000000       0.243100
      398.100000       0.249000
      398.200000       0.254900
      398.300000       0.260900
      398.400000       0.266800
      398.500000       0.272700
      398.600000       0.281400
      398.700000       0.290100
      398.800000       0.298800
      398.900000       0.307500
      399.000000       0.316200
      399.100000       0.326100
      399.200000       0.336000
      399.300000       0.345800
      399.400000       0.355700
      399.500000       0.365600
      399.600000       0.375100
      399.700000       0.384600
      399.800000       0.394100
      399.900000       0.403600
      400.000000       0.413000
      400.100000       0.422500
      400.200000       0.432000
      400.300000       0.441500
      400.400000       0.451000
      400.500000       0.460500
      400.600000       0.473500
      400.700000       0.486600
      400.800000       0.499600
      400.900000       0.512600
      401.000000       0.525700
      401.100000       0.537200
      401.200000       0.548600
      401.300000       0.560100
      401.400000       0.571500
      401.500000       0.583000
      401.600000       0.594900
      401.700000       0.606700
      401.800000       0.618600
      401.900000       0.630400
      402.000000       0.642300
      402.100000       0.654200
      402.200000       0.666000
      402.300000       0.677900
      402.400000       0.689700
      402.500000       0.701600
      402.600000       0.712600
      402.700000       0.723700
      402.800000       0.734800
      402.900000       0.745800
      403.000000       0.756900
      403.100000       0.766800
      403.200000       0.776700
      403.300000       0.786600
      403.400000       0.796400
      403.500000       0.806300
      403.600000       0.815800
      403.700000       0.825300
      403.800000       0.834800
      403.900000       0.844300
      404.000000       0.853800
      404.100000       0.861700
      404.200000       0.869600
      404.300000       0.877500
      404.400000       0.885400
      404.500000       0.893300
      404.600000       0.900000
      404.700000       0.906700
      404.800000       0.913400
      404.900000       0.920200
      405.000000       0.926900
      405.100000       0.933600
      405.200000       0.940300
      405.300000       0.947000
      405.400000       0.953800
      405.500000       0.960500
      405.600000       0.964000
      405.700000       0.967600
      405.800000       0.971100
      405.900000       0.974700
      406.000000       0.978300
      406.100000       0.981800
      406.200000       0.985400
      406.300000       0.988900
      406.400000       0.992500
      406.500000       0.996000
      406.600000       0.996800
      406.700000       0.997600
      406.800000       0.998400
      406.900000       0.999200
      407.000000       1.000000
      407.100000       0.999200
      407.200000       0.998400
      407.300000       0.997600
      407.400000       0.996800
      407.500000       0.996000
      407.600000       0.994100
      407.700000       0.992100
      407.800000       0.990100
      407.900000       0.988100
      408.000000       0.986200
      408.100000       0.983400
      408.200000       0.980600
      408.300000       0.977900
      408.400000       0.975100
      408.500000       0.972300
      408.600000       0.968400
      408.700000       0.964400
      408.800000       0.960500
      408.900000       0.956500
      409.000000       0.952600
      409.100000       0.947000
      409.200000       0.941500
      409.300000       0.936000
      409.400000       0.930400
      409.500000       0.924900
      409.600000       0.917800
      409.700000       0.910700
      409.800000       0.903600
      409.900000       0.896400
      410.000000       0.889300
      410.100000       0.880200
      410.200000       0.871100
      410.300000       0.862100
      410.400000       0.853000
      410.500000       0.843900
      410.600000       0.836000
      410.700000       0.828100
      410.800000       0.820200
      410.900000       0.812300
      411.000000       0.804300
      411.100000       0.796800
      411.200000       0.789300
      411.300000       0.781800
      411.400000       0.774300
      411.500000       0.766800
      411.600000       0.752200
      411.700000       0.737500
      411.800000       0.722900
      411.900000       0.708300
      412.000000       0.693700
      412.100000       0.681400
      412.200000       0.669200
      412.300000       0.656900
      412.400000       0.644700
      412.500000       0.632400
      412.600000       0.622500
      412.700000       0.612600
      412.800000       0.602800
      412.900000       0.592900
      413.000000       0.583000
      413.100000       0.573100
      413.200000       0.563200
      413.300000       0.553400
      413.400000       0.543500
      413.500000       0.533600
      413.600000       0.517800
      413.700000       0.502000
      413.800000       0.486200
      413.900000       0.470400
      414.000000       0.454500
      414.100000       0.444700
      414.200000       0.434800
      414.300000       0.424900
      414.400000       0.415000
      414.500000       0.405100
      414.600000       0.393700
      414.700000       0.382200
      414.800000       0.370800
      414.900000       0.359300
      415.000000       0.347800
      415.100000       0.340300
      415.200000       0.332800
      415.300000       0.325300
      415.400000       0.317800
      415.500000       0.310300
      415.600000       0.302000
      415.700000       0.293700
      415.800000       0.285400
      415.900000       0.277100
      416.000000       0.268800
      416.100000       0.261700
      416.200000       0.254500
      416.300000       0.247400
      416.400000       0.240300
      416.500000       0.233200
      416.600000       0.228100
      416.700000       0.222900
      416.800000       0.217800
      416.900000       0.212600
      417.000000       0.207500
      417.100000       0.202800
      417.200000       0.198000
      417.300000       0.193300
      417.400000       0.188500
      417.500000       0.183800
      417.600000       0.178700
      417.700000       0.173500
      417.800000       0.168400
      417.900000       0.163200
      418.000000       0.158100
      418.100000       0.154200
      418.200000       0.150200
      418.300000       0.146200
      418.400000       0.142300
      418.500000       0.138300
      418.600000       0.134800
      418.700000       0.131200
      418.800000       0.127700
      418.900000       0.124100
      419.000000       0.120600
      419.100000       0.117000
      419.200000       0.113400
      419.300000       0.109900
      419.400000       0.106300
      419.500000       0.102800
      419.600000       0.100000
      419.700000       0.097200
      419.800000       0.094500
      419.900000       0.091700
      420.000000       0.088900
      420.100000       0.087000
      420.200000       0.085000
      420.300000       0.083000
      420.400000       0.081000
      420.500000       0.079100
      420.600000       0.077900
      420.700000       0.076700
      420.800000       0.075500
      420.900000       0.074300
      421.000000       0.073100
      421.100000       0.071900
      421.200000       0.070800
      421.300000       0.069600
      421.400000       0.068400
      421.500000       0.067200
      421.600000       0.065600
      421.700000       0.064000
      421.800000       0.062500
      421.900000       0.060900
      422.000000       0.059300
      422.100000       0.058100
      422.200000       0.056900
      422.300000       0.055700
      422.400000       0.054500
      422.500000       0.053400
      422.600000       0.052600
      422.700000       0.051800
      422.800000       0.051000
      422.900000       0.050200
      423.000000       0.049400
      423.100000       0.048200
      423.200000       0.047000
      423.300000       0.045800
      423.400000       0.044700
      423.500000       0.043500
      423.600000       0.042700
      423.700000       0.041900
      423.800000       0.041100
      423.900000       0.040300
      424.000000       0.039500
      424.100000       0.039100
      424.200000       0.038700
      424.300000       0.038300
      424.400000       0.037900
      424.500000       0.037500
      424.600000       0.037200
      424.700000       0.036800
      424.800000       0.036400
      424.900000       0.036000
      425.000000       0.035600
      425.100000       0.034800
      425.200000       0.034000
      425.300000       0.033200
      425.400000       0.032400
      425.500000       0.031600
      425.600000       0.031200
      425.700000       0.030800
      425.800000       0.030400
      425.900000       0.030000
      426.000000       0.029600
      426.100000       0.029200
      426.200000       0.028900
      426.300000       0.028500
      426.400000       0.028100
      426.500000       0.027700
      426.600000       0.027300
      426.700000       0.026900
      426.800000       0.026500
      426.900000       0.026100
      427.000000       0.025700
      427.100000       0.025700
      427.200000       0.025700
      427.300000       0.025700
      427.400000       0.025700
      427.500000       0.025700
      427.600000       0.025300
      427.700000       0.024900
      427.800000       0.024500
      427.900000       0.024100
      428.000000       0.023700
      428.100000       0.023300
      428.200000       0.022900
      428.300000       0.022500
      428.400000       0.022100
      428.500000       0.021700
      428.600000       0.021300
      428.700000       0.020900
      428.800000       0.020600
      428.900000       0.020200
      429.000000       0.019800
      429.100000       0.019600
      429.200000       0.019400
      429.300000       0.019200
      429.400000       0.019000
      429.500000       0.018800
      429.600000       0.018500
      429.700000       0.018300
      429.800000       0.018100
