45,   45, MVIRI VIS channel from srf_MET7_2003078_2003079_1801-Release_S10EE_10.dat
Number of data points:
793
Wavenumber (cm-1)   Filter response
     8442.380800       0.000000
     8449.514200       0.000000
     8456.659600       0.000004
     8463.817200       0.000054
     8470.986900       0.000160
     8478.168700       0.000320
     8485.362700       0.000532
     8492.569000       0.000796
     8499.787500       0.001109
     8507.018300       0.001470
     8514.261400       0.001877
     8521.516800       0.002331
     8528.784600       0.002828
     8536.064900       0.003368
     8543.357500       0.003950
     8550.662700       0.004573
     8557.980300       0.005235
     8565.310500       0.005936
     8572.653200       0.006674
     8580.008600       0.007448
     8587.376600       0.008258
     8594.757200       0.009102
     8602.150500       0.009980
     8609.556600       0.010891
     8616.975400       0.011834
     8624.407100       0.012808
     8631.851500       0.013813
     8639.308900       0.014848
     8646.779100       0.015912
     8654.262200       0.017005
     8661.758300       0.018126
     8669.267400       0.019274
     8676.789600       0.020449
     8684.324800       0.021650
     8691.873100       0.022878
     8699.434500       0.024131
     8707.009100       0.025408
     8714.596900       0.026711
     8722.198000       0.028037
     8729.812300       0.029388
     8737.439900       0.030762
     8745.080900       0.032159
     8752.735200       0.033579
     8760.403000       0.035021
     8768.084200       0.036486
     8775.778900       0.037973
     8783.487000       0.039482
     8791.208800       0.041012
     8798.944100       0.042564
     8806.693100       0.044137
     8814.455700       0.045732
     8822.232000       0.047347
     8830.022100       0.048983
     8837.825900       0.050640
     8845.643500       0.052318
     8853.475000       0.054016
     8861.320300       0.055734
     8869.179600       0.057473
     8877.052800       0.059233
     8884.940000       0.061012
     8892.841300       0.062812
     8900.756600       0.064632
     8908.686000       0.066473
     8916.629500       0.068334
     8924.587200       0.070215
     8932.559200       0.072116
     8940.545400       0.074038
     8948.545900       0.075980
     8956.560700       0.077942
     8964.589900       0.079925
     8972.633500       0.081928
     8980.691500       0.083952
     8988.764000       0.085997
     8996.851100       0.088062
     9004.952700       0.090147
     9013.068900       0.092254
     9021.199800       0.094381
     9029.345400       0.096530
     9037.505600       0.098699
     9045.680700       0.100889
     9053.870500       0.103101
     9062.075200       0.105334
     9070.294800       0.107588
     9078.529300       0.109864
     9086.778700       0.112161
     9095.043200       0.114480
     9103.322700       0.116820
     9111.617300       0.119183
     9119.927000       0.121567
     9128.251900       0.123973
     9136.592100       0.126402
     9144.947400       0.128852
     9153.318100       0.131326
     9161.704100       0.133821
     9170.105500       0.136339
     9178.522300       0.138879
     9186.954500       0.141442
     9195.402300       0.144027
     9203.865600       0.146636
     9212.344500       0.149267
     9220.839100       0.151922
     9229.349300       0.154599
     9237.875300       0.157299
     9246.417000       0.160022
     9254.974500       0.162769
     9263.547900       0.165539
     9272.137200       0.168332
     9280.742500       0.171149
     9289.363700       0.173989
     9298.000900       0.176852
     9306.654300       0.179739
     9315.323700       0.182649
     9324.009300       0.185583
     9332.711200       0.188541
     9341.429200       0.191522
     9350.163600       0.194527
     9358.914400       0.197555
     9367.681500       0.200606
     9376.465100       0.203682
     9385.265100       0.206781
     9394.081700       0.209903
     9402.914900       0.213049
     9411.764700       0.216219
     9420.631200       0.219412
     9429.514400       0.222628
     9438.414300       0.225869
     9447.331100       0.229132
     9456.264800       0.232418
     9465.215300       0.235728
     9474.182900       0.239061
     9483.167400       0.242417
     9492.169000       0.245796
     9501.187600       0.249198
     9510.223500       0.252623
     9519.276500       0.256071
     9528.346800       0.259541
     9537.434400       0.263034
     9546.539400       0.266549
     9555.661700       0.270086
     9564.801500       0.273646
     9573.958800       0.277227
     9583.133700       0.280831
     9592.326100       0.284456
     9601.536200       0.288103
     9610.764100       0.291771
     9620.009600       0.295460
     9629.273000       0.299171
     9638.554200       0.302902
     9647.853400       0.306655
     9657.170400       0.310427
     9666.505600       0.314220
     9675.858700       0.318033
     9685.230000       0.321866
     9694.619500       0.325719
     9704.027200       0.329590
     9713.453100       0.333482
     9722.897400       0.337392
     9732.360100       0.341321
     9741.841200       0.345269
     9751.340800       0.349234
     9760.859000       0.353218
     9770.395700       0.357220
     9779.951100       0.361238
     9789.525200       0.365275
     9799.118100       0.369328
     9808.729800       0.373397
     9818.360300       0.377483
     9828.009800       0.381585
     9837.678300       0.385703
     9847.365800       0.389836
     9857.072400       0.393984
     9866.798200       0.398147
     9876.543200       0.402324
     9886.307500       0.406515
     9896.091000       0.410721
     9905.894000       0.414939
     9915.716400       0.419171
     9925.558300       0.423415
     9935.419800       0.427672
     9945.300800       0.431941
     9955.201600       0.436222
     9965.122100       0.440514
     9975.062300       0.444816
     9985.022500       0.449130
     9995.002500       0.453453
    10005.002500       0.457787
    10015.022500       0.462129
    10025.062700       0.466481
    10035.122900       0.470841
    10045.203400       0.475210
    10055.304200       0.479586
    10065.425300       0.483970
    10075.566800       0.488361
    10085.728700       0.492758
    10095.911200       0.497162
    10106.114200       0.501571
    10116.337900       0.505985
    10126.582300       0.510405
    10136.847400       0.514829
    10147.133400       0.519257
    10157.440300       0.523689
    10167.768200       0.528123
    10178.117000       0.532561
    10188.487000       0.537001
    10198.878100       0.541442
    10209.290500       0.545885
    10219.724100       0.550329
    10230.179000       0.554774
    10240.655400       0.559219
    10251.153300       0.563663
    10261.672700       0.568106
    10272.213700       0.572548
    10282.776300       0.576989
    10293.360800       0.581427
    10303.967000       0.585863
    10314.595200       0.590295
    10325.245200       0.594724
    10335.917300       0.599149
    10346.611500       0.603569
    10357.327800       0.607984
    10368.066400       0.612394
    10378.827200       0.616798
    10389.610400       0.621195
    10400.416000       0.625586
    10411.244100       0.629970
    10422.094800       0.634345
    10432.968200       0.638713
    10443.864200       0.643072
    10454.783100       0.647421
    10465.724800       0.651762
    10476.689400       0.656092
    10487.677000       0.660411
    10498.687700       0.664720
    10509.721500       0.669017
    10520.778500       0.673302
    10531.858900       0.677575
    10542.962600       0.681835
    10554.089700       0.686082
    10565.240400       0.690315
    10576.414600       0.694534
    10587.612500       0.698738
    10598.834100       0.702928
    10610.079600       0.707101
    10621.348900       0.711259
    10632.642200       0.715400
    10643.959600       0.719525
    10655.301000       0.723632
    10666.666700       0.727722
    10678.056600       0.731793
    10689.470900       0.735846
    10700.909600       0.739880
    10712.372800       0.743894
    10723.860600       0.747889
    10735.373100       0.751863
    10746.910300       0.755817
    10758.472300       0.759750
    10770.059200       0.763660
    10781.671200       0.767550
    10793.308100       0.771416
    10804.970300       0.775261
    10816.657700       0.779081
    10828.370300       0.782879
    10840.108400       0.786652
    10851.871900       0.790402
    10863.661100       0.794126
    10875.475800       0.797826
    10887.316300       0.801500
    10899.182600       0.805148
    10911.074700       0.808771
    10922.992900       0.812366
    10934.937100       0.815935
    10946.907500       0.819476
    10958.904100       0.822990
    10970.927000       0.826477
    10982.976400       0.829934
    10995.052200       0.833364
    11007.154700       0.836764
    11019.283700       0.840135
    11031.439600       0.843476
    11043.622300       0.846788
    11055.832000       0.850069
    11068.068600       0.853320
    11080.332400       0.856540
    11092.623400       0.859729
    11104.941700       0.862887
    11117.287400       0.866013
    11129.660500       0.869107
    11142.061300       0.872169
    11154.489700       0.875198
    11166.945800       0.878195
    11179.429800       0.881158
    11191.941800       0.884089
    11204.481800       0.886985
    11217.049900       0.889848
    11229.646300       0.892677
    11242.270900       0.895472
    11254.924000       0.898233
    11267.605600       0.900959
    11280.315800       0.903650
    11293.054800       0.906306
    11305.822500       0.908926
    11318.619100       0.911512
    11331.444800       0.914061
    11344.299500       0.916575
    11357.183400       0.919053
    11370.096600       0.921494
    11383.039300       0.923900
    11396.011400       0.926269
    11409.013100       0.928601
    11422.044500       0.930896
    11435.105800       0.933155
    11448.196900       0.935377
    11461.318100       0.937561
    11474.469300       0.939709
    11487.650800       0.941818
    11500.862600       0.943891
    11514.104800       0.945926
    11527.377500       0.947923
    11540.680900       0.949882
    11554.015000       0.951804
    11567.380000       0.953688
    11580.775900       0.955534
    11594.202900       0.957342
    11607.661100       0.959111
    11621.150500       0.960843
    11634.671300       0.962537
    11648.223600       0.964192
    11661.807600       0.965810
    11675.423200       0.967389
    11689.070700       0.968930
    11702.750100       0.970432
    11716.461600       0.971897
    11730.205300       0.973323
    11743.981200       0.974711
    11757.789500       0.976061
    11771.630400       0.977373
    11785.503800       0.978646
    11799.410000       0.979882
    11813.349100       0.981080
    11827.321100       0.982240
    11841.326200       0.983361
    11855.364600       0.984445
    11869.436200       0.985492
    11883.541300       0.986501
    11897.680000       0.987472
    11911.852300       0.988405
    11926.058400       0.989302
    11940.298500       0.990161
    11954.572600       0.990983
    11968.880900       0.991768
    11983.223500       0.992516
    11997.600500       0.993227
    12012.012000       0.993902
    12026.458200       0.994540
    12040.939200       0.995142
    12055.455100       0.995708
    12070.006000       0.996238
    12084.592100       0.996732
    12099.213600       0.997190
    12113.870400       0.997613
    12128.562800       0.998001
    12143.290800       0.998354
    12158.054700       0.998671
    12172.854500       0.998955
    12187.690400       0.999203
    12202.562500       0.999418
    12217.471000       0.999599
    12232.415900       0.999745
    12247.397400       0.999859
    12262.415700       0.999939
    12277.470800       0.999986
    12292.563000       1.000000
    12307.692300       0.999982
    12322.858900       0.999931
    12338.062900       0.999849
    12353.304500       0.999735
    12368.583800       0.999589
    12383.900900       0.999412
    12399.256000       0.999205
    12414.649300       0.998967
    12430.080800       0.998698
    12445.550700       0.998400
    12461.059200       0.998072
    12476.606400       0.997715
    12492.192400       0.997329
    12507.817400       0.996914
    12523.481500       0.996471
    12539.185000       0.996000
    12554.927800       0.995501
    12570.710200       0.994975
    12586.532400       0.994422
    12602.394500       0.993842
    12618.296500       0.993236
    12634.238800       0.992604
    12650.221400       0.991947
    12666.244500       0.991264
    12682.308200       0.990557
    12698.412700       0.989825
    12714.558200       0.989070
    12730.744700       0.988290
    12746.972600       0.987488
    12763.241900       0.986662
    12779.552700       0.985814
    12795.905300       0.984944
    12812.299800       0.984052
    12828.736400       0.983139
    12845.215200       0.982205
    12861.736300       0.981250
    12878.300100       0.980276
    12894.906500       0.979282
    12911.555800       0.978269
    12928.248200       0.977236
    12944.983800       0.976186
    12961.762800       0.975117
    12978.585300       0.974031
    12995.451600       0.972928
    13012.361700       0.971808
    13029.316000       0.970672
    13046.314400       0.969520
    13063.357300       0.968353
    13080.444700       0.967171
    13097.576900       0.965974
    13114.754100       0.964764
    13131.976400       0.963540
    13149.243900       0.962302
    13166.556900       0.961052
    13183.915600       0.959790
    13201.320100       0.958515
    13218.770700       0.957230
    13236.267400       0.955933
    13253.810500       0.954626
    13271.400100       0.953309
    13289.036500       0.951983
    13306.719900       0.950647
    13324.450400       0.949303
    13342.228200       0.947950
    13360.053400       0.946590
    13377.926400       0.945222
    13395.847300       0.943848
    13413.816200       0.942467
    13431.833400       0.941080
    13449.899100       0.939687
    13468.013500       0.938290
    13486.176700       0.936888
    13504.388900       0.935482
    13522.650400       0.934072
    13540.961400       0.932659
    13559.322000       0.931243
    13577.732500       0.929824
    13596.193100       0.928404
    13614.703900       0.926982
    13633.265200       0.925559
    13651.877100       0.924136
    13670.540000       0.922712
    13689.253900       0.921288
    13708.019200       0.919866
    13726.836000       0.918444
    13745.704500       0.917024
    13764.624900       0.915606
    13783.597500       0.914190
    13802.622500       0.912777
    13821.700100       0.911368
    13840.830400       0.909962
    13860.013900       0.908560
    13879.250500       0.907162
    13898.540700       0.905769
    13917.884500       0.904382
    13937.282200       0.903000
    13956.734100       0.901625
    13976.240400       0.900256
    13995.801300       0.898893
    14015.417000       0.897538
    14035.087700       0.896191
    14054.813800       0.894851
    14074.595400       0.893520
    14094.432700       0.892198
    14114.326000       0.890885
    14134.275600       0.889581
    14154.281700       0.888287
    14174.344400       0.887004
    14194.464200       0.885730
    14214.641100       0.884468
    14234.875400       0.883217
    14255.167500       0.881977
    14275.517500       0.880749
    14295.925700       0.879534
    14316.392300       0.878331
    14336.917600       0.877141
    14357.501800       0.875963
    14378.145200       0.874800
    14398.848100       0.873650
    14419.610700       0.872514
    14440.433200       0.871392
    14461.316000       0.870285
    14482.259200       0.869192
    14503.263200       0.868115
    14524.328200       0.867053
    14545.454500       0.866007
    14566.642400       0.864976
    14587.892000       0.863962
    14609.203800       0.862964
    14630.577900       0.861982
    14652.014700       0.861017
    14673.514300       0.860069
    14695.077100       0.859139
    14716.703500       0.858225
    14738.393500       0.857330
    14760.147600       0.856452
    14781.966000       0.855591
    14803.849000       0.854749
    14825.796900       0.853926
    14847.809900       0.853120
    14869.888500       0.852333
    14892.032800       0.851565
    14914.243100       0.850816
    14936.519800       0.850085
    14958.863100       0.849374
    14981.273400       0.848682
    15003.750900       0.848009
    15026.296000       0.847355
    15048.909000       0.846721
    15071.590100       0.846106
    15094.339600       0.845511
    15117.158000       0.844935
    15140.045400       0.844380
    15163.002300       0.843843
    15186.028900       0.843327
    15209.125500       0.842830
    15232.292500       0.842353
    15255.530100       0.841896
    15278.838800       0.841458
    15302.218800       0.841040
    15325.670500       0.840642
    15349.194200       0.840264
    15372.790200       0.839905
    15396.458800       0.839566
    15420.200500       0.839246
    15444.015400       0.838946
    15467.904100       0.838665
    15491.866800       0.838404
    15515.903800       0.838162
    15540.015500       0.837938
    15564.202300       0.837734
    15588.464500       0.837549
    15612.802500       0.837382
    15637.216600       0.837234
    15661.707100       0.837104
    15686.274500       0.836993
    15710.919100       0.836899
    15735.641200       0.836824
    15760.441300       0.836766
    15785.319700       0.836726
    15810.276700       0.836703
    15835.312700       0.836697
    15860.428200       0.836708
    15885.623500       0.836735
    15910.899000       0.836779
    15936.255000       0.836839
    15961.691900       0.836914
    15987.210200       0.837006
    16012.810200       0.837112
    16038.492400       0.837233
    16064.257000       0.837369
    16090.104600       0.837520
    16116.035500       0.837684
    16142.050000       0.837862
    16168.148700       0.838053
    16194.332000       0.838257
    16220.600200       0.838474
    16246.953700       0.838703
    16273.393000       0.838944
    16299.918500       0.839196
    16326.530600       0.839459
    16353.229800       0.839733
    16380.016400       0.840016
    16406.890900       0.840310
    16433.853700       0.840613
    16460.905300       0.840925
    16488.046200       0.841245
    16515.276600       0.841572
    16542.597200       0.841908
    16570.008300       0.842250
    16597.510400       0.842599
    16625.103900       0.842953
    16652.789300       0.843313
    16680.567100       0.843678
    16708.437800       0.844047
    16736.401700       0.844420
    16764.459300       0.844796
    16792.611300       0.845175
    16820.857900       0.845556
    16849.199700       0.845938
    16877.637100       0.846321
    16906.170800       0.846705
    16934.801000       0.847088
    16963.528400       0.847471
    16992.353400       0.847852
    17021.276600       0.848231
    17050.298400       0.848607
    17079.419300       0.848979
    17108.639900       0.849348
    17137.960600       0.849712
    17167.382000       0.850070
    17196.904600       0.850422
    17226.528900       0.850768
    17256.255400       0.851106
    17286.084700       0.851436
    17316.017300       0.851757
    17346.053800       0.852068
    17376.194600       0.852369
    17406.440400       0.852660
    17436.791600       0.852938
    17467.248900       0.853204
    17497.812800       0.853457
    17528.483800       0.853696
    17559.262500       0.853920
    17590.149500       0.854128
    17621.145400       0.854321
    17652.250700       0.854496
    17683.466000       0.854654
