43,   43, MVIRI VIS channel from srf_MET7_2002348_2002349_1801-Release_S10EE_10.dat
Number of data points:
793
Wavenumber (cm-1)   Filter response
     8442.380800       0.000000
     8449.514200       0.000000
     8456.659600       0.000004
     8463.817200       0.000054
     8470.986900       0.000159
     8478.168700       0.000319
     8485.362700       0.000531
     8492.569000       0.000794
     8499.787500       0.001106
     8507.018300       0.001467
     8514.261400       0.001874
     8521.516800       0.002326
     8528.784600       0.002823
     8536.064900       0.003362
     8543.357500       0.003943
     8550.662700       0.004564
     8557.980300       0.005225
     8565.310500       0.005924
     8572.653200       0.006661
     8580.008600       0.007433
     8587.376600       0.008242
     8594.757200       0.009084
     8602.150500       0.009961
     8609.556600       0.010870
     8616.975400       0.011811
     8624.407100       0.012784
     8631.851500       0.013787
     8639.308900       0.014820
     8646.779100       0.015882
     8654.262200       0.016973
     8661.758300       0.018091
     8669.267400       0.019237
     8676.789600       0.020410
     8684.324800       0.021610
     8691.873100       0.022835
     8699.434500       0.024085
     8707.009100       0.025361
     8714.596900       0.026661
     8722.198000       0.027985
     8729.812300       0.029333
     8737.439900       0.030705
     8745.080900       0.032099
     8752.735200       0.033517
     8760.403000       0.034957
     8768.084200       0.036419
     8775.778900       0.037903
     8783.487000       0.039410
     8791.208800       0.040937
     8798.944100       0.042486
     8806.693100       0.044057
     8814.455700       0.045648
     8822.232000       0.047261
     8830.022100       0.048894
     8837.825900       0.050548
     8845.643500       0.052223
     8853.475000       0.053918
     8861.320300       0.055634
     8869.179600       0.057370
     8877.052800       0.059127
     8884.940000       0.060903
     8892.841300       0.062700
     8900.756600       0.064518
     8908.686000       0.066355
     8916.629500       0.068213
     8924.587200       0.070091
     8932.559200       0.071989
     8940.545400       0.073908
     8948.545900       0.075847
     8956.560700       0.077806
     8964.589900       0.079786
     8972.633500       0.081786
     8980.691500       0.083806
     8988.764000       0.085848
     8996.851100       0.087909
     9004.952700       0.089992
     9013.068900       0.092095
     9021.199800       0.094219
     9029.345400       0.096364
     9037.505600       0.098530
     9045.680700       0.100717
     9053.870500       0.102925
     9062.075200       0.105155
     9070.294800       0.107406
     9078.529300       0.109678
     9086.778700       0.111972
     9095.043200       0.114287
     9103.322700       0.116624
     9111.617300       0.118983
     9119.927000       0.121364
     9128.251900       0.123767
     9136.592100       0.126192
     9144.947400       0.128639
     9153.318100       0.131109
     9161.704100       0.133600
     9170.105500       0.136115
     9178.522300       0.138651
     9186.954500       0.141211
     9195.402300       0.143793
     9203.865600       0.146397
     9212.344500       0.149025
     9220.839100       0.151676
     9229.349300       0.154349
     9237.875300       0.157046
     9246.417000       0.159765
     9254.974500       0.162509
     9263.547900       0.165275
     9272.137200       0.168064
     9280.742500       0.170877
     9289.363700       0.173713
     9298.000900       0.176573
     9306.654300       0.179456
     9315.323700       0.182363
     9324.009300       0.185293
     9332.711200       0.188247
     9341.429200       0.191224
     9350.163600       0.194225
     9358.914400       0.197249
     9367.681500       0.200297
     9376.465100       0.203369
     9385.265100       0.206463
     9394.081700       0.209582
     9402.914900       0.212724
     9411.764700       0.215890
     9420.631200       0.219079
     9429.514400       0.222292
     9438.414300       0.225528
     9447.331100       0.228787
     9456.264800       0.232070
     9465.215300       0.235376
     9474.182900       0.238705
     9483.167400       0.242057
     9492.169000       0.245432
     9501.187600       0.248830
     9510.223500       0.252252
     9519.276500       0.255695
     9528.346800       0.259161
     9537.434400       0.262650
     9546.539400       0.266161
     9555.661700       0.269695
     9564.801500       0.273251
     9573.958800       0.276829
     9583.133700       0.280428
     9592.326100       0.284049
     9601.536200       0.287693
     9610.764100       0.291357
     9620.009600       0.295042
     9629.273000       0.298749
     9638.554200       0.302477
     9647.853400       0.306225
     9657.170400       0.309994
     9666.505600       0.313783
     9675.858700       0.317592
     9685.230000       0.321421
     9694.619500       0.325270
     9704.027200       0.329138
     9713.453100       0.333026
     9722.897400       0.336933
     9732.360100       0.340858
     9741.841200       0.344802
     9751.340800       0.348764
     9760.859000       0.352744
     9770.395700       0.356742
     9779.951100       0.360757
     9789.525200       0.364790
     9799.118100       0.368839
     9808.729800       0.372905
     9818.360300       0.376988
     9828.009800       0.381086
     9837.678300       0.385200
     9847.365800       0.389330
     9857.072400       0.393474
     9866.798200       0.397634
     9876.543200       0.401808
     9886.307500       0.405996
     9896.091000       0.410198
     9905.894000       0.414413
     9915.716400       0.418642
     9925.558300       0.422883
     9935.419800       0.427137
     9945.300800       0.431403
     9955.201600       0.435680
     9965.122100       0.439969
     9975.062300       0.444268
     9985.022500       0.448579
     9995.002500       0.452900
    10005.002500       0.457230
    10015.022500       0.461570
    10025.062700       0.465919
    10035.122900       0.470276
    10045.203400       0.474642
    10055.304200       0.479016
    10065.425300       0.483397
    10075.566800       0.487785
    10085.728700       0.492179
    10095.911200       0.496581
    10106.114200       0.500987
    10116.337900       0.505399
    10126.582300       0.509816
    10136.847400       0.514238
    10147.133400       0.518664
    10157.440300       0.523093
    10167.768200       0.527526
    10178.117000       0.531961
    10188.487000       0.536399
    10198.878100       0.540839
    10209.290500       0.545280
    10219.724100       0.549722
    10230.179000       0.554165
    10240.655400       0.558608
    10251.153300       0.563050
    10261.672700       0.567492
    10272.213700       0.571932
    10282.776300       0.576371
    10293.360800       0.580808
    10303.967000       0.585242
    10314.595200       0.589673
    10325.245200       0.594100
    10335.917300       0.598524
    10346.611500       0.602943
    10357.327800       0.607357
    10368.066400       0.611765
    10378.827200       0.616168
    10389.610400       0.620565
    10400.416000       0.624955
    10411.244100       0.629337
    10422.094800       0.633712
    10432.968200       0.638079
    10443.864200       0.642438
    10454.783100       0.646787
    10465.724800       0.651126
    10476.689400       0.655456
    10487.677000       0.659775
    10498.687700       0.664083
    10509.721500       0.668380
    10520.778500       0.672665
    10531.858900       0.676938
    10542.962600       0.681198
    10554.089700       0.685445
    10565.240400       0.689678
    10576.414600       0.693898
    10587.612500       0.698102
    10598.834100       0.702292
    10610.079600       0.706466
    10621.348900       0.710624
    10632.642200       0.714766
    10643.959600       0.718892
    10655.301000       0.723000
    10666.666700       0.727090
    10678.056600       0.731162
    10689.470900       0.735216
    10700.909600       0.739251
    10712.372800       0.743266
    10723.860600       0.747262
    10735.373100       0.751238
    10746.910300       0.755193
    10758.472300       0.759127
    10770.059200       0.763039
    10781.671200       0.766930
    10793.308100       0.770798
    10804.970300       0.774644
    10816.657700       0.778467
    10828.370300       0.782266
    10840.108400       0.786042
    10851.871900       0.789793
    10863.661100       0.793520
    10875.475800       0.797221
    10887.316300       0.800898
    10899.182600       0.804548
    10911.074700       0.808173
    10922.992900       0.811771
    10934.937100       0.815343
    10946.907500       0.818887
    10958.904100       0.822403
    10970.927000       0.825893
    10982.976400       0.829353
    10995.052200       0.832785
    11007.154700       0.836189
    11019.283700       0.839563
    11031.439600       0.842908
    11043.622300       0.846222
    11055.832000       0.849507
    11068.068600       0.852761
    11080.332400       0.855985
    11092.623400       0.859178
    11104.941700       0.862339
    11117.287400       0.865468
    11129.660500       0.868566
    11142.061300       0.871632
    11154.489700       0.874665
    11166.945800       0.877666
    11179.429800       0.880633
    11191.941800       0.883568
    11204.481800       0.886469
    11217.049900       0.889336
    11229.646300       0.892170
    11242.270900       0.894969
    11254.924000       0.897734
    11267.605600       0.900465
    11280.315800       0.903160
    11293.054800       0.905821
    11305.822500       0.908446
    11318.619100       0.911037
    11331.444800       0.913591
    11344.299500       0.916110
    11357.183400       0.918593
    11370.096600       0.921040
    11383.039300       0.923450
    11396.011400       0.925824
    11409.013100       0.928162
    11422.044500       0.930463
    11435.105800       0.932727
    11448.196900       0.934954
    11461.318100       0.937144
    11474.469300       0.939297
    11487.650800       0.941413
    11500.862600       0.943491
    11514.104800       0.945532
    11527.377500       0.947535
    11540.680900       0.949500
    11554.015000       0.951428
    11567.380000       0.953318
    11580.775900       0.955170
    11594.202900       0.956984
    11607.661100       0.958760
    11621.150500       0.960498
    11634.671300       0.962198
    11648.223600       0.963860
    11661.807600       0.965484
    11675.423200       0.967069
    11689.070700       0.968617
    11702.750100       0.970126
    11716.461600       0.971597
    11730.205300       0.973030
    11743.981200       0.974425
    11757.789500       0.975782
    11771.630400       0.977100
    11785.503800       0.978381
    11799.410000       0.979624
    11813.349100       0.980828
    11827.321100       0.981995
    11841.326200       0.983124
    11855.364600       0.984215
    11869.436200       0.985269
    11883.541300       0.986285
    11897.680000       0.987263
    11911.852300       0.988204
    11926.058400       0.989108
    11940.298500       0.989974
    11954.572600       0.990804
    11968.880900       0.991596
    11983.223500       0.992352
    11997.600500       0.993070
    12012.012000       0.993753
    12026.458200       0.994399
    12040.939200       0.995008
    12055.455100       0.995582
    12070.006000       0.996119
    12084.592100       0.996621
    12099.213600       0.997087
    12113.870400       0.997518
    12128.562800       0.997913
    12143.290800       0.998274
    12158.054700       0.998600
    12172.854500       0.998891
    12187.690400       0.999147
    12202.562500       0.999370
    12217.471000       0.999558
    12232.415900       0.999713
    12247.397400       0.999835
    12262.415700       0.999923
    12277.470800       0.999978
    12292.563000       1.000000
    12307.692300       0.999990
    12322.858900       0.999947
    12338.062900       0.999873
    12353.304500       0.999767
    12368.583800       0.999630
    12383.900900       0.999461
    12399.256000       0.999262
    12414.649300       0.999032
    12430.080800       0.998772
    12445.550700       0.998482
    12461.059200       0.998162
    12476.606400       0.997813
    12492.192400       0.997435
    12507.817400       0.997029
    12523.481500       0.996594
    12539.185000       0.996131
    12554.927800       0.995640
    12570.710200       0.995123
    12586.532400       0.994578
    12602.394500       0.994006
    12618.296500       0.993409
    12634.238800       0.992785
    12650.221400       0.992136
    12666.244500       0.991462
    12682.308200       0.990763
    12698.412700       0.990040
    12714.558200       0.989292
    12730.744700       0.988521
    12746.972600       0.987727
    12763.241900       0.986910
    12779.552700       0.986070
    12795.905300       0.985208
    12812.299800       0.984325
    12828.736400       0.983420
    12845.215200       0.982494
    12861.736300       0.981548
    12878.300100       0.980582
    12894.906500       0.979596
    12911.555800       0.978591
    12928.248200       0.977567
    12944.983800       0.976525
    12961.762800       0.975465
    12978.585300       0.974387
    12995.451600       0.973292
    13012.361700       0.972181
    13029.316000       0.971053
    13046.314400       0.969910
    13063.357300       0.968751
    13080.444700       0.967577
    13097.576900       0.966388
    13114.754100       0.965186
    13131.976400       0.963970
    13149.243900       0.962741
    13166.556900       0.961499
    13183.915600       0.960245
    13201.320100       0.958979
    13218.770700       0.957701
    13236.267400       0.956413
    13253.810500       0.955114
    13271.400100       0.953805
    13289.036500       0.952487
    13306.719900       0.951160
    13324.450400       0.949823
    13342.228200       0.948479
    13360.053400       0.947127
    13377.926400       0.945767
    13395.847300       0.944401
    13413.816200       0.943028
    13431.833400       0.941649
    13449.899100       0.940265
    13468.013500       0.938876
    13486.176700       0.937482
    13504.388900       0.936083
    13522.650400       0.934682
    13540.961400       0.933276
    13559.322000       0.931868
    13577.732500       0.930458
    13596.193100       0.929046
    13614.703900       0.927632
    13633.265200       0.926217
    13651.877100       0.924802
    13670.540000       0.923386
    13689.253900       0.921970
    13708.019200       0.920556
    13726.836000       0.919142
    13745.704500       0.917730
    13764.624900       0.916320
    13783.597500       0.914912
    13802.622500       0.913507
    13821.700100       0.912105
    13840.830400       0.910707
    13860.013900       0.909313
    13879.250500       0.907924
    13898.540700       0.906539
    13917.884500       0.905160
    13937.282200       0.903786
    13956.734100       0.902418
    13976.240400       0.901057
    13995.801300       0.899703
    14015.417000       0.898356
    14035.087700       0.897016
    14054.813800       0.895685
    14074.595400       0.894362
    14094.432700       0.893047
    14114.326000       0.891742
    14134.275600       0.890446
    14154.281700       0.889160
    14174.344400       0.887885
    14194.464200       0.886619
    14214.641100       0.885365
    14234.875400       0.884122
    14255.167500       0.882890
    14275.517500       0.881670
    14295.925700       0.880463
    14316.392300       0.879268
    14336.917600       0.878086
    14357.501800       0.876916
    14378.145200       0.875761
    14398.848100       0.874619
    14419.610700       0.873491
    14440.433200       0.872377
    14461.316000       0.871278
    14482.259200       0.870194
    14503.263200       0.869125
    14524.328200       0.868071
    14545.454500       0.867033
    14566.642400       0.866010
    14587.892000       0.865004
    14609.203800       0.864014
    14630.577900       0.863041
    14652.014700       0.862084
    14673.514300       0.861145
    14695.077100       0.860222
    14716.703500       0.859317
    14738.393500       0.858430
    14760.147600       0.857560
    14781.966000       0.856709
    14803.849000       0.855875
    14825.796900       0.855060
    14847.809900       0.854263
    14869.888500       0.853485
    14892.032800       0.852725
    14914.243100       0.851984
    14936.519800       0.851263
    14958.863100       0.850560
    14981.273400       0.849876
    15003.750900       0.849212
    15026.296000       0.848567
    15048.909000       0.847942
    15071.590100       0.847336
    15094.339600       0.846749
    15117.158000       0.846183
    15140.045400       0.845636
    15163.002300       0.845109
    15186.028900       0.844601
    15209.125500       0.844113
    15232.292500       0.843645
    15255.530100       0.843197
    15278.838800       0.842769
    15302.218800       0.842360
    15325.670500       0.841972
    15349.194200       0.841603
    15372.790200       0.841253
    15396.458800       0.840923
    15420.200500       0.840613
    15444.015400       0.840323
    15467.904100       0.840051
    15491.866800       0.839800
    15515.903800       0.839567
    15540.015500       0.839353
    15564.202300       0.839159
    15588.464500       0.838983
    15612.802500       0.838826
    15637.216600       0.838688
    15661.707100       0.838569
    15686.274500       0.838467
    15710.919100       0.838384
    15735.641200       0.838318
    15760.441300       0.838271
    15785.319700       0.838241
    15810.276700       0.838228
    15835.312700       0.838232
    15860.428200       0.838254
    15885.623500       0.838292
    15910.899000       0.838346
    15936.255000       0.838416
    15961.691900       0.838503
    15987.210200       0.838605
    16012.810200       0.838722
    16038.492400       0.838854
    16064.257000       0.839001
    16090.104600       0.839162
    16116.035500       0.839337
    16142.050000       0.839526
    16168.148700       0.839729
    16194.332000       0.839944
    16220.600200       0.840172
    16246.953700       0.840412
    16273.393000       0.840664
    16299.918500       0.840928
    16326.530600       0.841202
    16353.229800       0.841487
    16380.016400       0.841783
    16406.890900       0.842088
    16433.853700       0.842402
    16460.905300       0.842726
    16488.046200       0.843057
    16515.276600       0.843397
    16542.597200       0.843744
    16570.008300       0.844098
    16597.510400       0.844459
    16625.103900       0.844826
    16652.789300       0.845198
    16680.567100       0.845574
    16708.437800       0.845956
    16736.401700       0.846341
    16764.459300       0.846729
    16792.611300       0.847120
    16820.857900       0.847513
    16849.199700       0.847908
    16877.637100       0.848304
    16906.170800       0.848700
    16934.801000       0.849096
    16963.528400       0.849491
    16992.353400       0.849884
    17021.276600       0.850275
    17050.298400       0.850664
    17079.419300       0.851049
    17108.639900       0.851430
    17137.960600       0.851807
    17167.382000       0.852178
    17196.904600       0.852543
    17226.528900       0.852901
    17256.255400       0.853252
    17286.084700       0.853595
    17316.017300       0.853929
    17346.053800       0.854253
    17376.194600       0.854567
    17406.440400       0.854870
    17436.791600       0.855161
    17467.248900       0.855440
    17497.812800       0.855706
    17528.483800       0.855958
    17559.262500       0.856194
    17590.149500       0.856416
    17621.145400       0.856621
    17652.250700       0.856809
    17683.466000       0.856980
