31,   31, MVIRI VIS channel from srf_MET7_2001168_2001169_1801-Release_S10EE_10.dat
Number of data points:
793
Wavenumber (cm-1)   Filter response
     8442.380800       0.000000
     8449.514200       0.000000
     8456.659600       0.000004
     8463.817200       0.000053
     8470.986900       0.000158
     8478.168700       0.000315
     8485.362700       0.000525
     8492.569000       0.000784
     8499.787500       0.001093
     8507.018300       0.001449
     8514.261400       0.001851
     8521.516800       0.002298
     8528.784600       0.002788
     8536.064900       0.003321
     8543.357500       0.003895
     8550.662700       0.004509
     8557.980300       0.005162
     8565.310500       0.005852
     8572.653200       0.006580
     8580.008600       0.007344
     8587.376600       0.008143
     8594.757200       0.008975
     8602.150500       0.009841
     8609.556600       0.010740
     8616.975400       0.011670
     8624.407100       0.012632
     8631.851500       0.013623
     8639.308900       0.014644
     8646.779100       0.015694
     8654.262200       0.016772
     8661.758300       0.017878
     8669.267400       0.019011
     8676.789600       0.020170
     8684.324800       0.021356
     8691.873100       0.022567
     8699.434500       0.023804
     8707.009100       0.025065
     8714.596900       0.026350
     8722.198000       0.027660
     8729.812300       0.028993
     8737.439900       0.030349
     8745.080900       0.031728
     8752.735200       0.033130
     8760.403000       0.034554
     8768.084200       0.036001
     8775.778900       0.037469
     8783.487000       0.038959
     8791.208800       0.040470
     8798.944100       0.042002
     8806.693100       0.043556
     8814.455700       0.045130
     8822.232000       0.046726
     8830.022100       0.048342
     8837.825900       0.049979
     8845.643500       0.051636
     8853.475000       0.053313
     8861.320300       0.055011
     8869.179600       0.056729
     8877.052800       0.058467
     8884.940000       0.060226
     8892.841300       0.062004
     8900.756600       0.063803
     8908.686000       0.065621
     8916.629500       0.067460
     8924.587200       0.069319
     8932.559200       0.071198
     8940.545400       0.073098
     8948.545900       0.075017
     8956.560700       0.076957
     8964.589900       0.078917
     8972.633500       0.080897
     8980.691500       0.082898
     8988.764000       0.084919
     8996.851100       0.086961
     9004.952700       0.089023
     9013.068900       0.091106
     9021.199800       0.093210
     9029.345400       0.095334
     9037.505600       0.097479
     9045.680700       0.099645
     9053.870500       0.101833
     9062.075200       0.104041
     9070.294800       0.106271
     9078.529300       0.108522
     9086.778700       0.110795
     9095.043200       0.113089
     9103.322700       0.115404
     9111.617300       0.117742
     9119.927000       0.120101
     9128.251900       0.122482
     9136.592100       0.124885
     9144.947400       0.127310
     9153.318100       0.129757
     9161.704100       0.132226
     9170.105500       0.134718
     9178.522300       0.137233
     9186.954500       0.139769
     9195.402300       0.142329
     9203.865600       0.144911
     9212.344500       0.147516
     9220.839100       0.150144
     9229.349300       0.152794
     9237.875300       0.155468
     9246.417000       0.158165
     9254.974500       0.160884
     9263.547900       0.163628
     9272.137200       0.166394
     9280.742500       0.169183
     9289.363700       0.171996
     9298.000900       0.174832
     9306.654300       0.177692
     9315.323700       0.180574
     9324.009300       0.183481
     9332.711200       0.186411
     9341.429200       0.189364
     9350.163600       0.192341
     9358.914400       0.195341
     9367.681500       0.198366
     9376.465100       0.201413
     9385.265100       0.204484
     9394.081700       0.207579
     9402.914900       0.210697
     9411.764700       0.213838
     9420.631200       0.217003
     9429.514400       0.220192
     9438.414300       0.223403
     9447.331100       0.226638
     9456.264800       0.229897
     9465.215300       0.233179
     9474.182900       0.236483
     9483.167400       0.239811
     9492.169000       0.243162
     9501.187600       0.246536
     9510.223500       0.249932
     9519.276500       0.253351
     9528.346800       0.256794
     9537.434400       0.260258
     9546.539400       0.263745
     9555.661700       0.267254
     9564.801500       0.270786
     9573.958800       0.274339
     9583.133700       0.277915
     9592.326100       0.281512
     9601.536200       0.285131
     9610.764100       0.288771
     9620.009600       0.292432
     9629.273000       0.296115
     9638.554200       0.299819
     9647.853400       0.303543
     9657.170400       0.307288
     9666.505600       0.311053
     9675.858700       0.314839
     9685.230000       0.318644
     9694.619500       0.322470
     9704.027200       0.326315
     9713.453100       0.330179
     9722.897400       0.334062
     9732.360100       0.337964
     9741.841200       0.341885
     9751.340800       0.345824
     9760.859000       0.349782
     9770.395700       0.353757
     9779.951100       0.357749
     9789.525200       0.361760
     9799.118100       0.365787
     9808.729800       0.369831
     9818.360300       0.373891
     9828.009800       0.377967
     9837.678300       0.382060
     9847.365800       0.386168
     9857.072400       0.390291
     9866.798200       0.394430
     9876.543200       0.398582
     9886.307500       0.402750
     9896.091000       0.406931
     9905.894000       0.411126
     9915.716400       0.415334
     9925.558300       0.419555
     9935.419800       0.423789
     9945.300800       0.428035
     9955.201600       0.432293
     9965.122100       0.436562
     9975.062300       0.440843
     9985.022500       0.445135
     9995.002500       0.449437
    10005.002500       0.453749
    10015.022500       0.458070
    10025.062700       0.462401
    10035.122900       0.466741
    10045.203400       0.471090
    10055.304200       0.475446
    10065.425300       0.479811
    10075.566800       0.484182
    10085.728700       0.488561
    10095.911200       0.492946
    10106.114200       0.497337
    10116.337900       0.501734
    10126.582300       0.506136
    10136.847400       0.510542
    10147.133400       0.514954
    10157.440300       0.519369
    10167.768200       0.523788
    10178.117000       0.528209
    10188.487000       0.532634
    10198.878100       0.537061
    10209.290500       0.541489
    10219.724100       0.545919
    10230.179000       0.550350
    10240.655400       0.554781
    10251.153300       0.559213
    10261.672700       0.563643
    10272.213700       0.568073
    10282.776300       0.572502
    10293.360800       0.576929
    10303.967000       0.581354
    10314.595200       0.585776
    10325.245200       0.590194
    10335.917300       0.594610
    10346.611500       0.599021
    10357.327800       0.603428
    10368.066400       0.607829
    10378.827200       0.612225
    10389.610400       0.616616
    10400.416000       0.621000
    10411.244100       0.625377
    10422.094800       0.629747
    10432.968200       0.634109
    10443.864200       0.638463
    10454.783100       0.642809
    10465.724800       0.647145
    10476.689400       0.651472
    10487.677000       0.655788
    10498.687700       0.660095
    10509.721500       0.664390
    10520.778500       0.668674
    10531.858900       0.672946
    10542.962600       0.677206
    10554.089700       0.681453
    10565.240400       0.685686
    10576.414600       0.689907
    10587.612500       0.694113
    10598.834100       0.698304
    10610.079600       0.702481
    10621.348900       0.706642
    10632.642200       0.710787
    10643.959600       0.714917
    10655.301000       0.719029
    10666.666700       0.723124
    10678.056600       0.727201
    10689.470900       0.731261
    10700.909600       0.735302
    10712.372800       0.739324
    10723.860600       0.743327
    10735.373100       0.747310
    10746.910300       0.751273
    10758.472300       0.755216
    10770.059200       0.759137
    10781.671200       0.763037
    10793.308100       0.766916
    10804.970300       0.770772
    10816.657700       0.774606
    10828.370300       0.778416
    10840.108400       0.782204
    10851.871900       0.785967
    10863.661100       0.789707
    10875.475800       0.793422
    10887.316300       0.797112
    10899.182600       0.800777
    10911.074700       0.804417
    10922.992900       0.808030
    10934.937100       0.811617
    10946.907500       0.815178
    10958.904100       0.818711
    10970.927000       0.822217
    10982.976400       0.825696
    10995.052200       0.829146
    11007.154700       0.832568
    11019.283700       0.835961
    11031.439600       0.839326
    11043.622300       0.842660
    11055.832000       0.845966
    11068.068600       0.849241
    11080.332400       0.852486
    11092.623400       0.855701
    11104.941700       0.858885
    11117.287400       0.862037
    11129.660500       0.865158
    11142.061300       0.868248
    11154.489700       0.871305
    11166.945800       0.874331
    11179.429800       0.877324
    11191.941800       0.880284
    11204.481800       0.883211
    11217.049900       0.886105
    11229.646300       0.888965
    11242.270900       0.891792
    11254.924000       0.894585
    11267.605600       0.897344
    11280.315800       0.900068
    11293.054800       0.902758
    11305.822500       0.905413
    11318.619100       0.908034
    11331.444800       0.910619
    11344.299500       0.913169
    11357.183400       0.915683
    11370.096600       0.918162
    11383.039300       0.920604
    11396.011400       0.923011
    11409.013100       0.925382
    11422.044500       0.927716
    11435.105800       0.930014
    11448.196900       0.932276
    11461.318100       0.934501
    11474.469300       0.936689
    11487.650800       0.938840
    11500.862600       0.940954
    11514.104800       0.943031
    11527.377500       0.945070
    11540.680900       0.947073
    11554.015000       0.949038
    11567.380000       0.950966
    11580.775900       0.952856
    11594.202900       0.954708
    11607.661100       0.956523
    11621.150500       0.958300
    11634.671300       0.960040
    11648.223600       0.961741
    11661.807600       0.963405
    11675.423200       0.965031
    11689.070700       0.966620
    11702.750100       0.968170
    11716.461600       0.969682
    11730.205300       0.971157
    11743.981200       0.972594
    11757.789500       0.973993
    11771.630400       0.975355
    11785.503800       0.976678
    11799.410000       0.977964
    11813.349100       0.979213
    11827.321100       0.980423
    11841.326200       0.981596
    11855.364600       0.982732
    11869.436200       0.983830
    11883.541300       0.984891
    11897.680000       0.985915
    11911.852300       0.986901
    11926.058400       0.987850
    11940.298500       0.988763
    11954.572600       0.989638
    11968.880900       0.990477
    11983.223500       0.991279
    11997.600500       0.992045
    12012.012000       0.992774
    12026.458200       0.993468
    12040.939200       0.994125
    12055.455100       0.994746
    12070.006000       0.995331
    12084.592100       0.995881
    12099.213600       0.996396
    12113.870400       0.996875
    12128.562800       0.997319
    12143.290800       0.997729
    12158.054700       0.998103
    12172.854500       0.998443
    12187.690400       0.998750
    12202.562500       0.999021
    12217.471000       0.999260
    12232.415900       0.999464
    12247.397400       0.999635
    12262.415700       0.999774
    12277.470800       0.999879
    12292.563000       0.999952
    12307.692300       0.999992
    12322.858900       1.000000
    12338.062900       0.999976
    12353.304500       0.999921
    12368.583800       0.999835
    12383.900900       0.999717
    12399.256000       0.999569
    12414.649300       0.999390
    12430.080800       0.999181
    12445.550700       0.998943
    12461.059200       0.998674
    12476.606400       0.998377
    12492.192400       0.998051
    12507.817400       0.997696
    12523.481500       0.997313
    12539.185000       0.996901
    12554.927800       0.996463
    12570.710200       0.995997
    12586.532400       0.995504
    12602.394500       0.994985
    12618.296500       0.994439
    12634.238800       0.993867
    12650.221400       0.993270
    12666.244500       0.992648
    12682.308200       0.992001
    12698.412700       0.991330
    12714.558200       0.990635
    12730.744700       0.989916
    12746.972600       0.989174
    12763.241900       0.988409
    12779.552700       0.987621
    12795.905300       0.986812
    12812.299800       0.985980
    12828.736400       0.985128
    12845.215200       0.984254
    12861.736300       0.983360
    12878.300100       0.982446
    12894.906500       0.981513
    12911.555800       0.980560
    12928.248200       0.979588
    12944.983800       0.978598
    12961.762800       0.977590
    12978.585300       0.976564
    12995.451600       0.975521
    13012.361700       0.974462
    13029.316000       0.973386
    13046.314400       0.972294
    13063.357300       0.971187
    13080.444700       0.970065
    13097.576900       0.968929
    13114.754100       0.967778
    13131.976400       0.966614
    13149.243900       0.965436
    13166.556900       0.964246
    13183.915600       0.963043
    13201.320100       0.961829
    13218.770700       0.960603
    13236.267400       0.959366
    13253.810500       0.958119
    13271.400100       0.956861
    13289.036500       0.955594
    13306.719900       0.954318
    13324.450400       0.953033
    13342.228200       0.951739
    13360.053400       0.950438
    13377.926400       0.949130
    13395.847300       0.947814
    13413.816200       0.946493
    13431.833400       0.945165
    13449.899100       0.943831
    13468.013500       0.942493
    13486.176700       0.941149
    13504.388900       0.939802
    13522.650400       0.938451
    13540.961400       0.937096
    13559.322000       0.935739
    13577.732500       0.934379
    13596.193100       0.933017
    13614.703900       0.931654
    13633.265200       0.930289
    13651.877100       0.928924
    13670.540000       0.927559
    13689.253900       0.926193
    13708.019200       0.924829
    13726.836000       0.923465
    13745.704500       0.922103
    13764.624900       0.920743
    13783.597500       0.919386
    13802.622500       0.918031
    13821.700100       0.916679
    13840.830400       0.915331
    13860.013900       0.913987
    13879.250500       0.912648
    13898.540700       0.911313
    13917.884500       0.909984
    13937.282200       0.908660
    13956.734100       0.907342
    13976.240400       0.906031
    13995.801300       0.904727
    14015.417000       0.903429
    14035.087700       0.902140
    14054.813800       0.900858
    14074.595400       0.899585
    14094.432700       0.898321
    14114.326000       0.897066
    14134.275600       0.895820
    14154.281700       0.894584
    14174.344400       0.893359
    14194.464200       0.892144
    14214.641100       0.890940
    14234.875400       0.889747
    14255.167500       0.888565
    14275.517500       0.887396
    14295.925700       0.886239
    14316.392300       0.885094
    14336.917600       0.883963
    14357.501800       0.882844
    14378.145200       0.881739
    14398.848100       0.880648
    14419.610700       0.879571
    14440.433200       0.878509
    14461.316000       0.877461
    14482.259200       0.876427
    14503.263200       0.875410
    14524.328200       0.874407
    14545.454500       0.873421
    14566.642400       0.872450
    14587.892000       0.871495
    14609.203800       0.870557
    14630.577900       0.869636
    14652.014700       0.868732
    14673.514300       0.867845
    14695.077100       0.866975
    14716.703500       0.866122
    14738.393500       0.865288
    14760.147600       0.864471
    14781.966000       0.863672
    14803.849000       0.862892
    14825.796900       0.862130
    14847.809900       0.861387
    14869.888500       0.860663
    14892.032800       0.859957
    14914.243100       0.859270
    14936.519800       0.858603
    14958.863100       0.857955
    14981.273400       0.857326
    15003.750900       0.856717
    15026.296000       0.856128
    15048.909000       0.855558
    15071.590100       0.855008
    15094.339600       0.854477
    15117.158000       0.853967
    15140.045400       0.853476
    15163.002300       0.853006
    15186.028900       0.852555
    15209.125500       0.852125
    15232.292500       0.851715
    15255.530100       0.851324
    15278.838800       0.850954
    15302.218800       0.850604
    15325.670500       0.850274
    15349.194200       0.849964
    15372.790200       0.849673
    15396.458800       0.849403
    15420.200500       0.849153
    15444.015400       0.848922
    15467.904100       0.848712
    15491.866800       0.848521
    15515.903800       0.848349
    15540.015500       0.848197
    15564.202300       0.848064
    15588.464500       0.847951
    15612.802500       0.847856
    15637.216600       0.847781
    15661.707100       0.847724
    15686.274500       0.847686
    15710.919100       0.847666
    15735.641200       0.847665
    15760.441300       0.847682
    15785.319700       0.847717
    15810.276700       0.847769
    15835.312700       0.847839
    15860.428200       0.847926
    15885.623500       0.848030
    15910.899000       0.848151
    15936.255000       0.848288
    15961.691900       0.848442
    15987.210200       0.848612
    16012.810200       0.848797
    16038.492400       0.848997
    16064.257000       0.849213
    16090.104600       0.849443
    16116.035500       0.849688
    16142.050000       0.849947
    16168.148700       0.850219
    16194.332000       0.850505
    16220.600200       0.850804
    16246.953700       0.851115
    16273.393000       0.851439
    16299.918500       0.851774
    16326.530600       0.852121
    16353.229800       0.852479
    16380.016400       0.852847
    16406.890900       0.853226
    16433.853700       0.853614
    16460.905300       0.854011
    16488.046200       0.854417
    16515.276600       0.854832
    16542.597200       0.855254
    16570.008300       0.855684
    16597.510400       0.856120
    16625.103900       0.856562
    16652.789300       0.857011
    16680.567100       0.857464
    16708.437800       0.857922
    16736.401700       0.858385
    16764.459300       0.858850
    16792.611300       0.859319
    16820.857900       0.859791
    16849.199700       0.860264
    16877.637100       0.860738
    16906.170800       0.861213
    16934.801000       0.861688
    16963.528400       0.862162
    16992.353400       0.862635
    17021.276600       0.863106
    17050.298400       0.863575
    17079.419300       0.864040
    17108.639900       0.864501
    17137.960600       0.864958
    17167.382000       0.865410
    17196.904600       0.865856
    17226.528900       0.866295
    17256.255400       0.866727
    17286.084700       0.867151
    17316.017300       0.867566
    17346.053800       0.867972
    17376.194600       0.868367
    17406.440400       0.868752
    17436.791600       0.869125
    17467.248900       0.869485
    17497.812800       0.869833
    17528.483800       0.870166
    17559.262500       0.870485
    17590.149500       0.870788
    17621.145400       0.871074
    17652.250700       0.871344
    17683.466000       0.871596
