93,   93, MVIRI VIS channel from srf_MET7_2009078_2009079_1801-Release_S10EE_10.dat
Number of data points:
793
Wavenumber (cm-1)   Filter response
     8442.380800       0.000000
     8449.514200       0.000000
     8456.659600       0.000004
     8463.817200       0.000056
     8470.986900       0.000165
     8478.168700       0.000331
     8485.362700       0.000551
     8492.569000       0.000823
     8499.787500       0.001147
     8507.018300       0.001520
     8514.261400       0.001942
     8521.516800       0.002411
     8528.784600       0.002925
     8536.064900       0.003484
     8543.357500       0.004085
     8550.662700       0.004729
     8557.980300       0.005413
     8565.310500       0.006137
     8572.653200       0.006900
     8580.008600       0.007700
     8587.376600       0.008537
     8594.757200       0.009409
     8602.150500       0.010316
     8609.556600       0.011257
     8616.975400       0.012231
     8624.407100       0.013237
     8631.851500       0.014275
     8639.308900       0.015343
     8646.779100       0.016442
     8654.262200       0.017569
     8661.758300       0.018726
     8669.267400       0.019911
     8676.789600       0.021124
     8684.324800       0.022364
     8691.873100       0.023630
     8699.434500       0.024922
     8707.009100       0.026240
     8714.596900       0.027584
     8722.198000       0.028952
     8729.812300       0.030344
     8737.439900       0.031761
     8745.080900       0.033201
     8752.735200       0.034665
     8760.403000       0.036152
     8768.084200       0.037662
     8775.778900       0.039194
     8783.487000       0.040748
     8791.208800       0.042325
     8798.944100       0.043924
     8806.693100       0.045544
     8814.455700       0.047186
     8822.232000       0.048850
     8830.022100       0.050534
     8837.825900       0.052240
     8845.643500       0.053967
     8853.475000       0.055715
     8861.320300       0.057484
     8869.179600       0.059273
     8877.052800       0.061084
     8884.940000       0.062915
     8892.841300       0.064767
     8900.756600       0.066639
     8908.686000       0.068532
     8916.629500       0.070446
     8924.587200       0.072380
     8932.559200       0.074335
     8940.545400       0.076311
     8948.545900       0.078307
     8956.560700       0.080324
     8964.589900       0.082362
     8972.633500       0.084420
     8980.691500       0.086500
     8988.764000       0.088600
     8996.851100       0.090721
     9004.952700       0.092863
     9013.068900       0.095026
     9021.199800       0.097211
     9029.345400       0.099417
     9037.505600       0.101644
     9045.680700       0.103892
     9053.870500       0.106162
     9062.075200       0.108454
     9070.294800       0.110767
     9078.529300       0.113101
     9086.778700       0.115458
     9095.043200       0.117837
     9103.322700       0.120237
     9111.617300       0.122660
     9119.927000       0.125105
     9128.251900       0.127572
     9136.592100       0.130062
     9144.947400       0.132574
     9153.318100       0.135108
     9161.704100       0.137665
     9170.105500       0.140245
     9178.522300       0.142848
     9186.954500       0.145473
     9195.402300       0.148122
     9203.865600       0.150793
     9212.344500       0.153488
     9220.839100       0.156206
     9229.349300       0.158946
     9237.875300       0.161711
     9246.417000       0.164498
     9254.974500       0.167309
     9263.547900       0.170144
     9272.137200       0.173001
     9280.742500       0.175883
     9289.363700       0.178788
     9298.000900       0.181717
     9306.654300       0.184669
     9315.323700       0.187645
     9324.009300       0.190645
     9332.711200       0.193668
     9341.429200       0.196715
     9350.163600       0.199786
     9358.914400       0.202880
     9367.681500       0.205998
     9376.465100       0.209140
     9385.265100       0.212306
     9394.081700       0.215495
     9402.914900       0.218708
     9411.764700       0.221944
     9420.631200       0.225204
     9429.514400       0.228488
     9438.414300       0.231795
     9447.331100       0.235125
     9456.264800       0.238479
     9465.215300       0.241856
     9474.182900       0.245256
     9483.167400       0.248679
     9492.169000       0.252125
     9501.187600       0.255594
     9510.223500       0.259087
     9519.276500       0.262601
     9528.346800       0.266139
     9537.434400       0.269698
     9546.539400       0.273280
     9555.661700       0.276885
     9564.801500       0.280511
     9573.958800       0.284159
     9583.133700       0.287830
     9592.326100       0.291521
     9601.536200       0.295235
     9610.764100       0.298969
     9620.009600       0.302724
     9629.273000       0.306501
     9638.554200       0.310298
     9647.853400       0.314116
     9657.170400       0.317953
     9666.505600       0.321812
     9675.858700       0.325690
     9685.230000       0.329587
     9694.619500       0.333504
     9704.027200       0.337440
     9713.453100       0.341395
     9722.897400       0.345369
     9732.360100       0.349362
     9741.841200       0.353372
     9751.340800       0.357400
     9760.859000       0.361447
     9770.395700       0.365510
     9779.951100       0.369590
     9789.525200       0.373688
     9799.118100       0.377802
     9808.729800       0.381931
     9818.360300       0.386078
     9828.009800       0.390239
     9837.678300       0.394416
     9847.365800       0.398607
     9857.072400       0.402813
     9866.798200       0.407034
     9876.543200       0.411268
     9886.307500       0.415517
     9896.091000       0.419778
     9905.894000       0.424052
     9915.716400       0.428339
     9925.558300       0.432637
     9935.419800       0.436948
     9945.300800       0.441271
     9955.201600       0.445603
     9965.122100       0.449947
     9975.062300       0.454301
     9985.022500       0.458665
     9995.002500       0.463039
    10005.002500       0.467422
    10015.022500       0.471813
    10025.062700       0.476213
    10035.122900       0.480620
    10045.203400       0.485035
    10055.304200       0.489457
    10065.425300       0.493886
    10075.566800       0.498320
    10085.728700       0.502761
    10095.911200       0.507207
    10106.114200       0.511658
    10116.337900       0.516114
    10126.582300       0.520573
    10136.847400       0.525036
    10147.133400       0.529503
    10157.440300       0.533972
    10167.768200       0.538443
    10178.117000       0.542916
    10188.487000       0.547390
    10198.878100       0.551866
    10209.290500       0.556342
    10219.724100       0.560817
    10230.179000       0.565293
    10240.655400       0.569767
    10251.153300       0.574241
    10261.672700       0.578712
    10272.213700       0.583181
    10282.776300       0.587647
    10293.360800       0.592110
    10303.967000       0.596569
    10314.595200       0.601024
    10325.245200       0.605474
    10335.917300       0.609920
    10346.611500       0.614359
    10357.327800       0.618793
    10368.066400       0.623220
    10378.827200       0.627640
    10389.610400       0.632052
    10400.416000       0.636457
    10411.244100       0.640853
    10422.094800       0.645240
    10432.968200       0.649618
    10443.864200       0.653986
    10454.783100       0.658343
    10465.724800       0.662690
    10476.689400       0.667026
    10487.677000       0.671350
    10498.687700       0.675661
    10509.721500       0.679960
    10520.778500       0.684246
    10531.858900       0.688518
    10542.962600       0.692777
    10554.089700       0.697020
    10565.240400       0.701249
    10576.414600       0.705462
    10587.612500       0.709660
    10598.834100       0.713841
    10610.079600       0.718005
    10621.348900       0.722152
    10632.642200       0.726281
    10643.959600       0.730393
    10655.301000       0.734485
    10666.666700       0.738559
    10678.056600       0.742613
    10689.470900       0.746647
    10700.909600       0.750661
    10712.372800       0.754654
    10723.860600       0.758626
    10735.373100       0.762577
    10746.910300       0.766505
    10758.472300       0.770411
    10770.059200       0.774294
    10781.671200       0.778154
    10793.308100       0.781990
    10804.970300       0.785802
    10816.657700       0.789590
    10828.370300       0.793353
    10840.108400       0.797090
    10851.871900       0.800802
    10863.661100       0.804489
    10875.475800       0.808148
    10887.316300       0.811781
    10899.182600       0.815386
    10911.074700       0.818965
    10922.992900       0.822515
    10934.937100       0.826037
    10946.907500       0.829531
    10958.904100       0.832995
    10970.927000       0.836431
    10982.976400       0.839836
    10995.052200       0.843212
    11007.154700       0.846558
    11019.283700       0.849873
    11031.439600       0.853157
    11043.622300       0.856410
    11055.832000       0.859631
    11068.068600       0.862821
    11080.332400       0.865979
    11092.623400       0.869104
    11104.941700       0.872196
    11117.287400       0.875256
    11129.660500       0.878282
    11142.061300       0.881275
    11154.489700       0.884234
    11166.945800       0.887159
    11179.429800       0.890050
    11191.941800       0.892906
    11204.481800       0.895727
    11217.049900       0.898514
    11229.646300       0.901265
    11242.270900       0.903981
    11254.924000       0.906661
    11267.605600       0.909306
    11280.315800       0.911914
    11293.054800       0.914486
    11305.822500       0.917021
    11318.619100       0.919520
    11331.444800       0.921983
    11344.299500       0.924408
    11357.183400       0.926796
    11370.096600       0.929147
    11383.039300       0.931460
    11396.011400       0.933736
    11409.013100       0.935974
    11422.044500       0.938174
    11435.105800       0.940336
    11448.196900       0.942460
    11461.318100       0.944546
    11474.469300       0.946594
    11487.650800       0.948603
    11500.862600       0.950573
    11514.104800       0.952505
    11527.377500       0.954399
    11540.680900       0.956253
    11554.015000       0.958069
    11567.380000       0.959846
    11580.775900       0.961584
    11594.202900       0.963283
    11607.661100       0.964943
    11621.150500       0.966564
    11634.671300       0.968146
    11648.223600       0.969689
    11661.807600       0.971193
    11675.423200       0.972658
    11689.070700       0.974083
    11702.750100       0.975470
    11716.461600       0.976817
    11730.205300       0.978126
    11743.981200       0.979395
    11757.789500       0.980626
    11771.630400       0.981817
    11785.503800       0.982970
    11799.410000       0.984084
    11813.349100       0.985159
    11827.321100       0.986195
    11841.326200       0.987193
    11855.364600       0.988152
    11869.436200       0.989073
    11883.541300       0.989956
    11897.680000       0.990800
    11911.852300       0.991606
    11926.058400       0.992374
    11940.298500       0.993105
    11954.572600       0.993797
    11968.880900       0.994452
    11983.223500       0.995070
    11997.600500       0.995650
    12012.012000       0.996193
    12026.458200       0.996699
    12040.939200       0.997168
    12055.455100       0.997600
    12070.006000       0.997996
    12084.592100       0.998355
    12099.213600       0.998679
    12113.870400       0.998967
    12128.562800       0.999218
    12143.290800       0.999435
    12158.054700       0.999616
    12172.854500       0.999762
    12187.690400       0.999873
    12202.562500       0.999950
    12217.471000       0.999992
    12232.415900       1.000000
    12247.397400       0.999974
    12262.415700       0.999915
    12277.470800       0.999822
    12292.563000       0.999696
    12307.692300       0.999538
    12322.858900       0.999347
    12338.062900       0.999123
    12353.304500       0.998868
    12368.583800       0.998581
    12383.900900       0.998263
    12399.256000       0.997913
    12414.649300       0.997533
    12430.080800       0.997123
    12445.550700       0.996682
    12461.059200       0.996211
    12476.606400       0.995711
    12492.192400       0.995182
    12507.817400       0.994624
    12523.481500       0.994038
    12539.185000       0.993423
    12554.927800       0.992781
    12570.710200       0.992112
    12586.532400       0.991415
    12602.394500       0.990692
    12618.296500       0.989942
    12634.238800       0.989166
    12650.221400       0.988365
    12666.244500       0.987539
    12682.308200       0.986687
    12698.412700       0.985812
    12714.558200       0.984912
    12730.744700       0.983989
    12746.972600       0.983042
    12763.241900       0.982073
    12779.552700       0.981081
    12795.905300       0.980067
    12812.299800       0.979031
    12828.736400       0.977974
    12845.215200       0.976897
    12861.736300       0.975799
    12878.300100       0.974681
    12894.906500       0.973543
    12911.555800       0.972386
    12928.248200       0.971211
    12944.983800       0.970017
    12961.762800       0.968806
    12978.585300       0.967577
    12995.451600       0.966331
    13012.361700       0.965068
    13029.316000       0.963790
    13046.314400       0.962496
    13063.357300       0.961186
    13080.444700       0.959862
    13097.576900       0.958523
    13114.754100       0.957171
    13131.976400       0.955805
    13149.243900       0.954426
    13166.556900       0.953035
    13183.915600       0.951631
    13201.320100       0.950216
    13218.770700       0.948790
    13236.267400       0.947352
    13253.810500       0.945905
    13271.400100       0.944448
    13289.036500       0.942981
    13306.719900       0.941505
    13324.450400       0.940021
    13342.228200       0.938529
    13360.053400       0.937029
    13377.926400       0.935523
    13395.847300       0.934009
    13413.816200       0.932489
    13431.833400       0.930964
    13449.899100       0.929433
    13468.013500       0.927897
    13486.176700       0.926357
    13504.388900       0.924813
    13522.650400       0.923265
    13540.961400       0.921714
    13559.322000       0.920161
    13577.732500       0.918605
    13596.193100       0.917047
    13614.703900       0.915489
    13633.265200       0.913929
    13651.877100       0.912369
    13670.540000       0.910808
    13689.253900       0.909249
    13708.019200       0.907690
    13726.836000       0.906132
    13745.704500       0.904576
    13764.624900       0.903022
    13783.597500       0.901470
    13802.622500       0.899921
    13821.700100       0.898376
    13840.830400       0.896835
    13860.013900       0.895297
    13879.250500       0.893764
    13898.540700       0.892236
    13917.884500       0.890714
    13937.282200       0.889197
    13956.734100       0.887686
    13976.240400       0.886182
    13995.801300       0.884685
    14015.417000       0.883195
    14035.087700       0.881712
    14054.813800       0.880238
    14074.595400       0.878772
    14094.432700       0.877314
    14114.326000       0.875866
    14134.275600       0.874427
    14154.281700       0.872998
    14174.344400       0.871579
    14194.464200       0.870170
    14214.641100       0.868773
    14234.875400       0.867386
    14255.167500       0.866011
    14275.517500       0.864647
    14295.925700       0.863296
    14316.392300       0.861957
    14336.917600       0.860630
    14357.501800       0.859317
    14378.145200       0.858017
    14398.848100       0.856730
    14419.610700       0.855457
    14440.433200       0.854198
    14461.316000       0.852954
    14482.259200       0.851724
    14503.263200       0.850509
    14524.328200       0.849309
    14545.454500       0.848124
    14566.642400       0.846955
    14587.892000       0.845802
    14609.203800       0.844665
    14630.577900       0.843544
    14652.014700       0.842439
    14673.514300       0.841351
    14695.077100       0.840279
    14716.703500       0.839225
    14738.393500       0.838188
    14760.147600       0.837168
    14781.966000       0.836166
    14803.849000       0.835181
    14825.796900       0.834214
    14847.809900       0.833265
    14869.888500       0.832334
    14892.032800       0.831422
    14914.243100       0.830527
    14936.519800       0.829651
    14958.863100       0.828794
    14981.273400       0.827955
    15003.750900       0.827135
    15026.296000       0.826333
    15048.909000       0.825551
    15071.590100       0.824787
    15094.339600       0.824042
    15117.158000       0.823317
    15140.045400       0.822610
    15163.002300       0.821922
    15186.028900       0.821253
    15209.125500       0.820604
    15232.292500       0.819973
    15255.530100       0.819362
    15278.838800       0.818769
    15302.218800       0.818196
    15325.670500       0.817642
    15349.194200       0.817106
    15372.790200       0.816589
    15396.458800       0.816092
    15420.200500       0.815613
    15444.015400       0.815152
    15467.904100       0.814710
    15491.866800       0.814287
    15515.903800       0.813882
    15540.015500       0.813496
    15564.202300       0.813127
    15588.464500       0.812777
    15612.802500       0.812444
    15637.216600       0.812129
    15661.707100       0.811832
    15686.274500       0.811552
    15710.919100       0.811289
    15735.641200       0.811043
    15760.441300       0.810814
    15785.319700       0.810602
    15810.276700       0.810406
    15835.312700       0.810226
    15860.428200       0.810062
    15885.623500       0.809914
    15910.899000       0.809781
    15936.255000       0.809664
    15961.691900       0.809561
    15987.210200       0.809473
    16012.810200       0.809399
    16038.492400       0.809339
    16064.257000       0.809293
    16090.104600       0.809261
    16116.035500       0.809241
    16142.050000       0.809234
    16168.148700       0.809240
    16194.332000       0.809257
    16220.600200       0.809286
    16246.953700       0.809327
    16273.393000       0.809378
    16299.918500       0.809440
    16326.530600       0.809512
    16353.229800       0.809594
    16380.016400       0.809685
    16406.890900       0.809784
    16433.853700       0.809893
    16460.905300       0.810009
    16488.046200       0.810133
    16515.276600       0.810263
    16542.597200       0.810401
    16570.008300       0.810544
    16597.510400       0.810693
    16625.103900       0.810848
    16652.789300       0.811006
    16680.567100       0.811169
    16708.437800       0.811336
    16736.401700       0.811506
    16764.459300       0.811678
    16792.611300       0.811852
    16820.857900       0.812028
    16849.199700       0.812204
    16877.637100       0.812381
    16906.170800       0.812557
    16934.801000       0.812733
    16963.528400       0.812907
    16992.353400       0.813080
    17021.276600       0.813249
    17050.298400       0.813415
    17079.419300       0.813578
    17108.639900       0.813736
    17137.960600       0.813889
    17167.382000       0.814036
    17196.904600       0.814177
    17226.528900       0.814310
    17256.255400       0.814436
    17286.084700       0.814554
    17316.017300       0.814662
    17346.053800       0.814761
    17376.194600       0.814849
    17406.440400       0.814927
    17436.791600       0.814992
    17467.248900       0.815045
    17497.812800       0.815085
    17528.483800       0.815111
    17559.262500       0.815123
    17590.149500       0.815119
    17621.145400       0.815099
    17652.250700       0.815062
    17683.466000       0.815008
