28,   28, MVIRI VIS channel from srf_MET5_1994258_1994259_1801-Release_S10EL_10.dat
Number of data points:
806
Wavenumber (cm-1)   Filter response
     8350.730700       0.000000
     8357.710000       0.000000
     8364.701000       0.000000
     8371.703600       0.000001
     8378.718100       0.000004
     8385.744200       0.000009
     8392.782200       0.000016
     8399.832000       0.000026
     8406.893700       0.000040
     8413.967200       0.000058
     8421.052600       0.000081
     8428.150000       0.000109
     8435.259400       0.000142
     8442.380800       0.000181
     8449.514200       0.000226
     8456.659600       0.000278
     8463.817200       0.000338
     8470.986900       0.000404
     8478.168700       0.000479
     8485.362700       0.000562
     8492.569000       0.000653
     8499.787500       0.000753
     8507.018300       0.000862
     8514.261400       0.000981
     8521.516800       0.001110
     8528.784600       0.001248
     8536.064900       0.001397
     8543.357500       0.001557
     8550.662700       0.001727
     8557.980300       0.001908
     8565.310500       0.002101
     8572.653200       0.002305
     8580.008600       0.002522
     8587.376600       0.002750
     8594.757200       0.002990
     8602.150500       0.003243
     8609.556600       0.003509
     8616.975400       0.003787
     8624.407100       0.004078
     8631.851500       0.004383
     8639.308900       0.004701
     8646.779100       0.005032
     8654.262200       0.005378
     8661.758300       0.005737
     8669.267400       0.006110
     8676.789600       0.006498
     8684.324800       0.006899
     8691.873100       0.007316
     8699.434500       0.007747
     8707.009100       0.008193
     8714.596900       0.008654
     8722.198000       0.009130
     8729.812300       0.009621
     8737.439900       0.010127
     8745.080900       0.010649
     8752.735200       0.011187
     8760.403000       0.011740
     8768.084200       0.012310
     8775.778900       0.012895
     8783.487000       0.013496
     8791.208800       0.014114
     8798.944100       0.014748
     8806.693100       0.015399
     8814.455700       0.016066
     8822.232000       0.016750
     8830.022100       0.017450
     8837.825900       0.018168
     8845.643500       0.018903
     8853.475000       0.019654
     8861.320300       0.020424
     8869.179600       0.021210
     8877.052800       0.022014
     8884.940000       0.022836
     8892.841300       0.023675
     8900.756600       0.024532
     8908.686000       0.025407
     8916.629500       0.026300
     8924.587200       0.027211
     8932.559200       0.028141
     8940.545400       0.029088
     8948.545900       0.030055
     8956.560700       0.031039
     8964.589900       0.032043
     8972.633500       0.033065
     8980.691500       0.034106
     8988.764000       0.035166
     8996.851100       0.036245
     9004.952700       0.037343
     9013.068900       0.038460
     9021.199800       0.039597
     9029.345400       0.040753
     9037.505600       0.041929
     9045.680700       0.043124
     9053.870500       0.044339
     9062.075200       0.045574
     9070.294800       0.046830
     9078.529300       0.048105
     9086.778700       0.049400
     9095.043200       0.050715
     9103.322700       0.052051
     9111.617300       0.053407
     9119.927000       0.054784
     9128.251900       0.056181
     9136.592100       0.057600
     9144.947400       0.059039
     9153.318100       0.060498
     9161.704100       0.061979
     9170.105500       0.063481
     9178.522300       0.065004
     9186.954500       0.066549
     9195.402300       0.068114
     9203.865600       0.069701
     9212.344500       0.071310
     9220.839100       0.072941
     9229.349300       0.074593
     9237.875300       0.076267
     9246.417000       0.077962
     9254.974500       0.079680
     9263.547900       0.081420
     9272.137200       0.083181
     9280.742500       0.084965
     9289.363700       0.086771
     9298.000900       0.088600
     9306.654300       0.090451
     9315.323700       0.092324
     9324.009300       0.094220
     9332.711200       0.096139
     9341.429200       0.098080
     9350.163600       0.100043
     9358.914400       0.102030
     9367.681500       0.104040
     9376.465100       0.106072
     9385.265100       0.108127
     9394.081700       0.110206
     9402.914900       0.112307
     9411.764700       0.114431
     9420.631200       0.116579
     9429.514400       0.118750
     9438.414300       0.120944
     9447.331100       0.123161
     9456.264800       0.125402
     9465.215300       0.127666
     9474.182900       0.129953
     9483.167400       0.132264
     9492.169000       0.134598
     9501.187600       0.136956
     9510.223500       0.139337
     9519.276500       0.141741
     9528.346800       0.144170
     9537.434400       0.146621
     9546.539400       0.149096
     9555.661700       0.151595
     9564.801500       0.154117
     9573.958800       0.156662
     9583.133700       0.159232
     9592.326100       0.161824
     9601.536200       0.164440
     9610.764100       0.167080
     9620.009600       0.169743
     9629.273000       0.172429
     9638.554200       0.175139
     9647.853400       0.177872
     9657.170400       0.180629
     9666.505600       0.183409
     9675.858700       0.186212
     9685.230000       0.189038
     9694.619500       0.191888
     9704.027200       0.194760
     9713.453100       0.197656
     9722.897400       0.200575
     9732.360100       0.203517
     9741.841200       0.206482
     9751.340800       0.209469
     9760.859000       0.212479
     9770.395700       0.215512
     9779.951100       0.218567
     9789.525200       0.221646
     9799.118100       0.224746
     9808.729800       0.227869
     9818.360300       0.231014
     9828.009800       0.234180
     9837.678300       0.237370
     9847.365800       0.240581
     9857.072400       0.243813
     9866.798200       0.247068
     9876.543200       0.250344
     9886.307500       0.253641
     9896.091000       0.256960
     9905.894000       0.260300
     9915.716400       0.263661
     9925.558300       0.267042
     9935.419800       0.270445
     9945.300800       0.273868
     9955.201600       0.277311
     9965.122100       0.280775
     9975.062300       0.284259
     9985.022500       0.287763
     9995.002500       0.291286
    10005.002500       0.294829
    10015.022500       0.298392
    10025.062700       0.301974
    10035.122900       0.305574
    10045.203400       0.309194
    10055.304200       0.312832
    10065.425300       0.316489
    10075.566800       0.320164
    10085.728700       0.323857
    10095.911200       0.327567
    10106.114200       0.331296
    10116.337900       0.335041
    10126.582300       0.338804
    10136.847400       0.342584
    10147.133400       0.346381
    10157.440300       0.350193
    10167.768200       0.354022
    10178.117000       0.357867
    10188.487000       0.361728
    10198.878100       0.365604
    10209.290500       0.369496
    10219.724100       0.373402
    10230.179000       0.377323
    10240.655400       0.381259
    10251.153300       0.385208
    10261.672700       0.389171
    10272.213700       0.393148
    10282.776300       0.397138
    10293.360800       0.401142
    10303.967000       0.405158
    10314.595200       0.409186
    10325.245200       0.413226
    10335.917300       0.417279
    10346.611500       0.421342
    10357.327800       0.425417
    10368.066400       0.429503
    10378.827200       0.433600
    10389.610400       0.437707
    10400.416000       0.441823
    10411.244100       0.445949
    10422.094800       0.450085
    10432.968200       0.454229
    10443.864200       0.458383
    10454.783100       0.462544
    10465.724800       0.466713
    10476.689400       0.470890
    10487.677000       0.475075
    10498.687700       0.479266
    10509.721500       0.483464
    10520.778500       0.487668
    10531.858900       0.491877
    10542.962600       0.496093
    10554.089700       0.500313
    10565.240400       0.504538
    10576.414600       0.508768
    10587.612500       0.513002
    10598.834100       0.517239
    10610.079600       0.521480
    10621.348900       0.525724
    10632.642200       0.529970
    10643.959600       0.534219
    10655.301000       0.538469
    10666.666700       0.542721
    10678.056600       0.546973
    10689.470900       0.551227
    10700.909600       0.555481
    10712.372800       0.559734
    10723.860600       0.563988
    10735.373100       0.568240
    10746.910300       0.572491
    10758.472300       0.576740
    10770.059200       0.580988
    10781.671200       0.585232
    10793.308100       0.589474
    10804.970300       0.593713
    10816.657700       0.597949
    10828.370300       0.602180
    10840.108400       0.606407
    10851.871900       0.610628
    10863.661100       0.614845
    10875.475800       0.619056
    10887.316300       0.623261
    10899.182600       0.627460
    10911.074700       0.631652
    10922.992900       0.635837
    10934.937100       0.640014
    10946.907500       0.644183
    10958.904100       0.648343
    10970.927000       0.652495
    10982.976400       0.656638
    10995.052200       0.660771
    11007.154700       0.664894
    11019.283700       0.669007
    11031.439600       0.673109
    11043.622300       0.677199
    11055.832000       0.681278
    11068.068600       0.685345
    11080.332400       0.689400
    11092.623400       0.693442
    11104.941700       0.697470
    11117.287400       0.701485
    11129.660500       0.705487
    11142.061300       0.709474
    11154.489700       0.713446
    11166.945800       0.717403
    11179.429800       0.721344
    11191.941800       0.725270
    11204.481800       0.729179
    11217.049900       0.733072
    11229.646300       0.736948
    11242.270900       0.740806
    11254.924000       0.744647
    11267.605600       0.748469
    11280.315800       0.752273
    11293.054800       0.756058
    11305.822500       0.759824
    11318.619100       0.763570
    11331.444800       0.767296
    11344.299500       0.771002
    11357.183400       0.774687
    11370.096600       0.778352
    11383.039300       0.781995
    11396.011400       0.785616
    11409.013100       0.789215
    11422.044500       0.792792
    11435.105800       0.796346
    11448.196900       0.799877
    11461.318100       0.803384
    11474.469300       0.806868
    11487.650800       0.810328
    11500.862600       0.813763
    11514.104800       0.817174
    11527.377500       0.820559
    11540.680900       0.823920
    11554.015000       0.827255
    11567.380000       0.830564
    11580.775900       0.833846
    11594.202900       0.837102
    11607.661100       0.840331
    11621.150500       0.843534
    11634.671300       0.846708
    11648.223600       0.849856
    11661.807600       0.852975
    11675.423200       0.856066
    11689.070700       0.859128
    11702.750100       0.862162
    11716.461600       0.865167
    11730.205300       0.868143
    11743.981200       0.871089
    11757.789500       0.874005
    11771.630400       0.876892
    11785.503800       0.879748
    11799.410000       0.882573
    11813.349100       0.885369
    11827.321100       0.888133
    11841.326200       0.890866
    11855.364600       0.893568
    11869.436200       0.896238
    11883.541300       0.898877
    11897.680000       0.901484
    11911.852300       0.904058
    11926.058400       0.906601
    11940.298500       0.909111
    11954.572600       0.911588
    11968.880900       0.914033
    11983.223500       0.916444
    11997.600500       0.918823
    12012.012000       0.921168
    12026.458200       0.923480
    12040.939200       0.925758
    12055.455100       0.928003
    12070.006000       0.930214
    12084.592100       0.932390
    12099.213600       0.934533
    12113.870400       0.936642
    12128.562800       0.938716
    12143.290800       0.940756
    12158.054700       0.942762
    12172.854500       0.944733
    12187.690400       0.946669
    12202.562500       0.948570
    12217.471000       0.950437
    12232.415900       0.952269
    12247.397400       0.954066
    12262.415700       0.955828
    12277.470800       0.957556
    12292.563000       0.959248
    12307.692300       0.960904
    12322.858900       0.962526
    12338.062900       0.964113
    12353.304500       0.965664
    12368.583800       0.967181
    12383.900900       0.968662
    12399.256000       0.970108
    12414.649300       0.971519
    12430.080800       0.972894
    12445.550700       0.974235
    12461.059200       0.975540
    12476.606400       0.976810
    12492.192400       0.978046
    12507.817400       0.979246
    12523.481500       0.980411
    12539.185000       0.981541
    12554.927800       0.982637
    12570.710200       0.983698
    12586.532400       0.984724
    12602.394500       0.985715
    12618.296500       0.986672
    12634.238800       0.987595
    12650.221400       0.988483
    12666.244500       0.989337
    12682.308200       0.990156
    12698.412700       0.990942
    12714.558200       0.991694
    12730.744700       0.992412
    12746.972600       0.993097
    12763.241900       0.993748
    12779.552700       0.994365
    12795.905300       0.994950
    12812.299800       0.995501
    12828.736400       0.996020
    12845.215200       0.996506
    12861.736300       0.996959
    12878.300100       0.997380
    12894.906500       0.997769
    12911.555800       0.998125
    12928.248200       0.998450
    12944.983800       0.998744
    12961.762800       0.999006
    12978.585300       0.999237
    12995.451600       0.999437
    13012.361700       0.999606
    13029.316000       0.999745
    13046.314400       0.999853
    13063.357300       0.999932
    13080.444700       0.999981
    13097.576900       1.000000
    13114.754100       0.999990
    13131.976400       0.999951
    13149.243900       0.999883
    13166.556900       0.999787
    13183.915600       0.999663
    13201.320100       0.999510
    13218.770700       0.999330
    13236.267400       0.999123
    13253.810500       0.998889
    13271.400100       0.998627
    13289.036500       0.998340
    13306.719900       0.998026
    13324.450400       0.997687
    13342.228200       0.997322
    13360.053400       0.996931
    13377.926400       0.996516
    13395.847300       0.996077
    13413.816200       0.995613
    13431.833400       0.995125
    13449.899100       0.994614
    13468.013500       0.994079
    13486.176700       0.993522
    13504.388900       0.992942
    13522.650400       0.992340
    13540.961400       0.991717
    13559.322000       0.991071
    13577.732500       0.990405
    13596.193100       0.989718
    13614.703900       0.989011
    13633.265200       0.988284
    13651.877100       0.987537
    13670.540000       0.986771
    13689.253900       0.985987
    13708.019200       0.985184
    13726.836000       0.984362
    13745.704500       0.983524
    13764.624900       0.982667
    13783.597500       0.981795
    13802.622500       0.980905
    13821.700100       0.980000
    13840.830400       0.979079
    13860.013900       0.978142
    13879.250500       0.977191
    13898.540700       0.976225
    13917.884500       0.975246
    13937.282200       0.974252
    13956.734100       0.973246
    13976.240400       0.972226
    13995.801300       0.971195
    14015.417000       0.970151
    14035.087700       0.969095
    14054.813800       0.968029
    14074.595400       0.966952
    14094.432700       0.965864
    14114.326000       0.964767
    14134.275600       0.963660
    14154.281700       0.962544
    14174.344400       0.961419
    14194.464200       0.960286
    14214.641100       0.959146
    14234.875400       0.957998
    14255.167500       0.956843
    14275.517500       0.955681
    14295.925700       0.954513
    14316.392300       0.953340
    14336.917600       0.952161
    14357.501800       0.950977
    14378.145200       0.949789
    14398.848100       0.948597
    14419.610700       0.947401
    14440.433200       0.946202
    14461.316000       0.945001
    14482.259200       0.943796
    14503.263200       0.942590
    14524.328200       0.941382
    14545.454500       0.940173
    14566.642400       0.938963
    14587.892000       0.937753
    14609.203800       0.936542
    14630.577900       0.935333
    14652.014700       0.934123
    14673.514300       0.932915
    14695.077100       0.931709
    14716.703500       0.930504
    14738.393500       0.929302
    14760.147600       0.928103
    14781.966000       0.926906
    14803.849000       0.925713
    14825.796900       0.924524
    14847.809900       0.923339
    14869.888500       0.922159
    14892.032800       0.920983
    14914.243100       0.919813
    14936.519800       0.918648
    14958.863100       0.917489
    14981.273400       0.916337
    15003.750900       0.915191
    15026.296000       0.914052
    15048.909000       0.912920
    15071.590100       0.911796
    15094.339600       0.910679
    15117.158000       0.909571
    15140.045400       0.908471
    15163.002300       0.907381
    15186.028900       0.906299
    15209.125500       0.905227
    15232.292500       0.904164
    15255.530100       0.903112
    15278.838800       0.902069
    15302.218800       0.901037
    15325.670500       0.900016
    15349.194200       0.899006
    15372.790200       0.898007
    15396.458800       0.897020
    15420.200500       0.896044
    15444.015400       0.895081
    15467.904100       0.894129
    15491.866800       0.893190
    15515.903800       0.892264
    15540.015500       0.891350
    15564.202300       0.890450
    15588.464500       0.889562
    15612.802500       0.888688
    15637.216600       0.887828
    15661.707100       0.886981
    15686.274500       0.886148
    15710.919100       0.885329
    15735.641200       0.884525
    15760.441300       0.883734
    15785.319700       0.882958
    15810.276700       0.882197
    15835.312700       0.881450
    15860.428200       0.880718
    15885.623500       0.880001
    15910.899000       0.879299
    15936.255000       0.878611
    15961.691900       0.877939
    15987.210200       0.877282
    16012.810200       0.876640
    16038.492400       0.876014
    16064.257000       0.875402
    16090.104600       0.874806
    16116.035500       0.874225
    16142.050000       0.873659
    16168.148700       0.873109
    16194.332000       0.872574
    16220.600200       0.872054
    16246.953700       0.871549
    16273.393000       0.871059
    16299.918500       0.870585
    16326.530600       0.870125
    16353.229800       0.869681
    16380.016400       0.869251
    16406.890900       0.868836
    16433.853700       0.868436
    16460.905300       0.868050
    16488.046200       0.867679
    16515.276600       0.867322
    16542.597200       0.866979
    16570.008300       0.866650
    16597.510400       0.866335
    16625.103900       0.866033
    16652.789300       0.865746
    16680.567100       0.865471
    16708.437800       0.865209
    16736.401700       0.864961
    16764.459300       0.864724
    16792.611300       0.864501
    16820.857900       0.864289
    16849.199700       0.864089
    16877.637100       0.863901
    16906.170800       0.863724
    16934.801000       0.863558
    16963.528400       0.863403
    16992.353400       0.863258
    17021.276600       0.863124
    17050.298400       0.862999
    17079.419300       0.862883
    17108.639900       0.862777
    17137.960600       0.862679
    17167.382000       0.862590
    17196.904600       0.862508
    17226.528900       0.862434
    17256.255400       0.862367
    17286.084700       0.862306
