8,   channel 8 SRF from file WV063.txt received February 2021 from Eunha Sohn (KMA)
Number of data points:
4192
Wavenumber (cm-1)   Filter response
     1422.495300       0.001484
     1422.596500       0.001489
     1422.697700       0.001493
     1422.798900       0.001497
     1422.900200       0.001498
     1423.001400       0.001496
     1423.102600       0.001493
     1423.203900       0.001484
     1423.305200       0.001471
     1423.406500       0.001453
     1423.507800       0.001433
     1423.609100       0.001409
     1423.690200       0.001383
     1423.791600       0.001356
     1423.892900       0.001328
     1423.994300       0.001301
     1424.095700       0.001274
     1424.197100       0.001249
     1424.298500       0.001227
     1424.400000       0.001207
     1424.501400       0.001190
     1424.602900       0.001175
     1424.704400       0.001162
     1424.805900       0.001151
     1424.907400       0.001141
     1425.008900       0.001130
     1425.090100       0.001119
     1425.191700       0.001107
     1425.293300       0.001092
     1425.394800       0.001076
     1425.496400       0.001056
     1425.598000       0.001034
     1425.699700       0.001010
     1425.801300       0.000983
     1425.903000       0.000956
     1426.004600       0.000928
     1426.106300       0.000900
     1426.208000       0.000873
     1426.309700       0.000848
     1426.391100       0.000827
     1426.492800       0.000808
     1426.594600       0.000793
     1426.696300       0.000781
     1426.798100       0.000775
     1426.899900       0.000771
     1427.001700       0.000771
     1427.103600       0.000773
     1427.205400       0.000776
     1427.307200       0.000781
     1427.409100       0.000785
     1427.490600       0.000789
     1427.592500       0.000791
     1427.694400       0.000791
     1427.796300       0.000791
     1427.898300       0.000787
     1428.000200       0.000782
     1428.102200       0.000775
     1428.204200       0.000767
     1428.306200       0.000760
     1428.408200       0.000753
     1428.489800       0.000746
     1428.591800       0.000744
     1428.693900       0.000743
     1428.796000       0.000744
     1428.898000       0.000749
     1429.000100       0.000758
     1429.102200       0.000769
     1429.204400       0.000783
     1429.306500       0.000799
     1429.408700       0.000815
     1429.490400       0.000832
     1429.592600       0.000848
     1429.694800       0.000864
     1429.797000       0.000876
     1429.899200       0.000887
     1430.001400       0.000895
     1430.103700       0.000900
     1430.205900       0.000901
     1430.308200       0.000901
     1430.390100       0.000899
     1430.492400       0.000897
     1430.594700       0.000893
     1430.697000       0.000891
     1430.799400       0.000889
     1430.901800       0.000890
     1431.004100       0.000893
     1431.106500       0.000898
     1431.208900       0.000907
     1431.290900       0.000918
     1431.393300       0.000932
     1431.495800       0.000947
     1431.598200       0.000964
     1431.700700       0.000981
     1431.803200       0.000998
     1431.905700       0.001014
     1432.008200       0.001028
     1432.090300       0.001039
     1432.192800       0.001047
     1432.295400       0.001051
     1432.398000       0.001053
     1432.500600       0.001053
     1432.603200       0.001048
     1432.705800       0.001043
     1432.808400       0.001035
     1432.890600       0.001028
     1432.993200       0.001020
     1433.095900       0.001014
     1433.198600       0.001008
     1433.301300       0.001006
     1433.404000       0.001007
     1433.506800       0.001008
     1433.609500       0.001013
     1433.691800       0.001020
     1433.794500       0.001030
     1433.897300       0.001040
     1434.000100       0.001051
     1434.103000       0.001062
     1434.205800       0.001071
     1434.308700       0.001080
     1434.391000       0.001086
     1434.493800       0.001091
     1434.596700       0.001092
     1434.699600       0.001093
     1434.802600       0.001091
     1434.905500       0.001089
     1435.008500       0.001086
     1435.090800       0.001084
     1435.193800       0.001084
     1435.296800       0.001086
     1435.399800       0.001089
     1435.502900       0.001094
     1435.605900       0.001114
     1435.709000       0.001160
     1435.791400       0.001193
     1435.894500       0.001212
     1435.997600       0.001234
     1436.100700       0.001257
     1436.203800       0.001281
     1436.307000       0.001304
     1436.410100       0.001326
     1436.492700       0.001346
     1436.595800       0.001361
     1436.699000       0.001374
     1436.802300       0.001382
     1436.905500       0.001386
     1437.008700       0.001387
     1437.091300       0.001384
     1437.194600       0.001379
     1437.297900       0.001374
     1437.401200       0.001368
     1437.504500       0.001363
     1437.607800       0.001360
     1437.690500       0.001360
     1437.793800       0.001363
     1437.897200       0.001370
     1438.000600       0.001381
     1438.104000       0.001396
     1438.207400       0.001415
     1438.290200       0.001435
     1438.393600       0.001458
     1438.497100       0.001481
     1438.600500       0.001504
     1438.704000       0.001525
     1438.807500       0.001544
     1438.890300       0.001559
     1438.993900       0.001571
     1439.097400       0.001576
     1439.201000       0.001578
     1439.304500       0.001578
     1439.408100       0.001573
     1439.491000       0.001567
     1439.594600       0.001559
     1439.698200       0.001551
     1439.801900       0.001544
     1439.905500       0.001541
     1440.009200       0.001542
     1440.092200       0.001543
     1440.195900       0.001552
     1440.299600       0.001566
     1440.403300       0.001583
     1440.507100       0.001604
     1440.590100       0.001628
     1440.693800       0.001654
     1440.797600       0.001680
     1440.901400       0.001707
     1441.005200       0.001730
     1441.109100       0.001752
     1441.192200       0.001769
     1441.296000       0.001781
     1441.399900       0.001786
     1441.503800       0.001788
     1441.607700       0.001787
     1441.690800       0.001779
     1441.794700       0.001768
     1441.898700       0.001755
     1442.002700       0.001741
     1442.106600       0.001726
     1442.189800       0.001713
     1442.293800       0.001701
     1442.397800       0.001694
     1442.501900       0.001691
     1442.605900       0.001690
     1442.710000       0.001694
     1442.793200       0.001702
     1442.897300       0.001712
     1443.001400       0.001726
     1443.105600       0.001740
     1443.209700       0.001754
     1443.293000       0.001767
     1443.397200       0.001778
     1443.501400       0.001784
     1443.605500       0.001788
     1443.709800       0.001786
     1443.793100       0.001780
     1443.897400       0.001770
     1444.001600       0.001755
     1444.105900       0.001737
     1444.210200       0.001716
     1444.293600       0.001693
     1444.397900       0.001671
     1444.502200       0.001649
     1444.606600       0.001630
     1444.690000       0.001613
     1444.794400       0.001600
     1444.898800       0.001591
     1445.003200       0.001586
     1445.107600       0.001584
     1445.191100       0.001586
     1445.295600       0.001592
     1445.400000       0.001599
     1445.504500       0.001608
     1445.609000       0.001617
     1445.692600       0.001625
     1445.797100       0.001631
     1445.901600       0.001635
     1446.006100       0.001636
     1446.089800       0.001636
     1446.194300       0.001635
     1446.298900       0.001630
     1446.403500       0.001624
     1446.508100       0.001617
     1446.591800       0.001611
     1446.696500       0.001605
     1446.801100       0.001602
     1446.905800       0.001601
     1446.989500       0.001601
     1447.094200       0.001605
     1447.198900       0.001611
     1447.303700       0.001620
     1447.408400       0.001630
     1447.492200       0.001642
     1447.597000       0.001653
     1447.701800       0.001664
     1447.806600       0.001672
     1447.890400       0.001678
     1447.995300       0.001680
     1448.100100       0.001679
     1448.204900       0.001674
     1448.309800       0.001665
     1448.393700       0.001652
     1448.498600       0.001637
     1448.603500       0.001619
     1448.708500       0.001600
     1448.792400       0.001582
     1448.897400       0.001565
     1449.002400       0.001551
     1449.107300       0.001541
     1449.191400       0.001535
     1449.296400       0.001533
     1449.401400       0.001537
     1449.506400       0.001544
     1449.590500       0.001556
     1449.695600       0.001573
     1449.800700       0.001591
     1449.905800       0.001611
     1449.989900       0.001630
     1450.095000       0.001648
     1450.200100       0.001663
     1450.305300       0.001675
     1450.410500       0.001679
     1450.494600       0.001681
     1450.599800       0.001680
     1450.705000       0.001670
     1450.810300       0.001656
     1450.894500       0.001637
     1450.999700       0.001616
     1451.105000       0.001593
     1451.210300       0.001571
     1451.294600       0.001550
     1451.399900       0.001532
     1451.505200       0.001517
     1451.589500       0.001508
     1451.694900       0.001503
     1451.800200       0.001501
     1451.905600       0.001505
     1451.990000       0.001513
     1452.095400       0.001524
     1452.200800       0.001538
     1452.306300       0.001553
     1452.390600       0.001567
     1452.496100       0.001578
     1452.601600       0.001588
     1452.707100       0.001592
     1452.791500       0.001595
     1452.897100       0.001594
     1453.002600       0.001586
     1453.108200       0.001576
     1453.192700       0.001562
     1453.298300       0.001546
     1453.403900       0.001528
     1453.509500       0.001510
     1453.594000       0.001494
     1453.699700       0.001479
     1453.805300       0.001466
     1453.889900       0.001458
     1453.995600       0.001455
     1454.101300       0.001454
     1454.207000       0.001456
     1454.291600       0.001463
     1454.397400       0.001473
     1454.503100       0.001484
     1454.608900       0.001497
     1454.693600       0.001509
     1454.799400       0.001520
     1454.905200       0.001529
     1454.989900       0.001536
     1455.095700       0.001541
     1455.201600       0.001543
     1455.307500       0.001542
     1455.392200       0.001541
     1455.498100       0.001537
     1455.604100       0.001533
     1455.710000       0.001529
     1455.794800       0.001527
     1455.900800       0.001528
     1456.006800       0.001531
     1456.091600       0.001538
     1456.197600       0.001547
     1456.303600       0.001560
     1456.409700       0.001576
     1456.494500       0.001595
     1456.600600       0.001615
     1456.706700       0.001635
     1456.791600       0.001654
     1456.897700       0.001670
     1457.003800       0.001684
     1457.110000       0.001691
     1457.194900       0.001691
     1457.301100       0.001692
     1457.407300       0.001685
     1457.492200       0.001671
     1457.598500       0.001654
     1457.704700       0.001633
     1457.789700       0.001610
     1457.896000       0.001585
     1458.002200       0.001562
     1458.108500       0.001541
     1458.193600       0.001524
     1458.299900       0.001510
     1458.406300       0.001507
     1458.491300       0.001508
     1458.597700       0.001510
     1458.704100       0.001523
     1458.810500       0.001540
     1458.895600       0.001563
     1459.002000       0.001588
     1459.108500       0.001617
     1459.193600       0.001647
     1459.300100       0.001676
     1459.406600       0.001704
     1459.491800       0.001729
     1459.598300       0.001751
     1459.704800       0.001769
     1459.790100       0.001783
     1459.896600       0.001794
     1460.003200       0.001801
     1460.109800       0.001805
     1460.195100       0.001808
     1460.301700       0.001810
     1460.408300       0.001811
     1460.493600       0.001814
     1460.600300       0.001819
     1460.707000       0.001826
     1460.792300       0.001835
     1460.899000       0.001846
     1461.005800       0.001860
     1461.091100       0.001875
     1461.197900       0.001891
     1461.304700       0.001906
     1461.390100       0.001920
     1461.496900       0.001932
     1461.603700       0.001938
     1461.710500       0.001940
     1461.796000       0.001940
     1461.902800       0.001931
     1462.009700       0.001919
     1462.095200       0.001902
     1462.202100       0.001881
     1462.309000       0.001857
     1462.394500       0.001833
     1462.501500       0.001808
     1462.608400       0.001784
     1462.694000       0.001763
     1462.801000       0.001746
     1462.908000       0.001737
     1462.993600       0.001733
     1463.100600       0.001733
     1463.207600       0.001741
     1463.293300       0.001753
     1463.400400       0.001770
     1463.507400       0.001790
     1463.593100       0.001812
     1463.700200       0.001835
     1463.807400       0.001857
     1463.893100       0.001878
     1464.000200       0.001896
     1464.107400       0.001911
     1464.193200       0.001920
     1464.300400       0.001927
     1464.407600       0.001928
     1464.493400       0.001928
     1464.600600       0.001928
     1464.707900       0.001925
     1464.793700       0.001924
     1464.901000       0.001925
     1465.008300       0.001926
     1465.094100       0.001934
     1465.201500       0.001946
     1465.308800       0.001964
     1465.394700       0.001988
     1465.502100       0.002018
     1465.609500       0.002053
     1465.695400       0.002090
     1465.802800       0.002131
     1465.910300       0.002171
     1465.996200       0.002210
     1466.103700       0.002248
     1466.189700       0.002282
     1466.297200       0.002310
     1466.404700       0.002333
     1466.490700       0.002350
     1466.598200       0.002358
     1466.705800       0.002362
     1466.791800       0.002358
     1466.899400       0.002351
     1467.007000       0.002341
     1467.093100       0.002329
     1467.200700       0.002317
     1467.308400       0.002306
     1467.394500       0.002298
     1467.502200       0.002294
     1467.609900       0.002293
     1467.696000       0.002298
     1467.803700       0.002306
     1467.889900       0.002320
     1467.997700       0.002339
     1468.105400       0.002361
     1468.191600       0.002385
     1468.299400       0.002408
     1468.407200       0.002431
     1468.493500       0.002451
     1468.601300       0.002469
     1468.709200       0.002484
     1468.795400       0.002495
     1468.903300       0.002501
     1468.989600       0.002504
     1469.097500       0.002505
     1469.205500       0.002502
     1469.291800       0.002500
     1469.399800       0.002499
     1469.507700       0.002498
     1469.594100       0.002500
     1469.702100       0.002507
     1469.810100       0.002518
     1469.896500       0.002533
     1470.004600       0.002552
     1470.091000       0.002575
     1470.199100       0.002602
     1470.307100       0.002631
     1470.393600       0.002661
     1470.501700       0.002691
     1470.609900       0.002719
     1470.696400       0.002745
     1470.804500       0.002767
     1470.891100       0.002784
     1470.999200       0.002797
     1471.107400       0.002805
     1471.194000       0.002811
     1471.302200       0.002812
     1471.410500       0.002813
     1471.497100       0.002813
     1471.605400       0.002814
     1471.692000       0.002816
     1471.800300       0.002823
     1471.908600       0.002835
     1471.995300       0.002856
     1472.103600       0.002881
     1472.190300       0.002915
     1472.298700       0.002955
     1472.407100       0.003001
     1472.493800       0.003052
     1472.602200       0.003106
     1472.710700       0.003161
     1472.797400       0.003216
     1472.905900       0.003271
     1472.992700       0.003321
     1473.101200       0.003367
     1473.209700       0.003406
     1473.296500       0.003439
     1473.405000       0.003463
     1473.491900       0.003481
     1473.600400       0.003494
     1473.709000       0.003501
     1473.795900       0.003507
     1473.904500       0.003511
     1473.991400       0.003515
     1474.100100       0.003522
     1474.208700       0.003532
     1474.295700       0.003547
     1474.404300       0.003570
     1474.491300       0.003598
     1474.600000       0.003634
     1474.708700       0.003677
     1474.795700       0.003727
     1474.904500       0.003780
     1474.991500       0.003835
     1475.100300       0.003891
     1475.209100       0.003946
     1475.296200       0.003998
     1475.405000       0.004047
     1475.492100       0.004091
     1475.600900       0.004130
     1475.709800       0.004162
     1475.796900       0.004190
     1475.905800       0.004212
     1475.993000       0.004231
     1476.101900       0.004247
     1476.210900       0.004262
     1476.298000       0.004279
     1476.407000       0.004299
     1476.494200       0.004323
     1476.603200       0.004352
     1476.690400       0.004385
     1476.799500       0.004427
     1476.908500       0.004473
     1476.995800       0.004526
     1477.104900       0.004583
     1477.192200       0.004643
     1477.301300       0.004706
     1477.410400       0.004769
     1477.497700       0.004830
     1477.606900       0.004889
     1477.694200       0.004945
     1477.803400       0.004996
     1477.890800       0.005042
     1478.000000       0.005084
     1478.109200       0.005122
     1478.196600       0.005159
     1478.305900       0.005193
     1478.393300       0.005229
     1478.502600       0.005267
     1478.590000       0.005308
     1478.699300       0.005357
     1478.808700       0.005414
     1478.896200       0.005480
     1479.005500       0.005557
     1479.093000       0.005642
     1479.202400       0.005739
     1479.289900       0.005843
     1479.399400       0.005956
     1479.508800       0.006073
     1479.596400       0.006193
     1479.705800       0.006316
     1479.793400       0.006438
     1479.902900       0.006558
     1479.990500       0.006674
     1480.100100       0.006784
     1480.209600       0.006886
     1480.297200       0.006980
     1480.406800       0.007067
     1480.494500       0.007145
     1480.604100       0.007219
     1480.691800       0.007289
     1480.801400       0.007358
     1480.889100       0.007428
     1480.998800       0.007500
     1481.108500       0.007576
     1481.196200       0.007656
     1481.305900       0.007741
     1481.393700       0.007833
     1481.503400       0.007932
     1481.591200       0.008038
     1481.701000       0.008148
     1481.810800       0.008263
     1481.898600       0.008381
     1482.008400       0.008499
     1482.096300       0.008617
     1482.206100       0.008732
     1482.294000       0.008843
     1482.403900       0.008950
     1482.491800       0.009052
     1482.601700       0.009151
     1482.689600       0.009245
     1482.799500       0.009336
     1482.909500       0.009426
     1482.997400       0.009516
     1483.107400       0.009607
     1483.195400       0.009701
     1483.305400       0.009800
     1483.393400       0.009907
     1483.503400       0.010020
     1483.591500       0.010143
     1483.701500       0.010273
     1483.789600       0.010413
     1483.899700       0.010556
     1484.009800       0.010700
     1484.097900       0.010846
     1484.208000       0.010996
     1484.296100       0.011148
     1484.406300       0.011300
