33,   33, MVIRI VIS channel from srf_MET4_1993213_1993214_1801-Release_S10EL_10.dat
Number of data points:
752
Wavenumber (cm-1)   Filter response
     8745.080900       0.000000
     8752.735200       0.000000
     8760.403000       0.000001
     8768.084200       0.000060
     8775.778900       0.000202
     8783.487000       0.000425
     8791.208800       0.000726
     8798.944100       0.001105
     8806.693100       0.001557
     8814.455700       0.002081
     8822.232000       0.002675
     8830.022100       0.003336
     8837.825900       0.004063
     8845.643500       0.004854
     8853.475000       0.005706
     8861.320300       0.006617
     8869.179600       0.007587
     8877.052800       0.008613
     8884.940000       0.009693
     8892.841300       0.010826
     8900.756600       0.012011
     8908.686000       0.013245
     8916.629500       0.014528
     8924.587200       0.015857
     8932.559200       0.017232
     8940.545400       0.018650
     8948.545900       0.020112
     8956.560700       0.021615
     8964.589900       0.023158
     8972.633500       0.024741
     8980.691500       0.026361
     8988.764000       0.028019
     8996.851100       0.029712
     9004.952700       0.031441
     9013.068900       0.033203
     9021.199800       0.034999
     9029.345400       0.036826
     9037.505600       0.038685
     9045.680700       0.040574
     9053.870500       0.042493
     9062.075200       0.044440
     9070.294800       0.046416
     9078.529300       0.048420
     9086.778700       0.050450
     9095.043200       0.052506
     9103.322700       0.054588
     9111.617300       0.056695
     9119.927000       0.058826
     9128.251900       0.060982
     9136.592100       0.063161
     9144.947400       0.065362
     9153.318100       0.067586
     9161.704100       0.069832
     9170.105500       0.072100
     9178.522300       0.074389
     9186.954500       0.076699
     9195.402300       0.079030
     9203.865600       0.081380
     9212.344500       0.083751
     9220.839100       0.086141
     9229.349300       0.088550
     9237.875300       0.090979
     9246.417000       0.093426
     9254.974500       0.095892
     9263.547900       0.098376
     9272.137200       0.100878
     9280.742500       0.103399
     9289.363700       0.105937
     9298.000900       0.108493
     9306.654300       0.111066
     9315.323700       0.113657
     9324.009300       0.116265
     9332.711200       0.118891
     9341.429200       0.121533
     9350.163600       0.124192
     9358.914400       0.126868
     9367.681500       0.129561
     9376.465100       0.132271
     9385.265100       0.134998
     9394.081700       0.137741
     9402.914900       0.140500
     9411.764700       0.143277
     9420.631200       0.146070
     9429.514400       0.148879
     9438.414300       0.151705
     9447.331100       0.154547
     9456.264800       0.157406
     9465.215300       0.160281
     9474.182900       0.163173
     9483.167400       0.166081
     9492.169000       0.169006
     9501.187600       0.171947
     9510.223500       0.174905
     9519.276500       0.177879
     9528.346800       0.180870
     9537.434400       0.183878
     9546.539400       0.186902
     9555.661700       0.189942
     9564.801500       0.192999
     9573.958800       0.196073
     9583.133700       0.199164
     9592.326100       0.202271
     9601.536200       0.205395
     9610.764100       0.208535
     9620.009600       0.211693
     9629.273000       0.214867
     9638.554200       0.218058
     9647.853400       0.221266
     9657.170400       0.224490
     9666.505600       0.227732
     9675.858700       0.230990
     9685.230000       0.234265
     9694.619500       0.237558
     9704.027200       0.240866
     9713.453100       0.244192
     9722.897400       0.247535
     9732.360100       0.250894
     9741.841200       0.254271
     9751.340800       0.257664
     9760.859000       0.261074
     9770.395700       0.264502
     9779.951100       0.267945
     9789.525200       0.271406
     9799.118100       0.274883
     9808.729800       0.278377
     9818.360300       0.281888
     9828.009800       0.285415
     9837.678300       0.288959
     9847.365800       0.292520
     9857.072400       0.296097
     9866.798200       0.299691
     9876.543200       0.303300
     9886.307500       0.306927
     9896.091000       0.310569
     9905.894000       0.314227
     9915.716400       0.317902
     9925.558300       0.321593
     9935.419800       0.325299
     9945.300800       0.329022
     9955.201600       0.332759
     9965.122100       0.336513
     9975.062300       0.340282
     9985.022500       0.344066
     9995.002500       0.347866
    10005.002500       0.351680
    10015.022500       0.355510
    10025.062700       0.359354
    10035.122900       0.363213
    10045.203400       0.367086
    10055.304200       0.370974
    10065.425300       0.374876
    10075.566800       0.378792
    10085.728700       0.382722
    10095.911200       0.386665
    10106.114200       0.390622
    10116.337900       0.394592
    10126.582300       0.398575
    10136.847400       0.402571
    10147.133400       0.406580
    10157.440300       0.410601
    10167.768200       0.414634
    10178.117000       0.418679
    10188.487000       0.422736
    10198.878100       0.426805
    10209.290500       0.430884
    10219.724100       0.434975
    10230.179000       0.439076
    10240.655400       0.443189
    10251.153300       0.447311
    10261.672700       0.451443
    10272.213700       0.455585
    10282.776300       0.459737
    10293.360800       0.463897
    10303.967000       0.468067
    10314.595200       0.472245
    10325.245200       0.476431
    10335.917300       0.480625
    10346.611500       0.484827
    10357.327800       0.489036
    10368.066400       0.493253
    10378.827200       0.497475
    10389.610400       0.501705
    10400.416000       0.505940
    10411.244100       0.510182
    10422.094800       0.514428
    10432.968200       0.518680
    10443.864200       0.522936
    10454.783100       0.527197
    10465.724800       0.531461
    10476.689400       0.535730
    10487.677000       0.540001
    10498.687700       0.544276
    10509.721500       0.548553
    10520.778500       0.552832
    10531.858900       0.557113
    10542.962600       0.561395
    10554.089700       0.565679
    10565.240400       0.569963
    10576.414600       0.574247
    10587.612500       0.578531
    10598.834100       0.582815
    10610.079600       0.587098
    10621.348900       0.591380
    10632.642200       0.595659
    10643.959600       0.599937
    10655.301000       0.604212
    10666.666700       0.608485
    10678.056600       0.612754
    10689.470900       0.617019
    10700.909600       0.621280
    10712.372800       0.625536
    10723.860600       0.629788
    10735.373100       0.634034
    10746.910300       0.638274
    10758.472300       0.642508
    10770.059200       0.646735
    10781.671200       0.650956
    10793.308100       0.655168
    10804.970300       0.659373
    10816.657700       0.663569
    10828.370300       0.667757
    10840.108400       0.671935
    10851.871900       0.676104
    10863.661100       0.680263
    10875.475800       0.684411
    10887.316300       0.688548
    10899.182600       0.692673
    10911.074700       0.696787
    10922.992900       0.700889
    10934.937100       0.704978
    10946.907500       0.709054
    10958.904100       0.713116
    10970.927000       0.717164
    10982.976400       0.721198
    10995.052200       0.725217
    11007.154700       0.729221
    11019.283700       0.733210
    11031.439600       0.737182
    11043.622300       0.741137
    11055.832000       0.745076
    11068.068600       0.748997
    11080.332400       0.752901
    11092.623400       0.756786
    11104.941700       0.760653
    11117.287400       0.764501
    11129.660500       0.768329
    11142.061300       0.772137
    11154.489700       0.775925
    11166.945800       0.779693
    11179.429800       0.783439
    11191.941800       0.787164
    11204.481800       0.790867
    11217.049900       0.794547
    11229.646300       0.798205
    11242.270900       0.801840
    11254.924000       0.805452
    11267.605600       0.809039
    11280.315800       0.812602
    11293.054800       0.816141
    11305.822500       0.819655
    11318.619100       0.823143
    11331.444800       0.826606
    11344.299500       0.830042
    11357.183400       0.833452
    11370.096600       0.836835
    11383.039300       0.840191
    11396.011400       0.843519
    11409.013100       0.846820
    11422.044500       0.850092
    11435.105800       0.853336
    11448.196900       0.856550
    11461.318100       0.859735
    11474.469300       0.862891
    11487.650800       0.866017
    11500.862600       0.869113
    11514.104800       0.872177
    11527.377500       0.875212
    11540.680900       0.878214
    11554.015000       0.881186
    11567.380000       0.884125
    11580.775900       0.887033
    11594.202900       0.889908
    11607.661100       0.892750
    11621.150500       0.895560
    11634.671300       0.898336
    11648.223600       0.901079
    11661.807600       0.903788
    11675.423200       0.906463
    11689.070700       0.909103
    11702.750100       0.911710
    11716.461600       0.914281
    11730.205300       0.916817
    11743.981200       0.919318
    11757.789500       0.921784
    11771.630400       0.924214
    11785.503800       0.926608
    11799.410000       0.928966
    11813.349100       0.931288
    11827.321100       0.933573
    11841.326200       0.935821
    11855.364600       0.938032
    11869.436200       0.940207
    11883.541300       0.942344
    11897.680000       0.944444
    11911.852300       0.946506
    11926.058400       0.948530
    11940.298500       0.950516
    11954.572600       0.952465
    11968.880900       0.954375
    11983.223500       0.956246
    11997.600500       0.958080
    12012.012000       0.959875
    12026.458200       0.961631
    12040.939200       0.963348
    12055.455100       0.965026
    12070.006000       0.966666
    12084.592100       0.968266
    12099.213600       0.969827
    12113.870400       0.971349
    12128.562800       0.972832
    12143.290800       0.974275
    12158.054700       0.975678
    12172.854500       0.977043
    12187.690400       0.978367
    12202.562500       0.979653
    12217.471000       0.980898
    12232.415900       0.982104
    12247.397400       0.983270
    12262.415700       0.984397
    12277.470800       0.985484
    12292.563000       0.986531
    12307.692300       0.987539
    12322.858900       0.988507
    12338.062900       0.989435
    12353.304500       0.990324
    12368.583800       0.991173
    12383.900900       0.991983
    12399.256000       0.992753
    12414.649300       0.993484
    12430.080800       0.994176
    12445.550700       0.994828
    12461.059200       0.995441
    12476.606400       0.996015
    12492.192400       0.996550
    12507.817400       0.997045
    12523.481500       0.997502
    12539.185000       0.997921
    12554.927800       0.998300
    12570.710200       0.998641
    12586.532400       0.998944
    12602.394500       0.999208
    12618.296500       0.999435
    12634.238800       0.999623
    12650.221400       0.999773
    12666.244500       0.999886
    12682.308200       0.999961
    12698.412700       0.999999
    12714.558200       1.000000
    12730.744700       0.999964
    12746.972600       0.999891
    12763.241900       0.999781
    12779.552700       0.999635
    12795.905300       0.999452
    12812.299800       0.999234
    12828.736400       0.998980
    12845.215200       0.998690
    12861.736300       0.998365
    12878.300100       0.998004
    12894.906500       0.997609
    12911.555800       0.997179
    12928.248200       0.996715
    12944.983800       0.996217
    12961.762800       0.995685
    12978.585300       0.995119
    12995.451600       0.994520
    13012.361700       0.993887
    13029.316000       0.993222
    13046.314400       0.992525
    13063.357300       0.991795
    13080.444700       0.991034
    13097.576900       0.990240
    13114.754100       0.989416
    13131.976400       0.988560
    13149.243900       0.987674
    13166.556900       0.986758
    13183.915600       0.985811
    13201.320100       0.984835
    13218.770700       0.983829
    13236.267400       0.982794
    13253.810500       0.981731
    13271.400100       0.980639
    13289.036500       0.979520
    13306.719900       0.978372
    13324.450400       0.977198
    13342.228200       0.975996
    13360.053400       0.974768
    13377.926400       0.973514
    13395.847300       0.972234
    13413.816200       0.970929
    13431.833400       0.969598
    13449.899100       0.968243
    13468.013500       0.966864
    13486.176700       0.965461
    13504.388900       0.964034
    13522.650400       0.962585
    13540.961400       0.961112
    13559.322000       0.959618
    13577.732500       0.958101
    13596.193100       0.956563
    13614.703900       0.955004
    13633.265200       0.953425
    13651.877100       0.951825
    13670.540000       0.950205
    13689.253900       0.948567
    13708.019200       0.946909
    13726.836000       0.945233
    13745.704500       0.943538
    13764.624900       0.941826
    13783.597500       0.940097
    13802.622500       0.938351
    13821.700100       0.936589
    13840.830400       0.934811
    13860.013900       0.933017
    13879.250500       0.931209
    13898.540700       0.929385
    13917.884500       0.927548
    13937.282200       0.925697
    13956.734100       0.923833
    13976.240400       0.921956
    13995.801300       0.920067
    14015.417000       0.918166
    14035.087700       0.916253
    14054.813800       0.914330
    14074.595400       0.912396
    14094.432700       0.910452
    14114.326000       0.908498
    14134.275600       0.906535
    14154.281700       0.904563
    14174.344400       0.902584
    14194.464200       0.900596
    14214.641100       0.898601
    14234.875400       0.896599
    14255.167500       0.894590
    14275.517500       0.892576
    14295.925700       0.890556
    14316.392300       0.888530
    14336.917600       0.886501
    14357.501800       0.884466
    14378.145200       0.882429
    14398.848100       0.880387
    14419.610700       0.878343
    14440.433200       0.876296
    14461.316000       0.874248
    14482.259200       0.872198
    14503.263200       0.870146
    14524.328200       0.868094
    14545.454500       0.866041
    14566.642400       0.863989
    14587.892000       0.861937
    14609.203800       0.859886
    14630.577900       0.857837
    14652.014700       0.855789
    14673.514300       0.853744
    14695.077100       0.851701
    14716.703500       0.849662
    14738.393500       0.847625
    14760.147600       0.845593
    14781.966000       0.843565
    14803.849000       0.841542
    14825.796900       0.839523
    14847.809900       0.837510
    14869.888500       0.835503
    14892.032800       0.833502
    14914.243100       0.831508
    14936.519800       0.829521
    14958.863100       0.827541
    14981.273400       0.825568
    15003.750900       0.823604
    15026.296000       0.821648
    15048.909000       0.819701
    15071.590100       0.817763
    15094.339600       0.815835
    15117.158000       0.813916
    15140.045400       0.812008
    15163.002300       0.810109
    15186.028900       0.808222
    15209.125500       0.806346
    15232.292500       0.804481
    15255.530100       0.802628
    15278.838800       0.800787
    15302.218800       0.798959
    15325.670500       0.797142
    15349.194200       0.795339
    15372.790200       0.793549
    15396.458800       0.791773
    15420.200500       0.790010
    15444.015400       0.788261
    15467.904100       0.786527
    15491.866800       0.784807
    15515.903800       0.783101
    15540.015500       0.781411
    15564.202300       0.779735
    15588.464500       0.778076
    15612.802500       0.776431
    15637.216600       0.774803
    15661.707100       0.773191
    15686.274500       0.771595
    15710.919100       0.770015
    15735.641200       0.768452
    15760.441300       0.766906
    15785.319700       0.765376
    15810.276700       0.763864
    15835.312700       0.762369
    15860.428200       0.760891
    15885.623500       0.759431
    15910.899000       0.757989
    15936.255000       0.756564
    15961.691900       0.755157
    15987.210200       0.753768
    16012.810200       0.752397
    16038.492400       0.751045
    16064.257000       0.749710
    16090.104600       0.748394
    16116.035500       0.747097
    16142.050000       0.745817
    16168.148700       0.744556
    16194.332000       0.743314
    16220.600200       0.742090
    16246.953700       0.740885
    16273.393000       0.739699
    16299.918500       0.738531
    16326.530600       0.737381
    16353.229800       0.736250
    16380.016400       0.735138
    16406.890900       0.734044
    16433.853700       0.732969
    16460.905300       0.731912
    16488.046200       0.730873
    16515.276600       0.729853
    16542.597200       0.728851
    16570.008300       0.727867
    16597.510400       0.726901
    16625.103900       0.725953
    16652.789300       0.725023
    16680.567100       0.724110
    16708.437800       0.723215
    16736.401700       0.722338
    16764.459300       0.721477
    16792.611300       0.720634
    16820.857900       0.719808
    16849.199700       0.718999
    16877.637100       0.718206
    16906.170800       0.717429
    16934.801000       0.716669
    16963.528400       0.715925
    16992.353400       0.715196
    17021.276600       0.714483
    17050.298400       0.713785
    17079.419300       0.713102
    17108.639900       0.712434
    17137.960600       0.711780
    17167.382000       0.711141
    17196.904600       0.710515
    17226.528900       0.709903
    17256.255400       0.709305
    17286.084700       0.708719
    17316.017300       0.708146
    17346.053800       0.707586
    17376.194600       0.707037
    17406.440400       0.706500
    17436.791600       0.705974
    17467.248900       0.705459
    17497.812800       0.704955
    17528.483800       0.704460
    17559.262500       0.703976
    17590.149500       0.703500
    17621.145400       0.703034
    17652.250700       0.702576
    17683.466000       0.702126
    17714.791900       0.701684
    17746.228900       0.701248
    17777.777800       0.700820
    17809.439000       0.700397
    17841.213200       0.699981
    17873.101000       0.699569
    17905.103000       0.699163
    17937.219700       0.698760
    17969.451900       0.698362
    18001.800200       0.697966
    18034.265100       0.697574
    18066.847300       0.697183
    18099.547500       0.696794
    18132.366300       0.696406
    18165.304300       0.696019
    18198.362100       0.695631
    18231.540600       0.695243
    18264.840200       0.694854
    18298.261700       0.694463
    18331.805700       0.694069
    18365.472900       0.693673
    18399.264000       0.693273
    18433.179700       0.692869
    18467.220700       0.692460
    18501.387600       0.692045
    18535.681200       0.691624
    18570.102100       0.691197
    18604.651200       0.690762
    18639.329000       0.690320
    18674.136300       0.689868
    18709.073900       0.689408
    18744.142500       0.688937
    18779.342700       0.688456
    18814.675400       0.687963
    18850.141400       0.687458
    18885.741300       0.686941
    18921.475900       0.686410
    18957.346000       0.685865
    18993.352300       0.685305
    19029.495700       0.684730
    19065.776900       0.684138
