13,   channel 13 SRF from file SRF_SSH-1_Delivery_220520/SRF_DMSP-F1_SSH_Chan13.asc received June 2022 from SPASCIA
Number of data points:
258
Wavenumber (cm-1)   Filter response
      712.800000       0.000900
      712.900000       0.001010
      713.000000       0.001120
      713.100000       0.001250
      713.200000       0.001390
      713.300000       0.001540
      713.400000       0.001710
      713.500000       0.001900
      713.600000       0.002100
      713.700000       0.002330
      713.800000       0.002580
      713.900000       0.002850
      714.000000       0.003150
      714.100000       0.003470
      714.200000       0.003830
      714.300000       0.004220
      714.400000       0.004640
      714.500000       0.005110
      714.600000       0.005610
      714.700000       0.006160
      714.800000       0.006760
      714.900000       0.007410
      715.000000       0.008110
      715.100000       0.008870
      715.200000       0.009700
      715.300000       0.010600
      715.400000       0.011560
      715.500000       0.012610
      715.600000       0.013740
      715.700000       0.014960
      715.800000       0.016270
      715.900000       0.017680
      716.000000       0.019200
      716.100000       0.020830
      716.200000       0.022580
      716.300000       0.024450
      716.400000       0.026460
      716.500000       0.028610
      716.600000       0.030910
      716.700000       0.033360
      716.800000       0.035980
      716.900000       0.038770
      717.000000       0.041750
      717.100000       0.044910
      717.200000       0.048270
      717.300000       0.051840
      717.400000       0.055620
      717.500000       0.059630
      717.600000       0.063880
      717.700000       0.068360
      717.800000       0.073110
      717.900000       0.078110
      718.000000       0.083390
      718.100000       0.088950
      718.200000       0.094790
      718.300000       0.101860
      718.400000       0.114550
      718.500000       0.127820
      718.600000       0.141660
      718.700000       0.156060
      718.800000       0.171010
      718.900000       0.186500
      719.000000       0.202530
      719.100000       0.219070
      719.200000       0.236110
      719.300000       0.253630
      719.400000       0.271610
      719.500000       0.290020
      719.600000       0.308850
      719.700000       0.328060
      719.800000       0.347620
      719.900000       0.367510
      720.000000       0.387680
      720.100000       0.408100
      720.200000       0.428740
      720.300000       0.449560
      720.400000       0.470510
      720.500000       0.491560
      720.600000       0.508160
      720.700000       0.521830
      720.800000       0.535580
      720.900000       0.549400
      721.000000       0.563280
      721.100000       0.577210
      721.200000       0.591170
      721.300000       0.605140
      721.400000       0.619110
      721.500000       0.633070
      721.600000       0.647000
      721.700000       0.660890
      721.800000       0.674720
      721.900000       0.688470
      722.000000       0.702120
      722.100000       0.715670
      722.200000       0.729090
      722.300000       0.742370
      722.400000       0.755490
      722.500000       0.768440
      722.600000       0.781190
      722.700000       0.793730
      722.800000       0.806050
      722.900000       0.818120
      723.000000       0.829930
      723.100000       0.841470
      723.200000       0.852710
      723.300000       0.863640
      723.400000       0.874250
      723.500000       0.884520
      723.600000       0.894440
      723.700000       0.903990
      723.800000       0.913150
      723.900000       0.921920
      724.000000       0.930280
      724.100000       0.938220
      724.200000       0.945720
      724.300000       0.952770
      724.400000       0.959370
      724.500000       0.965500
      724.600000       0.971160
      724.700000       0.976330
      724.800000       0.981000
      724.900000       0.985180
      725.000000       0.988850
      725.100000       0.992000
      725.200000       0.994640
      725.300000       0.996750
      725.400000       0.998340
      725.500000       0.999400
      725.600000       0.999930
      725.700000       0.999930
      725.800000       0.999400
      725.900000       0.998340
      726.000000       0.996750
      726.100000       0.994640
      726.200000       0.992000
      726.300000       0.988850
      726.400000       0.985180
      726.500000       0.981000
      726.600000       0.976330
      726.700000       0.971160
      726.800000       0.965500
      726.900000       0.959370
      727.000000       0.952770
      727.100000       0.945720
      727.200000       0.938220
      727.300000       0.930280
      727.400000       0.921920
      727.500000       0.913150
      727.600000       0.903990
      727.700000       0.894440
      727.800000       0.884520
      727.900000       0.874250
      728.000000       0.863640
      728.100000       0.852710
      728.200000       0.841470
      728.300000       0.829930
      728.400000       0.818120
      728.500000       0.806050
      728.600000       0.793730
      728.700000       0.781190
      728.800000       0.768440
      728.900000       0.755490
      729.000000       0.742370
      729.100000       0.729090
      729.200000       0.715670
      729.300000       0.702120
      729.400000       0.688470
      729.500000       0.674720
      729.600000       0.660890
      729.700000       0.647000
      729.800000       0.633070
      729.900000       0.619110
      730.000000       0.605140
      730.100000       0.591170
      730.200000       0.577210
      730.300000       0.563280
      730.400000       0.549400
      730.500000       0.535580
      730.600000       0.521830
      730.700000       0.508160
      730.800000       0.491560
      730.900000       0.470510
      731.000000       0.449560
      731.100000       0.428740
      731.200000       0.408100
      731.300000       0.387680
      731.400000       0.367510
      731.500000       0.347620
      731.600000       0.328060
      731.700000       0.308850
      731.800000       0.290020
      731.900000       0.271610
      732.000000       0.253630
      732.100000       0.236110
      732.200000       0.219070
      732.300000       0.202530
      732.400000       0.186500
      732.500000       0.171010
      732.600000       0.156060
      732.700000       0.141660
      732.800000       0.127820
      732.900000       0.114550
      733.000000       0.101860
      733.100000       0.094790
      733.200000       0.088950
      733.300000       0.083390
      733.400000       0.078110
      733.500000       0.073110
      733.600000       0.068360
      733.700000       0.063880
      733.800000       0.059630
      733.900000       0.055620
      734.000000       0.051840
      734.100000       0.048270
      734.200000       0.044910
      734.300000       0.041750
      734.400000       0.038770
      734.500000       0.035980
      734.600000       0.033360
      734.700000       0.030910
      734.800000       0.028610
      734.900000       0.026460
      735.000000       0.024450
      735.100000       0.022580
      735.200000       0.020830
      735.300000       0.019200
      735.400000       0.017680
      735.500000       0.016270
      735.600000       0.014960
      735.700000       0.013740
      735.800000       0.012610
      735.900000       0.011560
      736.000000       0.010600
      736.100000       0.009700
      736.200000       0.008870
      736.300000       0.008110
      736.400000       0.007410
      736.500000       0.006760
      736.600000       0.006160
      736.700000       0.005610
      736.800000       0.005110
      736.900000       0.004640
      737.000000       0.004220
      737.100000       0.003830
      737.200000       0.003470
      737.300000       0.003150
      737.400000       0.002850
      737.500000       0.002580
      737.600000       0.002330
      737.700000       0.002100
      737.800000       0.001900
      737.900000       0.001710
      738.000000       0.001540
      738.100000       0.001390
      738.200000       0.001250
      738.300000       0.001120
      738.400000       0.001010
      738.500000       0.000900
