 1    ,Original SRF for METOP-B AVHRR A307 channel 1 file METOPB_A307C001.txt
Number of data points:
107
Wavenumber (cm-1)   Filter response
    13020.833300       0.000003
    13054.830300       0.000018
    13089.005200       0.000000
    13123.359600       0.000000
    13157.894700       0.000000
    13192.612100       0.000000
    13227.513200       0.000000
    13262.599500       0.000177
    13297.872300       0.000000
    13333.333300       0.000000
    13368.984000       0.000006
    13404.825700       0.000042
    13440.860200       0.000023
    13477.088900       0.000000
    13513.513500       0.000016
    13550.135500       0.000010
    13586.956500       0.000000
    13623.978200       0.000000
    13661.202200       0.000034
    13698.630100       0.000000
    13736.263700       0.000000
    13774.104700       0.000000
    13812.154700       0.000000
    13850.415500       0.000061
    13888.888900       0.000000
    13927.576600       0.000000
    13966.480400       0.000000
    14005.602200       0.000000
    14044.943800       0.000111
    14084.507000       0.000338
    14124.293800       0.000263
    14164.305900       0.000595
    14204.545500       0.000896
    14245.014200       0.001525
    14285.714300       0.002066
    14326.647600       0.003622
    14367.816100       0.005927
    14409.221900       0.009844
    14450.867100       0.016492
    14492.753600       0.027176
    14534.883700       0.046646
    14577.259500       0.082421
    14619.883000       0.145030
    14662.756600       0.255400
    14705.882400       0.433770
    14749.262500       0.647690
    14792.899400       0.816620
    14836.795300       0.871990
    14880.952400       0.867260
    14925.373100       0.853180
    14970.059900       0.854150
    15015.015000       0.873210
    15060.241000       0.900160
    15105.740200       0.929230
    15151.515200       0.951210
    15197.568400       0.971940
    15243.902400       0.985670
    15290.519900       0.993070
    15337.423300       0.997890
    15384.615400       1.000000
    15432.098800       0.998530
    15479.876200       0.990470
    15527.950300       0.982640
    15576.324000       0.969580
    15625.000000       0.957560
    15673.981200       0.944560
    15723.270400       0.935260
    15772.870700       0.933240
    15822.784800       0.934800
    15873.015900       0.944000
    15923.566900       0.958340
    15974.440900       0.971770
    16025.641000       0.982130
    16077.170400       0.986400
    16129.032300       0.980030
    16181.229800       0.964050
    16233.766200       0.942570
    16286.645000       0.921980
    16339.869300       0.904080
    16393.442600       0.891470
    16447.368400       0.887860
    16501.650200       0.897000
    16556.291400       0.906420
    16611.295700       0.898890
    16666.666700       0.874940
    16722.408000       0.834690
    16778.523500       0.791790
    16835.016800       0.767630
    16891.891900       0.765080
    16949.152500       0.769070
    17006.802700       0.666580
    17064.846400       0.386930
    17123.287700       0.160800
    17182.130600       0.063416
    17241.379300       0.026514
    17301.038100       0.011619
    17361.111100       0.004204
    17421.602800       0.002513
    17482.517500       0.001657
    17543.859600       0.000977
    17605.633800       0.000645
    17667.844500       0.000645
    17730.496500       0.000746
    17793.594300       0.000073
    17857.142900       0.000795
    17921.147000       0.000000
    17985.611500       0.000504
