2,    channel 2 SRF extracted from SSTM-SRF.xlsx (TIR2)
Number of data points:
70
Wavenumber (cm-1)   Filter response
      781.250000       0.016000
      782.472600       0.019000
      783.699100       0.021000
      784.929400       0.022000
      786.163500       0.023000
      787.401600       0.024000
      788.643500       0.025000
      789.889400       0.027000
      791.139200       0.030000
      792.393000       0.033000
      793.650800       0.024000
      794.912600       0.033000
      796.178300       0.044000
      797.448200       0.056000
      798.722000       0.073000
      800.000000       0.094000
      801.282100       0.126000
      802.568200       0.163000
      803.858500       0.214000
      805.153000       0.280000
      806.451600       0.370000
      807.754400       0.478000
      809.061500       0.583000
      810.372800       0.709000
      811.688300       0.808000
      813.008100       0.890000
      814.332200       0.959000
      815.660700       1.000000
      816.993500       0.998000
      818.330600       0.992000
      819.672100       0.952000
      821.018100       0.935000
      822.368400       0.915000
      823.723200       0.905000
      825.082500       0.908000
      826.446300       0.919000
      827.814600       0.928000
      829.187400       0.897000
      830.564800       0.893000
      831.946800       0.890000
      833.333300       0.887000
      834.724500       0.875000
      836.120400       0.855000
      837.520900       0.818000
      838.926200       0.799000
      840.336100       0.753000
      841.750800       0.716000
      843.170300       0.671000
      844.594600       0.616000
      846.023700       0.542000
      847.457600       0.476000
      848.896400       0.394000
      850.340100       0.329000
      851.788800       0.269000
      853.242300       0.214000
      854.700900       0.167000
      856.164400       0.132000
      857.632900       0.104000
      859.106500       0.080000
      860.585200       0.060000
      862.069000       0.047000
      863.557900       0.037000
      865.051900       0.029000
      866.551100       0.022000
      868.055600       0.016000
      869.565200       0.019000
      871.080100       0.017000
      872.600300       0.013000
      874.125900       0.011000
      875.656700       0.010000
