35,   35, MVIRI VIS channel from srf_MET2_1986168_1986169_1801-Release_S10EL_10.dat
Number of data points:
730
Wavenumber (cm-1)   Filter response
     8916.629500       0.000000
     8924.587200       0.000000
     8932.559200       0.000002
     8940.545400       0.000011
     8948.545900       0.000032
     8956.560700       0.000069
     8964.589900       0.000126
     8972.633500       0.000208
     8980.691500       0.000318
     8988.764000       0.000460
     8996.851100       0.000639
     9004.952700       0.000857
     9013.068900       0.001118
     9021.199800       0.001425
     9029.345400       0.001781
     9037.505600       0.002189
     9045.680700       0.002651
     9053.870500       0.003171
     9062.075200       0.003751
     9070.294800       0.004393
     9078.529300       0.005100
     9086.778700       0.005873
     9095.043200       0.006714
     9103.322700       0.007626
     9111.617300       0.008610
     9119.927000       0.009667
     9128.251900       0.010800
     9136.592100       0.012009
     9144.947400       0.013297
     9153.318100       0.014663
     9161.704100       0.016110
     9170.105500       0.017638
     9178.522300       0.019249
     9186.954500       0.020942
     9195.402300       0.022718
     9203.865600       0.024580
     9212.344500       0.026526
     9220.839100       0.028557
     9229.349300       0.030674
     9237.875300       0.032878
     9246.417000       0.035167
     9254.974500       0.037543
     9263.547900       0.040006
     9272.137200       0.042555
     9280.742500       0.045191
     9289.363700       0.047913
     9298.000900       0.050721
     9306.654300       0.053616
     9315.323700       0.056596
     9324.009300       0.059661
     9332.711200       0.062812
     9341.429200       0.066047
     9350.163600       0.069366
     9358.914400       0.072768
     9367.681500       0.076254
     9376.465100       0.079821
     9385.265100       0.083470
     9394.081700       0.087200
     9402.914900       0.091009
     9411.764700       0.094898
     9420.631200       0.098865
     9429.514400       0.102910
     9438.414300       0.107031
     9447.331100       0.111227
     9456.264800       0.115498
     9465.215300       0.119842
     9474.182900       0.124258
     9483.167400       0.128747
     9492.169000       0.133304
     9501.187600       0.137932
     9510.223500       0.142627
     9519.276500       0.147388
     9528.346800       0.152216
     9537.434400       0.157107
     9546.539400       0.162061
     9555.661700       0.167078
     9564.801500       0.172154
     9573.958800       0.177290
     9583.133700       0.182484
     9592.326100       0.187733
     9601.536200       0.193039
     9610.764100       0.198397
     9620.009600       0.203809
     9629.273000       0.209272
     9638.554200       0.214784
     9647.853400       0.220344
     9657.170400       0.225951
     9666.505600       0.231604
     9675.858700       0.237301
     9685.230000       0.243040
     9694.619500       0.248821
     9704.027200       0.254641
     9713.453100       0.260500
     9722.897400       0.266397
     9732.360100       0.272327
     9741.841200       0.278293
     9751.340800       0.284291
     9760.859000       0.290320
     9770.395700       0.296380
     9779.951100       0.302467
     9789.525200       0.308582
     9799.118100       0.314722
     9808.729800       0.320886
     9818.360300       0.327073
     9828.009800       0.333281
     9837.678300       0.339509
     9847.365800       0.345756
     9857.072400       0.352020
     9866.798200       0.358300
     9876.543200       0.364593
     9886.307500       0.370901
     9896.091000       0.377220
     9905.894000       0.383549
     9915.716400       0.389888
     9925.558300       0.396234
     9935.419800       0.402587
     9945.300800       0.408945
     9955.201600       0.415306
     9965.122100       0.421670
     9975.062300       0.428035
     9985.022500       0.434401
     9995.002500       0.440766
    10005.002500       0.447128
    10015.022500       0.453486
    10025.062700       0.459840
    10035.122900       0.466187
    10045.203400       0.472527
    10055.304200       0.478860
    10065.425300       0.485182
    10075.566800       0.491494
    10085.728700       0.497794
    10095.911200       0.504082
    10106.114200       0.510356
    10116.337900       0.516614
    10126.582300       0.522857
    10136.847400       0.529082
    10147.133400       0.535290
    10157.440300       0.541478
    10167.768200       0.547646
    10178.117000       0.553793
    10188.487000       0.559918
    10198.878100       0.566020
    10209.290500       0.572098
    10219.724100       0.578152
    10230.179000       0.584179
    10240.655400       0.590181
    10251.153300       0.596154
    10261.672700       0.602099
    10272.213700       0.608016
    10282.776300       0.613902
    10293.360800       0.619758
    10303.967000       0.625582
    10314.595200       0.631373
    10325.245200       0.637132
    10335.917300       0.642857
    10346.611500       0.648548
    10357.327800       0.654203
    10368.066400       0.659822
    10378.827200       0.665405
    10389.610400       0.670951
    10400.416000       0.676459
    10411.244100       0.681929
    10422.094800       0.687359
    10432.968200       0.692750
    10443.864200       0.698102
    10454.783100       0.703412
    10465.724800       0.708681
    10476.689400       0.713908
    10487.677000       0.719093
    10498.687700       0.724235
    10509.721500       0.729335
    10520.778500       0.734390
    10531.858900       0.739401
    10542.962600       0.744368
    10554.089700       0.749290
    10565.240400       0.754167
    10576.414600       0.758997
    10587.612500       0.763782
    10598.834100       0.768521
    10610.079600       0.773213
    10621.348900       0.777857
    10632.642200       0.782454
    10643.959600       0.787004
    10655.301000       0.791506
    10666.666700       0.795959
    10678.056600       0.800364
    10689.470900       0.804720
    10700.909600       0.809028
    10712.372800       0.813286
    10723.860600       0.817496
    10735.373100       0.821655
    10746.910300       0.825765
    10758.472300       0.829825
    10770.059200       0.833836
    10781.671200       0.837796
    10793.308100       0.841706
    10804.970300       0.845565
    10816.657700       0.849375
    10828.370300       0.853133
    10840.108400       0.856842
    10851.871900       0.860499
    10863.661100       0.864107
    10875.475800       0.867663
    10887.316300       0.871169
    10899.182600       0.874624
    10911.074700       0.878028
    10922.992900       0.881381
    10934.937100       0.884684
    10946.907500       0.887936
    10958.904100       0.891138
    10970.927000       0.894289
    10982.976400       0.897389
    10995.052200       0.900439
    11007.154700       0.903439
    11019.283700       0.906388
    11031.439600       0.909288
    11043.622300       0.912137
    11055.832000       0.914936
    11068.068600       0.917685
    11080.332400       0.920384
    11092.623400       0.923034
    11104.941700       0.925634
    11117.287400       0.928185
    11129.660500       0.930687
    11142.061300       0.933140
    11154.489700       0.935544
    11166.945800       0.937900
    11179.429800       0.940207
    11191.941800       0.942466
    11204.481800       0.944676
    11217.049900       0.946839
    11229.646300       0.948954
    11242.270900       0.951022
    11254.924000       0.953043
    11267.605600       0.955016
    11280.315800       0.956943
    11293.054800       0.958823
    11305.822500       0.960657
    11318.619100       0.962446
    11331.444800       0.964188
    11344.299500       0.965885
    11357.183400       0.967536
    11370.096600       0.969143
    11383.039300       0.970705
    11396.011400       0.972223
    11409.013100       0.973696
    11422.044500       0.975126
    11435.105800       0.976512
    11448.196900       0.977855
    11461.318100       0.979154
    11474.469300       0.980411
    11487.650800       0.981626
    11500.862600       0.982799
    11514.104800       0.983930
    11527.377500       0.985019
    11540.680900       0.986067
    11554.015000       0.987074
    11567.380000       0.988041
    11580.775900       0.988968
    11594.202900       0.989854
    11607.661100       0.990701
    11621.150500       0.991509
    11634.671300       0.992278
    11648.223600       0.993008
    11661.807600       0.993700
    11675.423200       0.994354
    11689.070700       0.994970
    11702.750100       0.995549
    11716.461600       0.996091
    11730.205300       0.996596
    11743.981200       0.997065
    11757.789500       0.997498
    11771.630400       0.997895
    11785.503800       0.998256
    11799.410000       0.998583
    11813.349100       0.998875
    11827.321100       0.999133
    11841.326200       0.999356
    11855.364600       0.999546
    11869.436200       0.999702
    11883.541300       0.999826
    11897.680000       0.999916
    11911.852300       0.999974
    11926.058400       1.000000
    11940.298500       0.999994
    11954.572600       0.999957
    11968.880900       0.999888
    11983.223500       0.999789
    11997.600500       0.999659
    12012.012000       0.999499
    12026.458200       0.999309
    12040.939200       0.999090
    12055.455100       0.998841
    12070.006000       0.998563
    12084.592100       0.998257
    12099.213600       0.997922
    12113.870400       0.997559
    12128.562800       0.997168
    12143.290800       0.996750
    12158.054700       0.996305
    12172.854500       0.995833
    12187.690400       0.995335
    12202.562500       0.994810
    12217.471000       0.994259
    12232.415900       0.993682
    12247.397400       0.993080
    12262.415700       0.992453
    12277.470800       0.991801
    12292.563000       0.991125
    12307.692300       0.990424
    12322.858900       0.989699
    12338.062900       0.988950
    12353.304500       0.988178
    12368.583800       0.987383
    12383.900900       0.986565
    12399.256000       0.985723
    12414.649300       0.984860
    12430.080800       0.983974
    12445.550700       0.983066
    12461.059200       0.982137
    12476.606400       0.981186
    12492.192400       0.980214
    12507.817400       0.979221
    12523.481500       0.978207
    12539.185000       0.977172
    12554.927800       0.976117
    12570.710200       0.975043
    12586.532400       0.973948
    12602.394500       0.972834
    12618.296500       0.971700
    12634.238800       0.970547
    12650.221400       0.969375
    12666.244500       0.968184
    12682.308200       0.966975
    12698.412700       0.965747
    12714.558200       0.964501
    12730.744700       0.963237
    12746.972600       0.961955
    12763.241900       0.960656
    12779.552700       0.959339
    12795.905300       0.958005
    12812.299800       0.956654
    12828.736400       0.955286
    12845.215200       0.953901
    12861.736300       0.952500
    12878.300100       0.951082
    12894.906500       0.949649
    12911.555800       0.948199
    12928.248200       0.946733
    12944.983800       0.945252
    12961.762800       0.943755
    12978.585300       0.942243
    12995.451600       0.940715
    13012.361700       0.939172
    13029.316000       0.937615
    13046.314400       0.936042
    13063.357300       0.934455
    13080.444700       0.932853
    13097.576900       0.931237
    13114.754100       0.929607
    13131.976400       0.927962
    13149.243900       0.926303
    13166.556900       0.924631
    13183.915600       0.922944
    13201.320100       0.921245
    13218.770700       0.919531
    13236.267400       0.917804
    13253.810500       0.916064
    13271.400100       0.914310
    13289.036500       0.912544
    13306.719900       0.910764
    13324.450400       0.908972
    13342.228200       0.907167
    13360.053400       0.905349
    13377.926400       0.903519
    13395.847300       0.901676
    13413.816200       0.899820
    13431.833400       0.897953
    13449.899100       0.896073
    13468.013500       0.894181
    13486.176700       0.892277
    13504.388900       0.890361
    13522.650400       0.888433
    13540.961400       0.886494
    13559.322000       0.884543
    13577.732500       0.882580
    13596.193100       0.880606
    13614.703900       0.878620
    13633.265200       0.876623
    13651.877100       0.874614
    13670.540000       0.872595
    13689.253900       0.870564
    13708.019200       0.868522
    13726.836000       0.866469
    13745.704500       0.864405
    13764.624900       0.862330
    13783.597500       0.860245
    13802.622500       0.858148
    13821.700100       0.856041
    13840.830400       0.853924
    13860.013900       0.851796
    13879.250500       0.849657
    13898.540700       0.847508
    13917.884500       0.845349
    13937.282200       0.843179
    13956.734100       0.840999
    13976.240400       0.838809
    13995.801300       0.836609
    14015.417000       0.834399
    14035.087700       0.832179
    14054.813800       0.829949
    14074.595400       0.827709
    14094.432700       0.825460
    14114.326000       0.823200
    14134.275600       0.820931
    14154.281700       0.818652
    14174.344400       0.816364
    14194.464200       0.814066
    14214.641100       0.811759
    14234.875400       0.809443
    14255.167500       0.807117
    14275.517500       0.804782
    14295.925700       0.802438
    14316.392300       0.800084
    14336.917600       0.797722
    14357.501800       0.795350
    14378.145200       0.792970
    14398.848100       0.790581
    14419.610700       0.788183
    14440.433200       0.785776
    14461.316000       0.783361
    14482.259200       0.780937
    14503.263200       0.778504
    14524.328200       0.776063
    14545.454500       0.773613
    14566.642400       0.771156
    14587.892000       0.768690
    14609.203800       0.766215
    14630.577900       0.763733
    14652.014700       0.761243
    14673.514300       0.758744
    14695.077100       0.756238
    14716.703500       0.753724
    14738.393500       0.751202
    14760.147600       0.748673
    14781.966000       0.746135
    14803.849000       0.743591
    14825.796900       0.741039
    14847.809900       0.738479
    14869.888500       0.735913
    14892.032800       0.733339
    14914.243100       0.730758
    14936.519800       0.728170
    14958.863100       0.725575
    14981.273400       0.722974
    15003.750900       0.720365
    15026.296000       0.717750
    15048.909000       0.715129
    15071.590100       0.712501
    15094.339600       0.709866
    15117.158000       0.707226
    15140.045400       0.704579
    15163.002300       0.701926
    15186.028900       0.699267
    15209.125500       0.696603
    15232.292500       0.693932
    15255.530100       0.691256
    15278.838800       0.688574
    15302.218800       0.685887
    15325.670500       0.683195
    15349.194200       0.680497
    15372.790200       0.677795
    15396.458800       0.675087
    15420.200500       0.672374
    15444.015400       0.669657
    15467.904100       0.666935
    15491.866800       0.664208
    15515.903800       0.661478
    15540.015500       0.658742
    15564.202300       0.656003
    15588.464500       0.653260
    15612.802500       0.650512
    15637.216600       0.647761
    15661.707100       0.645006
    15686.274500       0.642248
    15710.919100       0.639486
    15735.641200       0.636722
    15760.441300       0.633953
    15785.319700       0.631182
    15810.276700       0.628408
    15835.312700       0.625632
    15860.428200       0.622852
    15885.623500       0.620070
    15910.899000       0.617286
    15936.255000       0.614500
    15961.691900       0.611712
    15987.210200       0.608921
    16012.810200       0.606129
    16038.492400       0.603335
    16064.257000       0.600540
    16090.104600       0.597744
    16116.035500       0.594946
    16142.050000       0.592147
    16168.148700       0.589348
    16194.332000       0.586547
    16220.600200       0.583746
    16246.953700       0.580945
    16273.393000       0.578143
    16299.918500       0.575341
    16326.530600       0.572539
    16353.229800       0.569737
    16380.016400       0.566935
    16406.890900       0.564134
    16433.853700       0.561333
    16460.905300       0.558533
    16488.046200       0.555734
    16515.276600       0.552936
    16542.597200       0.550139
    16570.008300       0.547344
    16597.510400       0.544550
    16625.103900       0.541757
    16652.789300       0.538966
    16680.567100       0.536178
    16708.437800       0.533391
    16736.401700       0.530606
    16764.459300       0.527824
    16792.611300       0.525044
    16820.857900       0.522267
    16849.199700       0.519493
    16877.637100       0.516722
    16906.170800       0.513953
    16934.801000       0.511188
    16963.528400       0.508427
    16992.353400       0.505668
    17021.276600       0.502914
    17050.298400       0.500163
    17079.419300       0.497416
    17108.639900       0.494673
    17137.960600       0.491935
    17167.382000       0.489200
    17196.904600       0.486470
    17226.528900       0.483745
    17256.255400       0.481025
    17286.084700       0.478309
    17316.017300       0.475598
    17346.053800       0.472892
    17376.194600       0.470192
    17406.440400       0.467497
    17436.791600       0.464807
    17467.248900       0.462123
    17497.812800       0.459444
    17528.483800       0.456771
    17559.262500       0.454105
    17590.149500       0.451444
    17621.145400       0.448789
    17652.250700       0.446141
    17683.466000       0.443499
    17714.791900       0.440863
    17746.228900       0.438233
    17777.777800       0.435611
    17809.439000       0.432995
    17841.213200       0.430386
    17873.101000       0.427783
    17905.103000       0.425188
    17937.219700       0.422599
    17969.451900       0.420018
    18001.800200       0.417444
    18034.265100       0.414877
    18066.847300       0.412317
    18099.547500       0.409765
    18132.366300       0.407220
    18165.304300       0.404683
    18198.362100       0.402153
    18231.540600       0.399631
    18264.840200       0.397116
    18298.261700       0.394609
    18331.805700       0.392110
    18365.472900       0.389618
    18399.264000       0.387135
    18433.179700       0.384659
    18467.220700       0.382190
    18501.387600       0.379730
    18535.681200       0.377278
    18570.102100       0.374833
    18604.651200       0.372396
    18639.329000       0.369967
    18674.136300       0.367546
    18709.073900       0.365133
    18744.142500       0.362728
    18779.342700       0.360330
    18814.675400       0.357940
    18850.141400       0.355558
    18885.741300       0.353184
    18921.475900       0.350818
    18957.346000       0.348459
    18993.352300       0.346108
    19029.495700       0.343765
    19065.776900       0.341429
    19102.196800       0.339101
    19138.756000       0.336780
    19175.455400       0.334466
    19212.295900       0.332160
    19249.278200       0.329861
    19286.403100       0.327570
    19323.671500       0.325285
    19361.084200       0.323008
    19398.642100       0.320737
    19436.346000       0.318473
    19474.196700       0.316216
    19512.195100       0.313966
    19550.342100       0.311722
    19588.638600       0.309485
    19627.085400       0.307254
    19665.683400       0.305029
    19704.433500       0.302810
    19743.336600       0.300597
    19782.393700       0.298390
    19821.605600       0.296189
    19860.973200       0.293993
    19900.497500       0.291803
