           7  , Jan 12th 2012 http://fy3.satellite.cma.gov.cn/ArssEn/Download/FY3A_calibration_info_params.rar
Number of data points:
699
Wavenumber (cm-1)   Filter response
      712.453700       0.000012
      712.555200       0.000650
      712.656800       0.001294
      712.758400       0.001945
      712.860000       0.002526
      712.961700       0.003057
      713.063300       0.003451
      713.165000       0.003763
      713.266700       0.003959
      713.368500       0.004051
      713.470300       0.004117
      713.572100       0.004153
      713.674000       0.004147
      713.775900       0.004121
      713.877700       0.004044
      713.979700       0.003950
      714.081700       0.003760
      714.183700       0.003546
      714.285700       0.003269
      714.387800       0.002947
      714.489900       0.002731
      714.591900       0.002524
      714.694200       0.002467
      714.796300       0.002423
      714.898500       0.002598
      715.000700       0.002781
      715.103000       0.003060
      715.205300       0.003336
      715.307600       0.003548
      715.410000       0.003704
      715.512300       0.003752
      715.614700       0.003787
      715.717200       0.003740
      715.819600       0.003720
      715.922100       0.003812
      716.024700       0.003995
      716.127200       0.004469
      716.229800       0.005065
      716.332400       0.005962
      716.435000       0.006881
      716.537700       0.008057
      716.640400       0.009219
      716.743200       0.010358
      716.845900       0.011372
      716.948700       0.012232
      717.051500       0.012920
      717.154300       0.013435
      717.257200       0.013785
      717.360100       0.014003
      717.463100       0.013938
      717.566000       0.013954
      717.669000       0.013818
      717.772000       0.013603
      717.875100       0.013213
      717.978100       0.012758
      718.081300       0.012159
      718.184400       0.011522
      718.287600       0.010949
      718.390800       0.010388
      718.494000       0.010027
      718.597300       0.009807
      718.700600       0.010010
      718.804000       0.010230
      718.907300       0.010623
      719.010600       0.010999
      719.114100       0.011223
      719.217500       0.011358
      719.320900       0.011051
      719.424500       0.010652
      719.528000       0.009936
      719.631500       0.009232
      719.735100       0.008542
      719.838700       0.008064
      719.942400       0.007939
      720.046100       0.008153
      720.149800       0.008789
      720.253500       0.009670
      720.357300       0.010782
      720.461100       0.011840
      720.564900       0.012860
      720.668800       0.013549
      720.772700       0.014070
      720.876600       0.014217
      720.980500       0.014229
      721.084500       0.014137
      721.188500       0.014021
      721.292500       0.014048
      721.396600       0.014094
      721.500700       0.014246
      721.604900       0.014395
      721.709000       0.014400
      721.813200       0.014378
      721.917400       0.014165
      722.021700       0.013971
      722.126000       0.013849
      722.230300       0.013853
      722.334600       0.014163
      722.439000       0.014660
      722.543300       0.015470
      722.647800       0.016389
      722.752200       0.017434
      722.856800       0.018469
      722.961200       0.019494
      723.065800       0.020458
      723.170300       0.021386
      723.275000       0.022164
      723.379600       0.022882
      723.484300       0.023319
      723.589000       0.023688
      723.693700       0.023567
      723.798500       0.023383
      723.903300       0.022702
      724.008100       0.022005
      724.112900       0.021190
      724.217900       0.020429
      724.322800       0.019932
      724.427700       0.019595
      724.532700       0.019704
      724.637700       0.020005
      724.742700       0.020653
      724.847800       0.021378
      724.952900       0.022206
      725.058000       0.022919
      725.163100       0.023541
      725.268400       0.023908
      725.373500       0.024133
      725.478800       0.024174
      725.584100       0.024154
      725.689400       0.024079
      725.794700       0.024005
      725.900100       0.023939
      726.005500       0.023875
      726.111000       0.023828
      726.216400       0.023794
      726.321900       0.023821
      726.427400       0.023892
      726.533000       0.024089
      726.638500       0.024379
      726.744200       0.024829
      726.849800       0.025365
      726.955500       0.025964
      727.061200       0.026531
      727.167000       0.027076
      727.272700       0.027493
      727.378500       0.027853
      727.484300       0.028047
      727.590200       0.028198
      727.696100       0.028277
      727.802100       0.028350
      727.908000       0.028542
      728.014000       0.028744
      728.120000       0.029152
      728.226000       0.029653
      728.332200       0.030439
      728.438200       0.031360
      728.544400       0.032523
      728.650500       0.033776
      728.756700       0.035129
      728.863000       0.036416
      728.969200       0.037688
      729.075600       0.038668
      729.181900       0.039554
      729.288200       0.040170
      729.394600       0.040730
      729.501000       0.041245
      729.607500       0.041776
      729.713900       0.042540
      729.820500       0.043386
      729.927000       0.044576
      730.033600       0.046212
      730.140200       0.047670
      730.246800       0.049100
      730.353500       0.050493
      730.460200       0.051640
      730.567000       0.052596
      730.673700       0.053148
      730.780500       0.053520
      730.887300       0.053629
      730.994100       0.053681
      731.101000       0.054057
      731.207900       0.054520
      731.314900       0.055755
      731.421900       0.057153
      731.528900       0.059188
      731.635900       0.061284
      731.743000       0.063499
      731.850200       0.065455
      731.957300       0.067114
      732.064500       0.068312
      732.171600       0.069191
      732.278900       0.069795
      732.386100       0.070296
      732.493400       0.070950
      732.600800       0.071630
      732.708100       0.072869
      732.815500       0.074182
      732.922900       0.075942
      733.030300       0.077878
      733.137800       0.080122
      733.245400       0.082485
      733.352900       0.085066
      733.460400       0.087834
      733.568100       0.090752
      733.675700       0.093899
      733.783400       0.097147
      733.891100       0.100506
      733.998800       0.103891
      734.106600       0.107228
      734.214400       0.110529
      734.322200       0.113535
      734.430100       0.116496
      734.538000       0.119214
      734.645900       0.121858
      734.753900       0.124403
      734.861900       0.126967
      734.969800       0.129546
      735.077900       0.132344
      735.186000       0.135228
      735.294100       0.138472
      735.402300       0.141695
      735.510400       0.145363
      735.618700       0.149075
      735.726900       0.152992
      735.835100       0.156993
      735.943500       0.161161
      736.051800       0.165496
      736.160200       0.170015
      736.268600       0.174879
      736.377000       0.179949
      736.485500       0.185480
      736.594000       0.191334
      736.702500       0.197838
      736.811100       0.204437
      736.919700       0.211474
      737.028300       0.218548
      737.137000       0.225708
      737.245700       0.232806
      737.354400       0.239815
      737.463100       0.246779
      737.572000       0.253424
      737.680700       0.260499
      737.789600       0.267631
      737.898400       0.275220
      738.007400       0.282916
      738.116300       0.291256
      738.225300       0.299749
      738.334400       0.308718
      738.443400       0.317886
      738.552400       0.327355
      738.661600       0.336409
      738.770700       0.346045
      738.879800       0.355608
      738.989100       0.365157
      739.098300       0.374591
      739.207600       0.384041
      739.316900       0.393677
      739.426200       0.403487
      739.535600       0.413817
      739.645000       0.424482
      739.754400       0.434859
      739.863900       0.446224
      739.973400       0.457760
      740.082900       0.469242
      740.192400       0.480718
      740.302000       0.492086
      740.411700       0.503487
      740.521400       0.515118
      740.631000       0.526928
      740.740700       0.538761
      740.850500       0.530454
      740.960300       0.544658
      741.070100       0.559138
      741.180000       0.573824
      741.289900       0.588647
      741.399800       0.603581
      741.509700       0.618729
      741.619700       0.633988
      741.729700       0.649385
      741.839800       0.664802
      741.949900       0.679709
      742.060000       0.691422
      742.170100       0.702874
      742.280300       0.713808
      742.390500       0.724539
      742.500700       0.734796
      742.611000       0.744975
      742.721400       0.754917
      742.831700       0.764830
      742.942100       0.774691
      743.052400       0.788171
      743.162900       0.797877
      743.273400       0.807281
      743.383900       0.816531
      743.494400       0.825314
      743.605000       0.833995
      743.715600       0.842351
      743.826200       0.850691
      743.936900       0.859003
      744.047700       0.867333
      744.158400       0.880434
      744.269200       0.888497
      744.379900       0.896399
      744.490800       0.903599
      744.601600       0.910641
      744.712500       0.916547
      744.823500       0.922230
      744.934400       0.927096
      745.045500       0.931670
      745.156500       0.935826
      745.267500       0.945390
      745.378700       0.949062
      745.489800       0.952501
      745.601000       0.955883
      745.712200       0.959031
      745.823400       0.962125
      745.934600       0.965024
      746.046000       0.967765
      746.157300       0.970283
      746.268700       0.972412
      746.380100       0.980816
      746.491500       0.982038
      746.603000       0.983110
      746.714400       0.983505
      746.826000       0.983860
      746.937600       0.984077
      747.049200       0.984483
      747.160800       0.985124
      747.272500       0.986257
      747.384200       0.987658
      747.495800       0.996154
      747.607600       0.997929
      747.719500       0.999174
      747.831300       1.000000
      747.943200       0.999751
      748.055100       0.998647
      748.167000       0.996665
      748.278900       0.993825
      748.390900       0.990733
      748.503000       0.988116
      748.615100       0.992230
      748.727200       0.990062
      748.839300       0.988217
      748.951500       0.986974
      749.063700       0.986198
      749.175900       0.985782
      749.288200       0.985625
      749.400500       0.985536
      749.512800       0.984975
      749.625200       0.984167
      749.737500       0.988646
      749.850000       0.986546
      749.962500       0.983808
      750.075000       0.980552
      750.187600       0.977035
      750.300100       0.973368
      750.412700       0.969677
      750.525300       0.965981
      750.638100       0.962229
      750.750800       0.958373
      750.863500       0.959523
      750.976300       0.955094
      751.089100       0.949999
      751.201900       0.944706
      751.314800       0.938718
      751.427700       0.932629
      751.540600       0.926261
      751.653600       0.919800
      751.766700       0.913236
      751.879700       0.906385
      751.992700       0.838493
      752.105900       0.839517
      752.219100       0.840267
      752.332200       0.841054
      752.445400       0.841711
      752.558700       0.842077
      752.672000       0.842243
      752.785300       0.842232
      752.898700       0.841477
      753.012100       0.840330
      753.125500       0.836956
      753.239000       0.825864
      753.352400       0.813611
      753.465900       0.800662
      753.579500       0.787204
      753.693100       0.773690
      753.806800       0.760201
      753.920400       0.747334
      754.034100       0.734726
      754.147800       0.722740
      754.261500       0.716665
      754.375400       0.705164
      754.489300       0.693511
      754.603100       0.681783
      754.717000       0.669358
      754.830900       0.656683
      754.944900       0.643369
      755.058900       0.629760
      755.173000       0.615867
      755.287000       0.602046
      755.401100       0.592790
      755.515300       0.579322
      755.629500       0.565946
      755.743700       0.552887
      755.857900       0.539918
      755.972200       0.527028
      756.086500       0.514274
      756.200900       0.501714
      756.315200       0.489720
      756.429600       0.477941
      756.544100       0.470461
      756.658600       0.459732
      756.773100       0.449449
      756.887700       0.439404
      757.002300       0.429403
      757.116900       0.418986
      757.231600       0.408330
      757.346300       0.397089
      757.461000       0.385567
      757.575700       0.373803
      757.690600       0.365309
      757.805400       0.353763
      757.920200       0.343185
      758.035200       0.332941
      758.150100       0.323490
      758.265100       0.314527
      758.380100       0.305930
      758.495100       0.297677
      758.610200       0.289510
      758.725300       0.281659
      758.840500       0.276427
      758.955700       0.268929
      759.070900       0.261822
      759.186200       0.254951
      759.301500       0.248649
      759.416700       0.242461
      759.532100       0.236548
      759.647500       0.230675
      759.763000       0.224873
      759.878400       0.218996
      759.993900       0.215117
      760.109400       0.208894
      760.225000       0.202694
      760.340600       0.196602
      760.456300       0.190693
      760.572000       0.184984
      760.687700       0.179880
      760.803400       0.174994
      760.919200       0.170971
      761.035000       0.167164
      761.150900       0.165572
      761.266800       0.162348
      761.382700       0.159216
      761.498700       0.155763
      761.614600       0.152159
      761.730700       0.147920
      761.846700       0.143355
      761.962800       0.138306
      762.079000       0.133033
      762.195100       0.127651
      762.311300       0.123802
      762.427600       0.118767
      762.543800       0.114332
      762.660200       0.110424
      762.776600       0.107004
      762.892900       0.104210
      763.009300       0.101600
      763.125700       0.099323
      763.242200       0.097053
      763.358800       0.094798
      763.475300       0.101172
      763.592000       0.097691
      763.708600       0.094375
      763.825300       0.091189
      763.942000       0.088325
      764.058700       0.085720
      764.175400       0.083364
      764.292300       0.081254
      764.409100       0.079223
      764.526000       0.077173
      764.642900       0.075102
      764.759800       0.073798
      764.876800       0.072150
      764.993900       0.070316
      765.111000       0.068191
      765.228000       0.066036
      765.345200       0.063858
      765.462300       0.061808
      765.579500       0.059870
      765.696800       0.058185
      765.814100       0.055847
      765.931400       0.054363
      766.048700       0.052822
      766.166100       0.051204
      766.283500       0.049476
      766.400900       0.047698
      766.518500       0.046052
      766.636000       0.044552
      766.753600       0.043401
      766.871200       0.042673
      766.988800       0.041676
      767.106400       0.041787
      767.224200       0.042004
      767.342000       0.042409
      767.459700       0.042772
      767.577500       0.043092
      767.695400       0.043233
      767.813200       0.043353
      767.931200       0.043310
      768.049100       0.043250
      768.167200       0.042604
      768.285200       0.042497
      768.403300       0.042376
      768.521400       0.042138
      768.639500       0.041803
      768.757700       0.041279
      768.875900       0.040593
      768.994200       0.039814
      769.112400       0.039023
      769.230800       0.038309
      769.349100       0.037339
      769.467500       0.037097
      769.585900       0.037030
      769.704500       0.037040
      769.822900       0.036999
      769.941500       0.036710
      770.060100       0.036199
      770.178600       0.035469
      770.297300       0.034655
      770.416100       0.033853
      770.534800       0.032846
      770.653500       0.032418
      770.772300       0.032165
      770.891100       0.031945
      771.010000       0.031718
      771.128900       0.031319
      771.247900       0.030900
      771.366900       0.030450
      771.485900       0.030292
      771.604900       0.030282
      771.724000       0.030495
      771.843100       0.031291
      771.962300       0.032419
      772.081500       0.033458
      772.200800       0.034455
      772.320100       0.034764
      772.439300       0.034784
      772.558700       0.034208
      772.678100       0.033220
      772.797500       0.032006
      772.917000       0.030279
      773.036500       0.029031
      773.156000       0.027945
      773.275600       0.027022
      773.395200       0.026192
      773.514800       0.025538
      773.634600       0.024909
      773.754300       0.024330
      773.874000       0.023724
      773.993800       0.023100
      774.113600       0.021907
      774.233500       0.020874
      774.353500       0.019508
      774.473400       0.017965
      774.593300       0.016305
      774.713400       0.014708
      774.833400       0.013263
      774.953500       0.012224
      775.073600       0.011630
      775.193800       0.011318
      775.314000       0.010211
      775.434300       0.010509
      775.554500       0.010826
      775.674800       0.011016
      775.795200       0.011125
      775.915600       0.010892
      776.036000       0.010562
      776.156500       0.010046
      776.277000       0.009545
      776.397500       0.009044
      776.518100       0.008972
      776.638700       0.008954
      776.759400       0.009312
      776.880100       0.009853
      777.000800       0.010486
      777.121500       0.010878
      777.242300       0.011036
      777.363200       0.010759
      777.484000       0.010132
      777.605000       0.009347
      777.726000       0.008586
      777.846900       0.007754
      777.968000       0.007039
      778.089000       0.006629
      778.210100       0.006373
      778.331300       0.006599
      778.452500       0.007111
      778.573700       0.007997
      778.694900       0.009456
      778.816200       0.011139
      778.937500       0.013457
      779.058900       0.015481
      779.180300       0.017385
      779.301800       0.018511
      779.423200       0.019228
      779.544700       0.018861
      779.666300       0.017934
      779.787900       0.016541
      779.909500       0.014844
      780.031300       0.013176
      780.152900       0.011877
      780.274700       0.010670
      780.396400       0.009660
      780.518200       0.008858
      780.640100       0.008082
      780.762000       0.007346
      780.884000       0.006770
      781.005900       0.006291
      781.127900       0.006288
      781.250000       0.006530
