19,   19, MVIRI VIS channel from srf_MET4_1991303_1991304_1801-Release_S10EL_10.dat
Number of data points:
752
Wavenumber (cm-1)   Filter response
     8745.080900       0.000000
     8752.735200       0.000000
     8760.403000       0.000001
     8768.084200       0.000059
     8775.778900       0.000199
     8783.487000       0.000420
     8791.208800       0.000718
     8798.944100       0.001092
     8806.693100       0.001538
     8814.455700       0.002056
     8822.232000       0.002643
     8830.022100       0.003297
     8837.825900       0.004015
     8845.643500       0.004796
     8853.475000       0.005639
     8861.320300       0.006540
     8869.179600       0.007498
     8877.052800       0.008512
     8884.940000       0.009581
     8892.841300       0.010701
     8900.756600       0.011872
     8908.686000       0.013092
     8916.629500       0.014360
     8924.587200       0.015675
     8932.559200       0.017034
     8940.545400       0.018437
     8948.545900       0.019883
     8956.560700       0.021369
     8964.589900       0.022896
     8972.633500       0.024461
     8980.691500       0.026064
     8988.764000       0.027703
     8996.851100       0.029379
     9004.952700       0.031089
     9013.068900       0.032832
     9021.199800       0.034608
     9029.345400       0.036416
     9037.505600       0.038255
     9045.680700       0.040125
     9053.870500       0.042024
     9062.075200       0.043951
     9070.294800       0.045907
     9078.529300       0.047890
     9086.778700       0.049899
     9095.043200       0.051935
     9103.322700       0.053995
     9111.617300       0.056081
     9119.927000       0.058191
     9128.251900       0.060325
     9136.592100       0.062482
     9144.947400       0.064662
     9153.318100       0.066864
     9161.704100       0.069088
     9170.105500       0.071334
     9178.522300       0.073601
     9186.954500       0.075889
     9195.402300       0.078197
     9203.865600       0.080525
     9212.344500       0.082873
     9220.839100       0.085241
     9229.349300       0.087627
     9237.875300       0.090034
     9246.417000       0.092458
     9254.974500       0.094901
     9263.547900       0.097363
     9272.137200       0.099842
     9280.742500       0.102340
     9289.363700       0.104855
     9298.000900       0.107388
     9306.654300       0.109939
     9315.323700       0.112507
     9324.009300       0.115092
     9332.711200       0.117695
     9341.429200       0.120314
     9350.163600       0.122950
     9358.914400       0.125604
     9367.681500       0.128274
     9376.465100       0.130961
     9385.265100       0.133664
     9394.081700       0.136384
     9402.914900       0.139121
     9411.764700       0.141875
     9420.631200       0.144645
     9429.514400       0.147431
     9438.414300       0.150234
     9447.331100       0.153053
     9456.264800       0.155890
     9465.215300       0.158742
     9474.182900       0.161611
     9483.167400       0.164497
     9492.169000       0.167399
     9501.187600       0.170317
     9510.223500       0.173252
     9519.276500       0.176204
     9528.346800       0.179172
     9537.434400       0.182157
     9546.539400       0.185159
     9555.661700       0.188177
     9564.801500       0.191211
     9573.958800       0.194263
     9583.133700       0.197331
     9592.326100       0.200416
     9601.536200       0.203518
     9610.764100       0.206636
     9620.009600       0.209771
     9629.273000       0.212923
     9638.554200       0.216092
     9647.853400       0.219278
     9657.170400       0.222480
     9666.505600       0.225700
     9675.858700       0.228937
     9685.230000       0.232190
     9694.619500       0.235460
     9704.027200       0.238748
     9713.453100       0.242052
     9722.897400       0.245373
     9732.360100       0.248711
     9741.841200       0.252066
     9751.340800       0.255438
     9760.859000       0.258827
     9770.395700       0.262233
     9779.951100       0.265656
     9789.525200       0.269096
     9799.118100       0.272552
     9808.729800       0.276025
     9818.360300       0.279516
     9828.009800       0.283022
     9837.678300       0.286546
     9847.365800       0.290086
     9857.072400       0.293643
     9866.798200       0.297216
     9876.543200       0.300806
     9886.307500       0.304412
     9896.091000       0.308035
     9905.894000       0.311673
     9915.716400       0.315329
     9925.558300       0.318999
     9935.419800       0.322687
     9945.300800       0.326390
     9955.201600       0.330108
     9965.122100       0.333843
     9975.062300       0.337593
     9985.022500       0.341359
     9995.002500       0.345140
    10005.002500       0.348936
    10015.022500       0.352747
    10025.062700       0.356573
    10035.122900       0.360414
    10045.203400       0.364269
    10055.304200       0.368140
    10065.425300       0.372024
    10075.566800       0.375922
    10085.728700       0.379835
    10095.911200       0.383761
    10106.114200       0.387701
    10116.337900       0.391655
    10126.582300       0.395621
    10136.847400       0.399601
    10147.133400       0.403593
    10157.440300       0.407598
    10167.768200       0.411616
    10178.117000       0.415645
    10188.487000       0.419687
    10198.878100       0.423740
    10209.290500       0.427805
    10219.724100       0.431881
    10230.179000       0.435968
    10240.655400       0.440066
    10251.153300       0.444174
    10261.672700       0.448292
    10272.213700       0.452421
    10282.776300       0.456559
    10293.360800       0.460706
    10303.967000       0.464863
    10314.595200       0.469028
    10325.245200       0.473201
    10335.917300       0.477384
    10346.611500       0.481574
    10357.327800       0.485771
    10368.066400       0.489976
    10378.827200       0.494187
    10389.610400       0.498406
    10400.416000       0.502631
    10411.244100       0.506861
    10422.094800       0.511098
    10432.968200       0.515339
    10443.864200       0.519586
    10454.783100       0.523838
    10465.724800       0.528093
    10476.689400       0.532353
    10487.677000       0.536616
    10498.687700       0.540882
    10509.721500       0.545151
    10520.778500       0.549423
    10531.858900       0.553696
    10542.962600       0.557972
    10554.089700       0.562249
    10565.240400       0.566527
    10576.414600       0.570805
    10587.612500       0.575083
    10598.834100       0.579362
    10610.079600       0.583640
    10621.348900       0.587916
    10632.642200       0.592192
    10643.959600       0.596466
    10655.301000       0.600737
    10666.666700       0.605006
    10678.056600       0.609272
    10689.470900       0.613534
    10700.909600       0.617793
    10712.372800       0.622047
    10723.860600       0.626297
    10735.373100       0.630542
    10746.910300       0.634781
    10758.472300       0.639015
    10770.059200       0.643242
    10781.671200       0.647462
    10793.308100       0.651675
    10804.970300       0.655881
    10816.657700       0.660078
    10828.370300       0.664267
    10840.108400       0.668447
    10851.871900       0.672618
    10863.661100       0.676780
    10875.475800       0.680931
    10887.316300       0.685071
    10899.182600       0.689201
    10911.074700       0.693319
    10922.992900       0.697425
    10934.937100       0.701519
    10946.907500       0.705600
    10958.904100       0.709668
    10970.927000       0.713723
    10982.976400       0.717763
    10995.052200       0.721789
    11007.154700       0.725800
    11019.283700       0.729796
    11031.439600       0.733776
    11043.622300       0.737740
    11055.832000       0.741688
    11068.068600       0.745618
    11080.332400       0.749531
    11092.623400       0.753427
    11104.941700       0.757304
    11117.287400       0.761162
    11129.660500       0.765001
    11142.061300       0.768822
    11154.489700       0.772622
    11166.945800       0.776401
    11179.429800       0.780160
    11191.941800       0.783898
    11204.481800       0.787615
    11217.049900       0.791309
    11229.646300       0.794982
    11242.270900       0.798631
    11254.924000       0.802258
    11267.605600       0.805861
    11280.315800       0.809440
    11293.054800       0.812995
    11305.822500       0.816525
    11318.619100       0.820031
    11331.444800       0.823511
    11344.299500       0.826965
    11357.183400       0.830393
    11370.096600       0.833795
    11383.039300       0.837170
    11396.011400       0.840517
    11409.013100       0.843837
    11422.044500       0.847130
    11435.105800       0.850394
    11448.196900       0.853629
    11461.318100       0.856836
    11474.469300       0.860013
    11487.650800       0.863161
    11500.862600       0.866279
    11514.104800       0.869366
    11527.377500       0.872424
    11540.680900       0.875450
    11554.015000       0.878445
    11567.380000       0.881409
    11580.775900       0.884341
    11594.202900       0.887241
    11607.661100       0.890108
    11621.150500       0.892943
    11634.671300       0.895746
    11648.223600       0.898515
    11661.807600       0.901250
    11675.423200       0.903952
    11689.070700       0.906620
    11702.750100       0.909254
    11716.461600       0.911853
    11730.205300       0.914418
    11743.981200       0.916947
    11757.789500       0.919442
    11771.630400       0.921901
    11785.503800       0.924324
    11799.410000       0.926712
    11813.349100       0.929064
    11827.321100       0.931380
    11841.326200       0.933659
    11855.364600       0.935901
    11869.436200       0.938107
    11883.541300       0.940275
    11897.680000       0.942407
    11911.852300       0.944501
    11926.058400       0.946558
    11940.298500       0.948577
    11954.572600       0.950558
    11968.880900       0.952502
    11983.223500       0.954407
    11997.600500       0.956274
    12012.012000       0.958103
    12026.458200       0.959894
    12040.939200       0.961645
    12055.455100       0.963358
    12070.006000       0.965033
    12084.592100       0.966669
    12099.213600       0.968265
    12113.870400       0.969823
    12128.562800       0.971341
    12143.290800       0.972821
    12158.054700       0.974261
    12172.854500       0.975661
    12187.690400       0.977023
    12202.562500       0.978345
    12217.471000       0.979628
    12232.415900       0.980871
    12247.397400       0.982075
    12262.415700       0.983239
    12277.470800       0.984364
    12292.563000       0.985450
    12307.692300       0.986496
    12322.858900       0.987502
    12338.062900       0.988469
    12353.304500       0.989397
    12368.583800       0.990285
    12383.900900       0.991133
    12399.256000       0.991943
    12414.649300       0.992713
    12430.080800       0.993444
    12445.550700       0.994136
    12461.059200       0.994788
    12476.606400       0.995402
    12492.192400       0.995977
    12507.817400       0.996513
    12523.481500       0.997010
    12539.185000       0.997468
    12554.927800       0.997888
    12570.710200       0.998270
    12586.532400       0.998613
    12602.394500       0.998918
    12618.296500       0.999185
    12634.238800       0.999414
    12650.221400       0.999605
    12666.244500       0.999759
    12682.308200       0.999875
    12698.412700       0.999954
    12714.558200       0.999995
    12730.744700       1.000000
    12746.972600       0.999968
    12763.241900       0.999899
    12779.552700       0.999794
    12795.905300       0.999653
    12812.299800       0.999476
    12828.736400       0.999263
    12845.215200       0.999014
    12861.736300       0.998730
    12878.300100       0.998411
    12894.906500       0.998057
    12911.555800       0.997669
    12928.248200       0.997246
    12944.983800       0.996789
    12961.762800       0.996298
    12978.585300       0.995773
    12995.451600       0.995215
    13012.361700       0.994624
    13029.316000       0.994000
    13046.314400       0.993344
    13063.357300       0.992655
    13080.444700       0.991934
    13097.576900       0.991182
    13114.754100       0.990398
    13131.976400       0.989584
    13149.243900       0.988738
    13166.556900       0.987862
    13183.915600       0.986956
    13201.320100       0.986021
    13218.770700       0.985055
    13236.267400       0.984061
    13253.810500       0.983038
    13271.400100       0.981987
    13289.036500       0.980907
    13306.719900       0.979800
    13324.450400       0.978665
    13342.228200       0.977504
    13360.053400       0.976315
    13377.926400       0.975101
    13395.847300       0.973861
    13413.816200       0.972595
    13431.833400       0.971304
    13449.899100       0.969988
    13468.013500       0.968648
    13486.176700       0.967283
    13504.388900       0.965896
    13522.650400       0.964485
    13540.961400       0.963051
    13559.322000       0.961595
    13577.732500       0.960117
    13596.193100       0.958617
    13614.703900       0.957096
    13633.265200       0.955555
    13651.877100       0.953993
    13670.540000       0.952411
    13689.253900       0.950810
    13708.019200       0.949189
    13726.836000       0.947550
    13745.704500       0.945893
    13764.624900       0.944218
    13783.597500       0.942526
    13802.622500       0.940816
    13821.700100       0.939091
    13840.830400       0.937349
    13860.013900       0.935591
    13879.250500       0.933819
    13898.540700       0.932032
    13917.884500       0.930230
    13937.282200       0.928415
    13956.734100       0.926586
    13976.240400       0.924745
    13995.801300       0.922890
    14015.417000       0.921024
    14035.087700       0.919146
    14054.813800       0.917258
    14074.595400       0.915358
    14094.432700       0.913448
    14114.326000       0.911529
    14134.275600       0.909600
    14154.281700       0.907662
    14174.344400       0.905716
    14194.464200       0.903762
    14214.641100       0.901800
    14234.875400       0.899831
    14255.167500       0.897855
    14275.517500       0.895874
    14295.925700       0.893886
    14316.392300       0.891894
    14336.917600       0.889896
    14357.501800       0.887894
    14378.145200       0.885889
    14398.848100       0.883879
    14419.610700       0.881867
    14440.433200       0.879852
    14461.316000       0.877835
    14482.259200       0.875816
    14503.263200       0.873795
    14524.328200       0.871774
    14545.454500       0.869753
    14566.642400       0.867731
    14587.892000       0.865710
    14609.203800       0.863689
    14630.577900       0.861670
    14652.014700       0.859653
    14673.514300       0.857638
    14695.077100       0.855625
    14716.703500       0.853615
    14738.393500       0.851608
    14760.147600       0.849605
    14781.966000       0.847607
    14803.849000       0.845612
    14825.796900       0.843623
    14847.809900       0.841639
    14869.888500       0.839661
    14892.032800       0.837689
    14914.243100       0.835723
    14936.519800       0.833765
    14958.863100       0.831813
    14981.273400       0.829869
    15003.750900       0.827933
    15026.296000       0.826006
    15048.909000       0.824087
    15071.590100       0.822177
    15094.339600       0.820276
    15117.158000       0.818385
    15140.045400       0.816505
    15163.002300       0.814634
    15186.028900       0.812775
    15209.125500       0.810926
    15232.292500       0.809088
    15255.530100       0.807263
    15278.838800       0.805449
    15302.218800       0.803648
    15325.670500       0.801859
    15349.194200       0.800083
    15372.790200       0.798320
    15396.458800       0.796571
    15420.200500       0.794835
    15444.015400       0.793113
    15467.904100       0.791405
    15491.866800       0.789712
    15515.903800       0.788033
    15540.015500       0.786370
    15564.202300       0.784721
    15588.464500       0.783088
    15612.802500       0.781471
    15637.216600       0.779869
    15661.707100       0.778284
    15686.274500       0.776714
    15710.919100       0.775161
    15735.641200       0.773625
    15760.441300       0.772106
    15785.319700       0.770603
    15810.276700       0.769117
    15835.312700       0.767649
    15860.428200       0.766198
    15885.623500       0.764765
    15910.899000       0.763349
    15936.255000       0.761951
    15961.691900       0.760571
    15987.210200       0.759209
    16012.810200       0.757865
    16038.492400       0.756540
    16064.257000       0.755233
    16090.104600       0.753944
    16116.035500       0.752673
    16142.050000       0.751421
    16168.148700       0.750187
    16194.332000       0.748972
    16220.600200       0.747776
    16246.953700       0.746598
    16273.393000       0.745439
    16299.918500       0.744299
    16326.530600       0.743177
    16353.229800       0.742074
    16380.016400       0.740989
    16406.890900       0.739923
    16433.853700       0.738875
    16460.905300       0.737846
    16488.046200       0.736836
    16515.276600       0.735844
    16542.597200       0.734870
    16570.008300       0.733914
    16597.510400       0.732977
    16625.103900       0.732057
    16652.789300       0.731156
    16680.567100       0.730272
    16708.437800       0.729406
    16736.401700       0.728557
    16764.459300       0.727726
    16792.611300       0.726912
    16820.857900       0.726115
    16849.199700       0.725335
    16877.637100       0.724572
    16906.170800       0.723825
    16934.801000       0.723094
    16963.528400       0.722379
    16992.353400       0.721681
    17021.276600       0.720997
    17050.298400       0.720330
    17079.419300       0.719677
    17108.639900       0.719039
    17137.960600       0.718416
    17167.382000       0.717807
    17196.904600       0.717212
    17226.528900       0.716631
    17256.255400       0.716063
    17286.084700       0.715508
    17316.017300       0.714967
    17346.053800       0.714437
    17376.194600       0.713920
    17406.440400       0.713414
    17436.791600       0.712919
    17467.248900       0.712436
    17497.812800       0.711963
    17528.483800       0.711500
    17559.262500       0.711048
    17590.149500       0.710604
    17621.145400       0.710170
    17652.250700       0.709744
    17683.466000       0.709326
    17714.791900       0.708916
    17746.228900       0.708513
    17777.777800       0.708117
    17809.439000       0.707727
    17841.213200       0.707342
    17873.101000       0.706963
    17905.103000       0.706589
    17937.219700       0.706219
    17969.451900       0.705853
    18001.800200       0.705491
    18034.265100       0.705131
    18066.847300       0.704773
    18099.547500       0.704416
    18132.366300       0.704061
    18165.304300       0.703707
    18198.362100       0.703352
    18231.540600       0.702996
    18264.840200       0.702640
    18298.261700       0.702281
    18331.805700       0.701921
    18365.472900       0.701557
    18399.264000       0.701189
    18433.179700       0.700818
    18467.220700       0.700441
    18501.387600       0.700059
    18535.681200       0.699671
    18570.102100       0.699276
    18604.651200       0.698873
    18639.329000       0.698462
    18674.136300       0.698043
    18709.073900       0.697614
    18744.142500       0.697175
    18779.342700       0.696725
    18814.675400       0.696264
    18850.141400       0.695790
    18885.741300       0.695304
    18921.475900       0.694804
    18957.346000       0.694290
    18993.352300       0.693760
    19029.495700       0.693215
    19065.776900       0.692654
