17,   17, MVIRI VIS channel from srf_MET7_1999258_1999259_1801-Release_S10EE_10.dat
Number of data points:
793
Wavenumber (cm-1)   Filter response
     8442.380800       0.000000
     8449.514200       0.000000
     8456.659600       0.000004
     8463.817200       0.000052
     8470.986900       0.000155
     8478.168700       0.000310
     8485.362700       0.000516
     8492.569000       0.000771
     8499.787500       0.001074
     8507.018300       0.001424
     8514.261400       0.001820
     8521.516800       0.002259
     8528.784600       0.002741
     8536.064900       0.003265
     8543.357500       0.003829
     8550.662700       0.004433
     8557.980300       0.005075
     8565.310500       0.005755
     8572.653200       0.006471
     8580.008600       0.007222
     8587.376600       0.008007
     8594.757200       0.008827
     8602.150500       0.009679
     8609.556600       0.010563
     8616.975400       0.011478
     8624.407100       0.012424
     8631.851500       0.013399
     8639.308900       0.014404
     8646.779100       0.015437
     8654.262200       0.016498
     8661.758300       0.017586
     8669.267400       0.018701
     8676.789600       0.019843
     8684.324800       0.021010
     8691.873100       0.022202
     8699.434500       0.023419
     8707.009100       0.024661
     8714.596900       0.025927
     8722.198000       0.027216
     8729.812300       0.028528
     8737.439900       0.029864
     8745.080900       0.031222
     8752.735200       0.032602
     8760.403000       0.034005
     8768.084200       0.035430
     8775.778900       0.036876
     8783.487000       0.038343
     8791.208800       0.039832
     8798.944100       0.041341
     8806.693100       0.042872
     8814.455700       0.044423
     8822.232000       0.045995
     8830.022100       0.047587
     8837.825900       0.049200
     8845.643500       0.050833
     8853.475000       0.052486
     8861.320300       0.054159
     8869.179600       0.055852
     8877.052800       0.057566
     8884.940000       0.059299
     8892.841300       0.061052
     8900.756600       0.062825
     8908.686000       0.064619
     8916.629500       0.066431
     8924.587200       0.068265
     8932.559200       0.070117
     8940.545400       0.071990
     8948.545900       0.073883
     8956.560700       0.075796
     8964.589900       0.077729
     8972.633500       0.079682
     8980.691500       0.081656
     8988.764000       0.083650
     8996.851100       0.085664
     9004.952700       0.087698
     9013.068900       0.089753
     9021.199800       0.091829
     9029.345400       0.093925
     9037.505600       0.096042
     9045.680700       0.098180
     9053.870500       0.100338
     9062.075200       0.102518
     9070.294800       0.104719
     9078.529300       0.106941
     9086.778700       0.109184
     9095.043200       0.111449
     9103.322700       0.113734
     9111.617300       0.116042
     9119.927000       0.118371
     9128.251900       0.120722
     9136.592100       0.123095
     9144.947400       0.125490
     9153.318100       0.127907
     9161.704100       0.130346
     9170.105500       0.132807
     9178.522300       0.135291
     9186.954500       0.137797
     9195.402300       0.140325
     9203.865600       0.142876
     9212.344500       0.145450
     9220.839100       0.148046
     9229.349300       0.150665
     9237.875300       0.153307
     9246.417000       0.155972
     9254.974500       0.158660
     9263.547900       0.161371
     9272.137200       0.164105
     9280.742500       0.166862
     9289.363700       0.169643
     9298.000900       0.172447
     9306.654300       0.175274
     9315.323700       0.178124
     9324.009300       0.180998
     9332.711200       0.183895
     9341.429200       0.186816
     9350.163600       0.189760
     9358.914400       0.192727
     9367.681500       0.195718
     9376.465100       0.198733
     9385.265100       0.201771
     9394.081700       0.204832
     9402.914900       0.207917
     9411.764700       0.211025
     9420.631200       0.214157
     9429.514400       0.217312
     9438.414300       0.220490
     9447.331100       0.223691
     9456.264800       0.226916
     9465.215300       0.230165
     9474.182900       0.233435
     9483.167400       0.236730
     9492.169000       0.240047
     9501.187600       0.243387
     9510.223500       0.246750
     9519.276500       0.250136
     9528.346800       0.253544
     9537.434400       0.256975
     9546.539400       0.260428
     9555.661700       0.263904
     9564.801500       0.267402
     9573.958800       0.270922
     9583.133700       0.274464
     9592.326100       0.278028
     9601.536200       0.281613
     9610.764100       0.285220
     9620.009600       0.288848
     9629.273000       0.292498
     9638.554200       0.296168
     9647.853400       0.299859
     9657.170400       0.303571
     9666.505600       0.307304
     9675.858700       0.311057
     9685.230000       0.314829
     9694.619500       0.318622
     9704.027200       0.322434
     9713.453100       0.326266
     9722.897400       0.330118
     9732.360100       0.333987
     9741.841200       0.337876
     9751.340800       0.341783
     9760.859000       0.345709
     9770.395700       0.349653
     9779.951100       0.353614
     9789.525200       0.357593
     9799.118100       0.361589
     9808.729800       0.365602
     9818.360300       0.369632
     9828.009800       0.373678
     9837.678300       0.377740
     9847.365800       0.381819
     9857.072400       0.385912
     9866.798200       0.390021
     9876.543200       0.394144
     9886.307500       0.398282
     9896.091000       0.402435
     9905.894000       0.406601
     9915.716400       0.410781
     9925.558300       0.414973
     9935.419800       0.419180
     9945.300800       0.423398
     9955.201600       0.427629
     9965.122100       0.431871
     9975.062300       0.436125
     9985.022500       0.440391
     9995.002500       0.444667
    10005.002500       0.448953
    10015.022500       0.453249
    10025.062700       0.457555
    10035.122900       0.461870
    10045.203400       0.466194
    10055.304200       0.470527
    10065.425300       0.474868
    10075.566800       0.479216
    10085.728700       0.483571
    10095.911200       0.487934
    10106.114200       0.492303
    10116.337900       0.496678
    10126.582300       0.501059
    10136.847400       0.505444
    10147.133400       0.509835
    10157.440300       0.514230
    10167.768200       0.518629
    10178.117000       0.523032
    10188.487000       0.527437
    10198.878100       0.531846
    10209.290500       0.536257
    10219.724100       0.540669
    10230.179000       0.545083
    10240.655400       0.549498
    10251.153300       0.553913
    10261.672700       0.558328
    10272.213700       0.562743
    10282.776300       0.567157
    10293.360800       0.571570
    10303.967000       0.575981
    10314.595200       0.580390
    10325.245200       0.584796
    10335.917300       0.589200
    10346.611500       0.593599
    10357.327800       0.597995
    10368.066400       0.602386
    10378.827200       0.606773
    10389.610400       0.611154
    10400.416000       0.615529
    10411.244100       0.619898
    10422.094800       0.624260
    10432.968200       0.628615
    10443.864200       0.632963
    10454.783100       0.637302
    10465.724800       0.641633
    10476.689400       0.645955
    10487.677000       0.650268
    10498.687700       0.654570
    10509.721500       0.658862
    10520.778500       0.663144
    10531.858900       0.667414
    10542.962600       0.671673
    10554.089700       0.675919
    10565.240400       0.680153
    10576.414600       0.684374
    10587.612500       0.688581
    10598.834100       0.692775
    10610.079600       0.696954
    10621.348900       0.701118
    10632.642200       0.705267
    10643.959600       0.709401
    10655.301000       0.713518
    10666.666700       0.717619
    10678.056600       0.721702
    10689.470900       0.725769
    10700.909600       0.729818
    10712.372800       0.733848
    10723.860600       0.737860
    10735.373100       0.741852
    10746.910300       0.745826
    10758.472300       0.749779
    10770.059200       0.753712
    10781.671200       0.757624
    10793.308100       0.761516
    10804.970300       0.765386
    10816.657700       0.769233
    10828.370300       0.773059
    10840.108400       0.776862
    10851.871900       0.780641
    10863.661100       0.784398
    10875.475800       0.788131
    10887.316300       0.791839
    10899.182600       0.795523
    10911.074700       0.799182
    10922.992900       0.802815
    10934.937100       0.806423
    10946.907500       0.810005
    10958.904100       0.813561
    10970.927000       0.817090
    10982.976400       0.820591
    10995.052200       0.824066
    11007.154700       0.827513
    11019.283700       0.830931
    11031.439600       0.834322
    11043.622300       0.837683
    11055.832000       0.841016
    11068.068600       0.844320
    11080.332400       0.847594
    11092.623400       0.850837
    11104.941700       0.854051
    11117.287400       0.857234
    11129.660500       0.860387
    11142.061300       0.863508
    11154.489700       0.866599
    11166.945800       0.869657
    11179.429800       0.872684
    11191.941800       0.875679
    11204.481800       0.878641
    11217.049900       0.881570
    11229.646300       0.884467
    11242.270900       0.887331
    11254.924000       0.890162
    11267.605600       0.892959
    11280.315800       0.895722
    11293.054800       0.898451
    11305.822500       0.901147
    11318.619100       0.903808
    11331.444800       0.906434
    11344.299500       0.909025
    11357.183400       0.911582
    11370.096600       0.914104
    11383.039300       0.916590
    11396.011400       0.919041
    11409.013100       0.921457
    11422.044500       0.923836
    11435.105800       0.926180
    11448.196900       0.928488
    11461.318100       0.930760
    11474.469300       0.932995
    11487.650800       0.935194
    11500.862600       0.937357
    11514.104800       0.939483
    11527.377500       0.941572
    11540.680900       0.943625
    11554.015000       0.945641
    11567.380000       0.947620
    11580.775900       0.949561
    11594.202900       0.951466
    11607.661100       0.953334
    11621.150500       0.955164
    11634.671300       0.956957
    11648.223600       0.958713
    11661.807600       0.960431
    11675.423200       0.962113
    11689.070700       0.963756
    11702.750100       0.965363
    11716.461600       0.966932
    11730.205300       0.968463
    11743.981200       0.969958
    11757.789500       0.971415
    11771.630400       0.972834
    11785.503800       0.974216
    11799.410000       0.975561
    11813.349100       0.976869
    11827.321100       0.978139
    11841.326200       0.979373
    11855.364600       0.980569
    11869.436200       0.981728
    11883.541300       0.982850
    11897.680000       0.983936
    11911.852300       0.984984
    11926.058400       0.985996
    11940.298500       0.986971
    11954.572600       0.987910
    11968.880900       0.988812
    11983.223500       0.989678
    11997.600500       0.990508
    12012.012000       0.991301
    12026.458200       0.992059
    12040.939200       0.992781
    12055.455100       0.993468
    12070.006000       0.994119
    12084.592100       0.994735
    12099.213600       0.995315
    12113.870400       0.995861
    12128.562800       0.996372
    12143.290800       0.996848
    12158.054700       0.997290
    12172.854500       0.997697
    12187.690400       0.998071
    12202.562500       0.998411
    12217.471000       0.998717
    12232.415900       0.998990
    12247.397400       0.999230
    12262.415700       0.999437
    12277.470800       0.999611
    12292.563000       0.999752
    12307.692300       0.999862
    12322.858900       0.999940
    12338.062900       0.999985
    12353.304500       1.000000
    12368.583800       0.999983
    12383.900900       0.999936
    12399.256000       0.999858
    12414.649300       0.999749
    12430.080800       0.999611
    12445.550700       0.999443
    12461.059200       0.999246
    12476.606400       0.999019
    12492.192400       0.998764
    12507.817400       0.998480
    12523.481500       0.998168
    12539.185000       0.997828
    12554.927800       0.997461
    12570.710200       0.997066
    12586.532400       0.996645
    12602.394500       0.996197
    12618.296500       0.995723
    12634.238800       0.995223
    12650.221400       0.994698
    12666.244500       0.994147
    12682.308200       0.993572
    12698.412700       0.992973
    12714.558200       0.992350
    12730.744700       0.991703
    12746.972600       0.991032
    12763.241900       0.990339
    12779.552700       0.989624
    12795.905300       0.988886
    12812.299800       0.988127
    12828.736400       0.987347
    12845.215200       0.986545
    12861.736300       0.985723
    12878.300100       0.984881
    12894.906500       0.984020
    12911.555800       0.983139
    12928.248200       0.982239
    12944.983800       0.981321
    12961.762800       0.980385
    12978.585300       0.979431
    12995.451600       0.978460
    13012.361700       0.977472
    13029.316000       0.976469
    13046.314400       0.975449
    13063.357300       0.974413
    13080.444700       0.973363
    13097.576900       0.972298
    13114.754100       0.971219
    13131.976400       0.970127
    13149.243900       0.969021
    13166.556900       0.967902
    13183.915600       0.966771
    13201.320100       0.965628
    13218.770700       0.964473
    13236.267400       0.963308
    13253.810500       0.962131
    13271.400100       0.960945
    13289.036500       0.959749
    13306.719900       0.958544
    13324.450400       0.957330
    13342.228200       0.956107
    13360.053400       0.954877
    13377.926400       0.953640
    13395.847300       0.952395
    13413.816200       0.951144
    13431.833400       0.949887
    13449.899100       0.948624
    13468.013500       0.947356
    13486.176700       0.946083
    13504.388900       0.944806
    13522.650400       0.943525
    13540.961400       0.942241
    13559.322000       0.940954
    13577.732500       0.939664
    13596.193100       0.938372
    13614.703900       0.937079
    13633.265200       0.935785
    13651.877100       0.934490
    13670.540000       0.933194
    13689.253900       0.931899
    13708.019200       0.930604
    13726.836000       0.929311
    13745.704500       0.928019
    13764.624900       0.926729
    13783.597500       0.925441
    13802.622500       0.924156
    13821.700100       0.922874
    13840.830400       0.921595
    13860.013900       0.920321
    13879.250500       0.919051
    13898.540700       0.917786
    13917.884500       0.916527
    13937.282200       0.915273
    13956.734100       0.914025
    13976.240400       0.912783
    13995.801300       0.911549
    14015.417000       0.910321
    14035.087700       0.909102
    14054.813800       0.907890
    14074.595400       0.906687
    14094.432700       0.905492
    14114.326000       0.904307
    14134.275600       0.903132
    14154.281700       0.901966
    14174.344400       0.900810
    14194.464200       0.899665
    14214.641100       0.898532
    14234.875400       0.897409
    14255.167500       0.896298
    14275.517500       0.895199
    14295.925700       0.894113
    14316.392300       0.893039
    14336.917600       0.891978
    14357.501800       0.890930
    14378.145200       0.889897
    14398.848100       0.888877
    14419.610700       0.887871
    14440.433200       0.886879
    14461.316000       0.885903
    14482.259200       0.884942
    14503.263200       0.883996
    14524.328200       0.883065
    14545.454500       0.882151
    14566.642400       0.881252
    14587.892000       0.880371
    14609.203800       0.879505
    14630.577900       0.878657
    14652.014700       0.877826
    14673.514300       0.877012
    14695.077100       0.876215
    14716.703500       0.875437
    14738.393500       0.874676
    14760.147600       0.873934
    14781.966000       0.873210
    14803.849000       0.872504
    14825.796900       0.871817
    14847.809900       0.871149
    14869.888500       0.870501
    14892.032800       0.869871
    14914.243100       0.869260
    14936.519800       0.868669
    14958.863100       0.868098
    14981.273400       0.867547
    15003.750900       0.867015
    15026.296000       0.866503
    15048.909000       0.866011
    15071.590100       0.865539
    15094.339600       0.865087
    15117.158000       0.864656
    15140.045400       0.864245
    15163.002300       0.863854
    15186.028900       0.863484
    15209.125500       0.863134
    15232.292500       0.862805
    15255.530100       0.862496
    15278.838800       0.862207
    15302.218800       0.861939
    15325.670500       0.861691
    15349.194200       0.861464
    15372.790200       0.861257
    15396.458800       0.861071
    15420.200500       0.860905
    15444.015400       0.860759
    15467.904100       0.860633
    15491.866800       0.860528
    15515.903800       0.860442
    15540.015500       0.860377
    15564.202300       0.860331
    15588.464500       0.860305
    15612.802500       0.860298
    15637.216600       0.860311
    15661.707100       0.860343
    15686.274500       0.860394
    15710.919100       0.860465
    15735.641200       0.860554
    15760.441300       0.860661
    15785.319700       0.860787
    15810.276700       0.860932
    15835.312700       0.861094
    15860.428200       0.861274
    15885.623500       0.861471
    15910.899000       0.861686
    15936.255000       0.861918
    15961.691900       0.862166
    15987.210200       0.862431
    16012.810200       0.862712
    16038.492400       0.863009
    16064.257000       0.863322
    16090.104600       0.863650
    16116.035500       0.863992
    16142.050000       0.864350
    16168.148700       0.864721
    16194.332000       0.865107
    16220.600200       0.865506
    16246.953700       0.865918
    16273.393000       0.866342
    16299.918500       0.866780
    16326.530600       0.867229
    16353.229800       0.867689
    16380.016400       0.868161
    16406.890900       0.868643
    16433.853700       0.869135
    16460.905300       0.869637
    16488.046200       0.870149
    16515.276600       0.870669
    16542.597200       0.871197
    16570.008300       0.871733
    16597.510400       0.872277
    16625.103900       0.872827
    16652.789300       0.873383
    16680.567100       0.873945
    16708.437800       0.874512
    16736.401700       0.875084
    16764.459300       0.875660
    16792.611300       0.876239
    16820.857900       0.876821
    16849.199700       0.877405
    16877.637100       0.877990
    16906.170800       0.878577
    16934.801000       0.879164
    16963.528400       0.879751
    16992.353400       0.880337
    17021.276600       0.880921
    17050.298400       0.881503
    17079.419300       0.882082
    17108.639900       0.882658
    17137.960600       0.883229
    17167.382000       0.883795
    17196.904600       0.884356
    17226.528900       0.884910
    17256.255400       0.885457
    17286.084700       0.885997
    17316.017300       0.886528
    17346.053800       0.887049
    17376.194600       0.887561
    17406.440400       0.888061
    17436.791600       0.888550
    17467.248900       0.889027
    17497.812800       0.889491
    17528.483800       0.889940
    17559.262500       0.890375
    17590.149500       0.890795
    17621.145400       0.891198
    17652.250700       0.891584
    17683.466000       0.891952
