11,   11, MVIRI VIS channel from srf_MET4_1990303_1990304_1801-Release_S10EL_10.dat
Number of data points:
752
Wavenumber (cm-1)   Filter response
     8745.080900       0.000000
     8752.735200       0.000000
     8760.403000       0.000001
     8768.084200       0.000058
     8775.778900       0.000198
     8783.487000       0.000417
     8791.208800       0.000713
     8798.944100       0.001084
     8806.693100       0.001528
     8814.455700       0.002042
     8822.232000       0.002625
     8830.022100       0.003274
     8837.825900       0.003988
     8845.643500       0.004764
     8853.475000       0.005601
     8861.320300       0.006496
     8869.179600       0.007448
     8877.052800       0.008456
     8884.940000       0.009517
     8892.841300       0.010630
     8900.756600       0.011793
     8908.686000       0.013006
     8916.629500       0.014266
     8924.587200       0.015572
     8932.559200       0.016922
     8940.545400       0.018316
     8948.545900       0.019753
     8956.560700       0.021230
     8964.589900       0.022747
     8972.633500       0.024302
     8980.691500       0.025895
     8988.764000       0.027525
     8996.851100       0.029190
     9004.952700       0.030889
     9013.068900       0.032622
     9021.199800       0.034387
     9029.345400       0.036185
     9037.505600       0.038012
     9045.680700       0.039871
     9053.870500       0.041758
     9062.075200       0.043674
     9070.294800       0.045618
     9078.529300       0.047589
     9086.778700       0.049587
     9095.043200       0.051611
     9103.322700       0.053660
     9111.617300       0.055733
     9119.927000       0.057831
     9128.251900       0.059953
     9136.592100       0.062098
     9144.947400       0.064265
     9153.318100       0.066455
     9161.704100       0.068667
     9170.105500       0.070900
     9178.522300       0.073155
     9186.954500       0.075429
     9195.402300       0.077725
     9203.865600       0.080041
     9212.344500       0.082376
     9220.839100       0.084731
     9229.349300       0.087105
     9237.875300       0.089498
     9246.417000       0.091910
     9254.974500       0.094340
     9263.547900       0.096789
     9272.137200       0.099255
     9280.742500       0.101740
     9289.363700       0.104242
     9298.000900       0.106762
     9306.654300       0.109300
     9315.323700       0.111855
     9324.009300       0.114427
     9332.711200       0.117017
     9341.429200       0.119623
     9350.163600       0.122246
     9358.914400       0.124887
     9367.681500       0.127544
     9376.465100       0.130218
     9385.265100       0.132908
     9394.081700       0.135615
     9402.914900       0.138339
     9411.764700       0.141079
     9420.631200       0.143837
     9429.514400       0.146610
     9438.414300       0.149400
     9447.331100       0.152206
     9456.264800       0.155029
     9465.215300       0.157869
     9474.182900       0.160725
     9483.167400       0.163598
     9492.169000       0.166487
     9501.187600       0.169392
     9510.223500       0.172315
     9519.276500       0.175253
     9528.346800       0.178209
     9537.434400       0.181181
     9546.539400       0.184169
     9555.661700       0.187175
     9564.801500       0.190197
     9573.958800       0.193235
     9583.133700       0.196291
     9592.326100       0.199363
     9601.536200       0.202452
     9610.764100       0.205558
     9620.009600       0.208680
     9629.273000       0.211820
     9638.554200       0.214976
     9647.853400       0.218149
     9657.170400       0.221339
     9666.505600       0.224547
     9675.858700       0.227771
     9685.230000       0.231012
     9694.619500       0.234270
     9704.027200       0.237545
     9713.453100       0.240837
     9722.897400       0.244146
     9732.360100       0.247471
     9741.841200       0.250814
     9751.340800       0.254174
     9760.859000       0.257551
     9770.395700       0.260945
     9779.951100       0.264356
     9789.525200       0.267784
     9799.118100       0.271228
     9808.729800       0.274690
     9818.360300       0.278168
     9828.009800       0.281663
     9837.678300       0.285175
     9847.365800       0.288703
     9857.072400       0.292248
     9866.798200       0.295810
     9876.543200       0.299388
     9886.307500       0.302983
     9896.091000       0.306595
     9905.894000       0.310222
     9915.716400       0.313866
     9925.558300       0.317526
     9935.419800       0.321202
     9945.300800       0.324894
     9955.201600       0.328602
     9965.122100       0.332325
     9975.062300       0.336064
     9985.022500       0.339819
     9995.002500       0.343590
    10005.002500       0.347375
    10015.022500       0.351176
    10025.062700       0.354992
    10035.122900       0.358822
    10045.203400       0.362667
    10055.304200       0.366528
    10065.425300       0.370402
    10075.566800       0.374290
    10085.728700       0.378193
    10095.911200       0.382110
    10106.114200       0.386040
    10116.337900       0.389984
    10126.582300       0.393941
    10136.847400       0.397911
    10147.133400       0.401894
    10157.440300       0.405890
    10167.768200       0.409898
    10178.117000       0.413919
    10188.487000       0.417952
    10198.878100       0.421997
    10209.290500       0.426053
    10219.724100       0.430120
    10230.179000       0.434199
    10240.655400       0.438288
    10251.153300       0.442388
    10261.672700       0.446499
    10272.213700       0.450619
    10282.776300       0.454749
    10293.360800       0.458889
    10303.967000       0.463038
    10314.595200       0.467196
    10325.245200       0.471363
    10335.917300       0.475538
    10346.611500       0.479721
    10357.327800       0.483911
    10368.066400       0.488109
    10378.827200       0.492315
    10389.610400       0.496527
    10400.416000       0.500745
    10411.244100       0.504970
    10422.094800       0.509200
    10432.968200       0.513436
    10443.864200       0.517678
    10454.783100       0.521924
    10465.724800       0.526174
    10476.689400       0.530428
    10487.677000       0.534687
    10498.687700       0.538948
    10509.721500       0.543213
    10520.778500       0.547480
    10531.858900       0.551749
    10542.962600       0.556021
    10554.089700       0.560294
    10565.240400       0.564568
    10576.414600       0.568842
    10587.612500       0.573117
    10598.834100       0.577393
    10610.079600       0.581667
    10621.348900       0.585941
    10632.642200       0.590214
    10643.959600       0.594486
    10655.301000       0.598755
    10666.666700       0.603021
    10678.056600       0.607285
    10689.470900       0.611546
    10700.909600       0.615803
    10712.372800       0.620057
    10723.860600       0.624305
    10735.373100       0.628549
    10746.910300       0.632788
    10758.472300       0.637021
    10770.059200       0.641247
    10781.671200       0.645467
    10793.308100       0.649681
    10804.970300       0.653887
    10816.657700       0.658085
    10828.370300       0.662274
    10840.108400       0.666456
    10851.871900       0.670628
    10863.661100       0.674790
    10875.475800       0.678943
    10887.316300       0.683085
    10899.182600       0.687217
    10911.074700       0.691337
    10922.992900       0.695446
    10934.937100       0.699542
    10946.907500       0.703626
    10958.904100       0.707697
    10970.927000       0.711755
    10982.976400       0.715799
    10995.052200       0.719829
    11007.154700       0.723844
    11019.283700       0.727844
    11031.439600       0.731829
    11043.622300       0.735798
    11055.832000       0.739750
    11068.068600       0.743685
    11080.332400       0.747604
    11092.623400       0.751505
    11104.941700       0.755388
    11117.287400       0.759252
    11129.660500       0.763098
    11142.061300       0.766924
    11154.489700       0.770731
    11166.945800       0.774517
    11179.429800       0.778283
    11191.941800       0.782029
    11204.481800       0.785753
    11217.049900       0.789455
    11229.646300       0.793135
    11242.270900       0.796793
    11254.924000       0.800428
    11267.605600       0.804040
    11280.315800       0.807628
    11293.054800       0.811192
    11305.822500       0.814732
    11318.619100       0.818247
    11331.444800       0.821736
    11344.299500       0.825201
    11357.183400       0.828639
    11370.096600       0.832051
    11383.039300       0.835437
    11396.011400       0.838795
    11409.013100       0.842126
    11422.044500       0.845430
    11435.105800       0.848706
    11448.196900       0.851953
    11461.318100       0.855171
    11474.469300       0.858361
    11487.650800       0.861521
    11500.862600       0.864651
    11514.104800       0.867752
    11527.377500       0.870822
    11540.680900       0.873861
    11554.015000       0.876870
    11567.380000       0.879847
    11580.775900       0.882793
    11594.202900       0.885707
    11607.661100       0.888589
    11621.150500       0.891439
    11634.671300       0.894255
    11648.223600       0.897039
    11661.807600       0.899790
    11675.423200       0.902507
    11689.070700       0.905190
    11702.750100       0.907839
    11716.461600       0.910454
    11730.205300       0.913035
    11743.981200       0.915581
    11757.789500       0.918092
    11771.630400       0.920567
    11785.503800       0.923008
    11799.410000       0.925412
    11813.349100       0.927781
    11827.321100       0.930114
    11841.326200       0.932410
    11855.364600       0.934670
    11869.436200       0.936894
    11883.541300       0.939080
    11897.680000       0.941230
    11911.852300       0.943342
    11926.058400       0.945417
    11940.298500       0.947455
    11954.572600       0.949455
    11968.880900       0.951417
    11983.223500       0.953342
    11997.600500       0.955228
    12012.012000       0.957076
    12026.458200       0.958886
    12040.939200       0.960657
    12055.455100       0.962390
    12070.006000       0.964085
    12084.592100       0.965740
    12099.213600       0.967357
    12113.870400       0.968935
    12128.562800       0.970473
    12143.290800       0.971973
    12158.054700       0.973434
    12172.854500       0.974856
    12187.690400       0.976238
    12202.562500       0.977581
    12217.471000       0.978885
    12232.415900       0.980150
    12247.397400       0.981375
    12262.415700       0.982560
    12277.470800       0.983707
    12292.563000       0.984814
    12307.692300       0.985882
    12322.858900       0.986910
    12338.062900       0.987899
    12353.304500       0.988848
    12368.583800       0.989758
    12383.900900       0.990629
    12399.256000       0.991461
    12414.649300       0.992254
    12430.080800       0.993007
    12445.550700       0.993721
    12461.059200       0.994396
    12476.606400       0.995033
    12492.192400       0.995630
    12507.817400       0.996189
    12523.481500       0.996709
    12539.185000       0.997190
    12554.927800       0.997633
    12570.710200       0.998037
    12586.532400       0.998404
    12602.394500       0.998732
    12618.296500       0.999022
    12634.238800       0.999274
    12650.221400       0.999488
    12666.244500       0.999665
    12682.308200       0.999805
    12698.412700       0.999907
    12714.558200       0.999972
    12730.744700       1.000000
    12746.972600       0.999991
    12763.241900       0.999946
    12779.552700       0.999865
    12795.905300       0.999747
    12812.299800       0.999593
    12828.736400       0.999403
    12845.215200       0.999178
    12861.736300       0.998918
    12878.300100       0.998622
    12894.906500       0.998292
    12911.555800       0.997927
    12928.248200       0.997527
    12944.983800       0.997094
    12961.762800       0.996626
    12978.585300       0.996125
    12995.451600       0.995591
    13012.361700       0.995023
    13029.316000       0.994423
    13046.314400       0.993789
    13063.357300       0.993124
    13080.444700       0.992427
    13097.576900       0.991698
    13114.754100       0.990938
    13131.976400       0.990146
    13149.243900       0.989324
    13166.556900       0.988471
    13183.915600       0.987589
    13201.320100       0.986676
    13218.770700       0.985734
    13236.267400       0.984763
    13253.810500       0.983763
    13271.400100       0.982734
    13289.036500       0.981678
    13306.719900       0.980593
    13324.450400       0.979482
    13342.228200       0.978343
    13360.053400       0.977177
    13377.926400       0.975986
    13395.847300       0.974768
    13413.816200       0.973524
    13431.833400       0.972256
    13449.899100       0.970962
    13468.013500       0.969645
    13486.176700       0.968303
    13504.388900       0.966937
    13522.650400       0.965548
    13540.961400       0.964137
    13559.322000       0.962703
    13577.732500       0.961247
    13596.193100       0.959769
    13614.703900       0.958270
    13633.265200       0.956750
    13651.877100       0.955210
    13670.540000       0.953649
    13689.253900       0.952069
    13708.019200       0.950471
    13726.836000       0.948853
    13745.704500       0.947217
    13764.624900       0.945563
    13783.597500       0.943892
    13802.622500       0.942204
    13821.700100       0.940499
    13840.830400       0.938778
    13860.013900       0.937041
    13879.250500       0.935289
    13898.540700       0.933523
    13917.884500       0.931742
    13937.282200       0.929947
    13956.734100       0.928138
    13976.240400       0.926317
    13995.801300       0.924483
    14015.417000       0.922637
    14035.087700       0.920779
    14054.813800       0.918910
    14074.595400       0.917030
    14094.432700       0.915140
    14114.326000       0.913240
    14134.275600       0.911331
    14154.281700       0.909412
    14174.344400       0.907485
    14194.464200       0.905550
    14214.641100       0.903608
    14234.875400       0.901658
    14255.167500       0.899701
    14275.517500       0.897739
    14295.925700       0.895770
    14316.392300       0.893796
    14336.917600       0.891817
    14357.501800       0.889834
    14378.145200       0.887846
    14398.848100       0.885855
    14419.610700       0.883861
    14440.433200       0.881864
    14461.316000       0.879865
    14482.259200       0.877864
    14503.263200       0.875862
    14524.328200       0.873859
    14545.454500       0.871855
    14566.642400       0.869851
    14587.892000       0.867847
    14609.203800       0.865844
    14630.577900       0.863843
    14652.014700       0.861843
    14673.514300       0.859845
    14695.077100       0.857849
    14716.703500       0.855856
    14738.393500       0.853867
    14760.147600       0.851881
    14781.966000       0.849899
    14803.849000       0.847922
    14825.796900       0.845949
    14847.809900       0.843982
    14869.888500       0.842021
    14892.032800       0.840065
    14914.243100       0.838116
    14936.519800       0.836174
    14958.863100       0.834239
    14981.273400       0.832311
    15003.750900       0.830391
    15026.296000       0.828480
    15048.909000       0.826577
    15071.590100       0.824684
    15094.339600       0.822799
    15117.158000       0.820924
    15140.045400       0.819059
    15163.002300       0.817205
    15186.028900       0.815361
    15209.125500       0.813529
    15232.292500       0.811707
    15255.530100       0.809897
    15278.838800       0.808099
    15302.218800       0.806314
    15325.670500       0.804540
    15349.194200       0.802780
    15372.790200       0.801033
    15396.458800       0.799299
    15420.200500       0.797579
    15444.015400       0.795872
    15467.904100       0.794180
    15491.866800       0.792503
    15515.903800       0.790840
    15540.015500       0.789191
    15564.202300       0.787558
    15588.464500       0.785941
    15612.802500       0.784339
    15637.216600       0.782753
    15661.707100       0.781183
    15686.274500       0.779629
    15710.919100       0.778091
    15735.641200       0.776570
    15760.441300       0.775066
    15785.319700       0.773579
    15810.276700       0.772109
    15835.312700       0.770656
    15860.428200       0.769221
    15885.623500       0.767803
    15910.899000       0.766403
    15936.255000       0.765020
    15961.691900       0.763656
    15987.210200       0.762310
    16012.810200       0.760981
    16038.492400       0.759671
    16064.257000       0.758379
    16090.104600       0.757106
    16116.035500       0.755851
    16142.050000       0.754615
    16168.148700       0.753397
    16194.332000       0.752198
    16220.600200       0.751017
    16246.953700       0.749855
    16273.393000       0.748712
    16299.918500       0.747588
    16326.530600       0.746482
    16353.229800       0.745395
    16380.016400       0.744326
    16406.890900       0.743276
    16433.853700       0.742245
    16460.905300       0.741232
    16488.046200       0.740238
    16515.276600       0.739262
    16542.597200       0.738304
    16570.008300       0.737365
    16597.510400       0.736444
    16625.103900       0.735541
    16652.789300       0.734656
    16680.567100       0.733789
    16708.437800       0.732940
    16736.401700       0.732108
    16764.459300       0.731293
    16792.611300       0.730496
    16820.857900       0.729716
    16849.199700       0.728953
    16877.637100       0.728206
    16906.170800       0.727477
    16934.801000       0.726763
    16963.528400       0.726066
    16992.353400       0.725384
    17021.276600       0.724719
    17050.298400       0.724068
    17079.419300       0.723433
    17108.639900       0.722813
    17137.960600       0.722207
    17167.382000       0.721616
    17196.904600       0.721039
    17226.528900       0.720475
    17256.255400       0.719925
    17286.084700       0.719389
    17316.017300       0.718865
    17346.053800       0.718353
    17376.194600       0.717854
    17406.440400       0.717366
    17436.791600       0.716890
    17467.248900       0.716425
    17497.812800       0.715970
    17528.483800       0.715526
    17559.262500       0.715092
    17590.149500       0.714667
    17621.145400       0.714251
    17652.250700       0.713843
    17683.466000       0.713444
    17714.791900       0.713052
    17746.228900       0.712668
    17777.777800       0.712291
    17809.439000       0.711919
    17841.213200       0.711554
    17873.101000       0.711194
    17905.103000       0.710839
    17937.219700       0.710488
    17969.451900       0.710141
    18001.800200       0.709797
    18034.265100       0.709455
    18066.847300       0.709117
    18099.547500       0.708779
    18132.366300       0.708443
    18165.304300       0.708107
    18198.362100       0.707772
    18231.540600       0.707435
    18264.840200       0.707098
    18298.261700       0.706758
    18331.805700       0.706416
    18365.472900       0.706071
    18399.264000       0.705723
    18433.179700       0.705370
    18467.220700       0.705012
    18501.387600       0.704649
    18535.681200       0.704279
    18570.102100       0.703903
    18604.651200       0.703519
    18639.329000       0.703127
    18674.136300       0.702726
    18709.073900       0.702316
    18744.142500       0.701895
    18779.342700       0.701464
    18814.675400       0.701021
    18850.141400       0.700565
    18885.741300       0.700097
    18921.475900       0.699615
    18957.346000       0.699119
    18993.352300       0.698607
    19029.495700       0.698080
    19065.776900       0.697536
