75,   75, MVIRI VIS channel from srf_MET5_2000213_2000214_1801-Release_S10EL_10.dat
Number of data points:
806
Wavenumber (cm-1)   Filter response
     8350.730700       0.000000
     8357.710000       0.000000
     8364.701000       0.000000
     8371.703600       0.000002
     8378.718100       0.000004
     8385.744200       0.000009
     8392.782200       0.000017
     8399.832000       0.000027
     8406.893700       0.000042
     8413.967200       0.000060
     8421.052600       0.000083
     8428.150000       0.000112
     8435.259400       0.000146
     8442.380800       0.000186
     8449.514200       0.000233
     8456.659600       0.000287
     8463.817200       0.000348
     8470.986900       0.000416
     8478.168700       0.000493
     8485.362700       0.000578
     8492.569000       0.000672
     8499.787500       0.000776
     8507.018300       0.000888
     8514.261400       0.001010
     8521.516800       0.001143
     8528.784600       0.001285
     8536.064900       0.001439
     8543.357500       0.001603
     8550.662700       0.001778
     8557.980300       0.001965
     8565.310500       0.002163
     8572.653200       0.002373
     8580.008600       0.002596
     8587.376600       0.002831
     8594.757200       0.003078
     8602.150500       0.003338
     8609.556600       0.003611
     8616.975400       0.003897
     8624.407100       0.004197
     8631.851500       0.004510
     8639.308900       0.004837
     8646.779100       0.005178
     8654.262200       0.005533
     8661.758300       0.005902
     8669.267400       0.006286
     8676.789600       0.006684
     8684.324800       0.007097
     8691.873100       0.007525
     8699.434500       0.007968
     8707.009100       0.008427
     8714.596900       0.008900
     8722.198000       0.009389
     8729.812300       0.009894
     8737.439900       0.010414
     8745.080900       0.010951
     8752.735200       0.011503
     8760.403000       0.012071
     8768.084200       0.012656
     8775.778900       0.013257
     8783.487000       0.013875
     8791.208800       0.014509
     8798.944100       0.015160
     8806.693100       0.015828
     8814.455700       0.016513
     8822.232000       0.017215
     8830.022100       0.017934
     8837.825900       0.018671
     8845.643500       0.019425
     8853.475000       0.020196
     8861.320300       0.020986
     8869.179600       0.021792
     8877.052800       0.022617
     8884.940000       0.023460
     8892.841300       0.024321
     8900.756600       0.025201
     8908.686000       0.026098
     8916.629500       0.027014
     8924.587200       0.027948
     8932.559200       0.028901
     8940.545400       0.029873
     8948.545900       0.030864
     8956.560700       0.031873
     8964.589900       0.032902
     8972.633500       0.033950
     8980.691500       0.035017
     8988.764000       0.036103
     8996.851100       0.037209
     9004.952700       0.038334
     9013.068900       0.039479
     9021.199800       0.040644
     9029.345400       0.041828
     9037.505600       0.043033
     9045.680700       0.044257
     9053.870500       0.045502
     9062.075200       0.046767
     9070.294800       0.048052
     9078.529300       0.049358
     9086.778700       0.050684
     9095.043200       0.052031
     9103.322700       0.053398
     9111.617300       0.054787
     9119.927000       0.056196
     9128.251900       0.057626
     9136.592100       0.059077
     9144.947400       0.060550
     9153.318100       0.062044
     9161.704100       0.063559
     9170.105500       0.065096
     9178.522300       0.066654
     9186.954500       0.068234
     9195.402300       0.069835
     9203.865600       0.071458
     9212.344500       0.073104
     9220.839100       0.074771
     9229.349300       0.076460
     9237.875300       0.078171
     9246.417000       0.079905
     9254.974500       0.081660
     9263.547900       0.083439
     9272.137200       0.085239
     9280.742500       0.087062
     9289.363700       0.088908
     9298.000900       0.090776
     9306.654300       0.092668
     9315.323700       0.094581
     9324.009300       0.096518
     9332.711200       0.098478
     9341.429200       0.100460
     9350.163600       0.102466
     9358.914400       0.104495
     9367.681500       0.106547
     9376.465100       0.108622
     9385.265100       0.110720
     9394.081700       0.112842
     9402.914900       0.114986
     9411.764700       0.117155
     9420.631200       0.119347
     9429.514400       0.121562
     9438.414300       0.123801
     9447.331100       0.126063
     9456.264800       0.128349
     9465.215300       0.130658
     9474.182900       0.132991
     9483.167400       0.135348
     9492.169000       0.137728
     9501.187600       0.140132
     9510.223500       0.142560
     9519.276500       0.145012
     9528.346800       0.147487
     9537.434400       0.149986
     9546.539400       0.152509
     9555.661700       0.155055
     9564.801500       0.157625
     9573.958800       0.160219
     9583.133700       0.162837
     9592.326100       0.165478
     9601.536200       0.168143
     9610.764100       0.170831
     9620.009600       0.173544
     9629.273000       0.176280
     9638.554200       0.179039
     9647.853400       0.181822
     9657.170400       0.184628
     9666.505600       0.187458
     9675.858700       0.190312
     9685.230000       0.193188
     9694.619500       0.196088
     9704.027200       0.199011
     9713.453100       0.201958
     9722.897400       0.204927
     9732.360100       0.207920
     9741.841200       0.210935
     9751.340800       0.213974
     9760.859000       0.217035
     9770.395700       0.220119
     9779.951100       0.223226
     9789.525200       0.226355
     9799.118100       0.229507
     9808.729800       0.232681
     9818.360300       0.235877
     9828.009800       0.239096
     9837.678300       0.242336
     9847.365800       0.245599
     9857.072400       0.248883
     9866.798200       0.252189
     9876.543200       0.255516
     9886.307500       0.258865
     9896.091000       0.262235
     9905.894000       0.265626
     9915.716400       0.269039
     9925.558300       0.272471
     9935.419800       0.275925
     9945.300800       0.279400
     9955.201600       0.282894
     9965.122100       0.286409
     9975.062300       0.289943
     9985.022500       0.293498
     9995.002500       0.297072
    10005.002500       0.300666
    10015.022500       0.304279
    10025.062700       0.307911
    10035.122900       0.311562
    10045.203400       0.315231
    10055.304200       0.318919
    10065.425300       0.322625
    10075.566800       0.326350
    10085.728700       0.330092
    10095.911200       0.333852
    10106.114200       0.337629
    10116.337900       0.341423
    10126.582300       0.345234
    10136.847400       0.349062
    10147.133400       0.352907
    10157.440300       0.356767
    10167.768200       0.360643
    10178.117000       0.364535
    10188.487000       0.368443
    10198.878100       0.372366
    10209.290500       0.376303
    10219.724100       0.380255
    10230.179000       0.384222
    10240.655400       0.388202
    10251.153300       0.392197
    10261.672700       0.396205
    10272.213700       0.400225
    10282.776300       0.404259
    10293.360800       0.408306
    10303.967000       0.412365
    10314.595200       0.416436
    10325.245200       0.420518
    10335.917300       0.424612
    10346.611500       0.428717
    10357.327800       0.432833
    10368.066400       0.436959
    10378.827200       0.441096
    10389.610400       0.445242
    10400.416000       0.449397
    10411.244100       0.453562
    10422.094800       0.457736
    10432.968200       0.461917
    10443.864200       0.466108
    10454.783100       0.470305
    10465.724800       0.474511
    10476.689400       0.478723
    10487.677000       0.482942
    10498.687700       0.487167
    10509.721500       0.491399
    10520.778500       0.495636
    10531.858900       0.499878
    10542.962600       0.504125
    10554.089700       0.508377
    10565.240400       0.512633
    10576.414600       0.516892
    10587.612500       0.521156
    10598.834100       0.525422
    10610.079600       0.529691
    10621.348900       0.533962
    10632.642200       0.538235
    10643.959600       0.542509
    10655.301000       0.546785
    10666.666700       0.551061
    10678.056600       0.555338
    10689.470900       0.559615
    10700.909600       0.563891
    10712.372800       0.568166
    10723.860600       0.572441
    10735.373100       0.576713
    10746.910300       0.580984
    10758.472300       0.585252
    10770.059200       0.589517
    10781.671200       0.593779
    10793.308100       0.598038
    10804.970300       0.602293
    10816.657700       0.606543
    10828.370300       0.610788
    10840.108400       0.615028
    10851.871900       0.619262
    10863.661100       0.623491
    10875.475800       0.627713
    10887.316300       0.631928
    10899.182600       0.636136
    10911.074700       0.640336
    10922.992900       0.644528
    10934.937100       0.648712
    10946.907500       0.652887
    10958.904100       0.657052
    10970.927000       0.661208
    10982.976400       0.665354
    10995.052200       0.669489
    11007.154700       0.673614
    11019.283700       0.677727
    11031.439600       0.681828
    11043.622300       0.685917
    11055.832000       0.689994
    11068.068600       0.694058
    11080.332400       0.698109
    11092.623400       0.702146
    11104.941700       0.706168
    11117.287400       0.710177
    11129.660500       0.714170
    11142.061300       0.718148
    11154.489700       0.722111
    11166.945800       0.726057
    11179.429800       0.729987
    11191.941800       0.733900
    11204.481800       0.737796
    11217.049900       0.741675
    11229.646300       0.745535
    11242.270900       0.749377
    11254.924000       0.753201
    11267.605600       0.757005
    11280.315800       0.760790
    11293.054800       0.764555
    11305.822500       0.768299
    11318.619100       0.772024
    11331.444800       0.775727
    11344.299500       0.779409
    11357.183400       0.783069
    11370.096600       0.786708
    11383.039300       0.790324
    11396.011400       0.793917
    11409.013100       0.797487
    11422.044500       0.801034
    11435.105800       0.804558
    11448.196900       0.808057
    11461.318100       0.811532
    11474.469300       0.814982
    11487.650800       0.818407
    11500.862600       0.821807
    11514.104800       0.825181
    11527.377500       0.828530
    11540.680900       0.831851
    11554.015000       0.835147
    11567.380000       0.838415
    11580.775900       0.841657
    11594.202900       0.844871
    11607.661100       0.848057
    11621.150500       0.851215
    11634.671300       0.854345
    11648.223600       0.857446
    11661.807600       0.860518
    11675.423200       0.863561
    11689.070700       0.866575
    11702.750100       0.869559
    11716.461600       0.872513
    11730.205300       0.875437
    11743.981200       0.878331
    11757.789500       0.881194
    11771.630400       0.884026
    11785.503800       0.886827
    11799.410000       0.889597
    11813.349100       0.892335
    11827.321100       0.895041
    11841.326200       0.897716
    11855.364600       0.900358
    11869.436200       0.902968
    11883.541300       0.905545
    11897.680000       0.908090
    11911.852300       0.910601
    11926.058400       0.913080
    11940.298500       0.915525
    11954.572600       0.917937
    11968.880900       0.920315
    11983.223500       0.922659
    11997.600500       0.924969
    12012.012000       0.927246
    12026.458200       0.929488
    12040.939200       0.931695
    12055.455100       0.933869
    12070.006000       0.936008
    12084.592100       0.938112
    12099.213600       0.940181
    12113.870400       0.942215
    12128.562800       0.944214
    12143.290800       0.946178
    12158.054700       0.948107
    12172.854500       0.950001
    12187.690400       0.951859
    12202.562500       0.953682
    12217.471000       0.955469
    12232.415900       0.957221
    12247.397400       0.958937
    12262.415700       0.960617
    12277.470800       0.962262
    12292.563000       0.963871
    12307.692300       0.965445
    12322.858900       0.966982
    12338.062900       0.968484
    12353.304500       0.969950
    12368.583800       0.971380
    12383.900900       0.972775
    12399.256000       0.974133
    12414.649300       0.975456
    12430.080800       0.976743
    12445.550700       0.977995
    12461.059200       0.979210
    12476.606400       0.980390
    12492.192400       0.981535
    12507.817400       0.982644
    12523.481500       0.983717
    12539.185000       0.984755
    12554.927800       0.985758
    12570.710200       0.986725
    12586.532400       0.987658
    12602.394500       0.988555
    12618.296500       0.989417
    12634.238800       0.990244
    12650.221400       0.991037
    12666.244500       0.991794
    12682.308200       0.992518
    12698.412700       0.993206
    12714.558200       0.993861
    12730.744700       0.994481
    12746.972600       0.995067
    12763.241900       0.995620
    12779.552700       0.996138
    12795.905300       0.996624
    12812.299800       0.997075
    12828.736400       0.997494
    12845.215200       0.997879
    12861.736300       0.998232
    12878.300100       0.998552
    12894.906500       0.998839
    12911.555800       0.999094
    12928.248200       0.999318
    12944.983800       0.999509
    12961.762800       0.999668
    12978.585300       0.999797
    12995.451600       0.999894
    13012.361700       0.999960
    13029.316000       0.999995
    13046.314400       1.000000
    13063.357300       0.999975
    13080.444700       0.999919
    13097.576900       0.999834
    13114.754100       0.999720
    13131.976400       0.999576
    13149.243900       0.999404
    13166.556900       0.999202
    13183.915600       0.998973
    13201.320100       0.998715
    13218.770700       0.998430
    13236.267400       0.998117
    13253.810500       0.997777
    13271.400100       0.997410
    13289.036500       0.997017
    13306.719900       0.996597
    13324.450400       0.996151
    13342.228200       0.995680
    13360.053400       0.995184
    13377.926400       0.994662
    13395.847300       0.994116
    13413.816200       0.993546
    13431.833400       0.992952
    13449.899100       0.992334
    13468.013500       0.991693
    13486.176700       0.991029
    13504.388900       0.990343
    13522.650400       0.989635
    13540.961400       0.988904
    13559.322000       0.988153
    13577.732500       0.987380
    13596.193100       0.986586
    13614.703900       0.985773
    13633.265200       0.984939
    13651.877100       0.984086
    13670.540000       0.983214
    13689.253900       0.982322
    13708.019200       0.981413
    13726.836000       0.980486
    13745.704500       0.979541
    13764.624900       0.978578
    13783.597500       0.977599
    13802.622500       0.976604
    13821.700100       0.975592
    13840.830400       0.974565
    13860.013900       0.973523
    13879.250500       0.972466
    13898.540700       0.971395
    13917.884500       0.970309
    13937.282200       0.969211
    13956.734100       0.968099
    13976.240400       0.966974
    13995.801300       0.965837
    14015.417000       0.964688
    14035.087700       0.963528
    14054.813800       0.962356
    14074.595400       0.961174
    14094.432700       0.959982
    14114.326000       0.958780
    14134.275600       0.957569
    14154.281700       0.956348
    14174.344400       0.955120
    14194.464200       0.953883
    14214.641100       0.952638
    14234.875400       0.951386
    14255.167500       0.950127
    14275.517500       0.948862
    14295.925700       0.947591
    14316.392300       0.946314
    14336.917600       0.945032
    14357.501800       0.943745
    14378.145200       0.942454
    14398.848100       0.941159
    14419.610700       0.939860
    14440.433200       0.938558
    14461.316000       0.937253
    14482.259200       0.935947
    14503.263200       0.934638
    14524.328200       0.933328
    14545.454500       0.932016
    14566.642400       0.930704
    14587.892000       0.929392
    14609.203800       0.928079
    14630.577900       0.926767
    14652.014700       0.925456
    14673.514300       0.924147
    14695.077100       0.922838
    14716.703500       0.921532
    14738.393500       0.920229
    14760.147600       0.918928
    14781.966000       0.917630
    14803.849000       0.916335
    14825.796900       0.915045
    14847.809900       0.913758
    14869.888500       0.912477
    14892.032800       0.911200
    14914.243100       0.909928
    14936.519800       0.908662
    14958.863100       0.907402
    14981.273400       0.906148
    15003.750900       0.904901
    15026.296000       0.903661
    15048.909000       0.902428
    15071.590100       0.901203
    15094.339600       0.899985
    15117.158000       0.898776
    15140.045400       0.897575
    15163.002300       0.896383
    15186.028900       0.895200
    15209.125500       0.894026
    15232.292500       0.892862
    15255.530100       0.891708
    15278.838800       0.890564
    15302.218800       0.889431
    15325.670500       0.888308
    15349.194200       0.887196
    15372.790200       0.886095
    15396.458800       0.885006
    15420.200500       0.883928
    15444.015400       0.882862
    15467.904100       0.881808
    15491.866800       0.880767
    15515.903800       0.879737
    15540.015500       0.878721
    15564.202300       0.877717
    15588.464500       0.876727
    15612.802500       0.875750
    15637.216600       0.874786
    15661.707100       0.873835
    15686.274500       0.872899
    15710.919100       0.871976
    15735.641200       0.871067
    15760.441300       0.870172
    15785.319700       0.869291
    15810.276700       0.868425
    15835.312700       0.867573
    15860.428200       0.866735
    15885.623500       0.865912
    15910.899000       0.865104
    15936.255000       0.864310
    15961.691900       0.863532
    15987.210200       0.862768
    16012.810200       0.862019
    16038.492400       0.861285
    16064.257000       0.860565
    16090.104600       0.859861
    16116.035500       0.859172
    16142.050000       0.858498
    16168.148700       0.857838
    16194.332000       0.857194
    16220.600200       0.856564
    16246.953700       0.855949
    16273.393000       0.855349
    16299.918500       0.854764
    16326.530600       0.854194
    16353.229800       0.853638
    16380.016400       0.853096
    16406.890900       0.852569
    16433.853700       0.852056
    16460.905300       0.851558
    16488.046200       0.851073
    16515.276600       0.850602
    16542.597200       0.850145
    16570.008300       0.849702
    16597.510400       0.849272
    16625.103900       0.848856
    16652.789300       0.848452
    16680.567100       0.848061
    16708.437800       0.847683
    16736.401700       0.847318
    16764.459300       0.846964
    16792.611300       0.846623
    16820.857900       0.846293
    16849.199700       0.845975
    16877.637100       0.845667
    16906.170800       0.845371
    16934.801000       0.845086
    16963.528400       0.844810
    16992.353400       0.844545
    17021.276600       0.844289
    17050.298400       0.844043
    17079.419300       0.843806
    17108.639900       0.843577
    17137.960600       0.843357
    17167.382000       0.843144
    17196.904600       0.842940
    17226.528900       0.842742
    17256.255400       0.842551
    17286.084700       0.842366
