16,   16, MVIRI VIS channel from srf_MET5_1993078_1993079_1801-Release_S10EL_10.dat
Number of data points:
806
Wavenumber (cm-1)   Filter response
     8350.730700       0.000000
     8357.710000       0.000000
     8364.701000       0.000000
     8371.703600       0.000001
     8378.718100       0.000004
     8385.744200       0.000009
     8392.782200       0.000016
     8399.832000       0.000026
     8406.893700       0.000040
     8413.967200       0.000058
     8421.052600       0.000080
     8428.150000       0.000108
     8435.259400       0.000141
     8442.380800       0.000180
     8449.514200       0.000225
     8456.659600       0.000276
     8463.817200       0.000335
     8470.986900       0.000401
     8478.168700       0.000475
     8485.362700       0.000557
     8492.569000       0.000648
     8499.787500       0.000747
     8507.018300       0.000856
     8514.261400       0.000974
     8521.516800       0.001101
     8528.784600       0.001239
     8536.064900       0.001387
     8543.357500       0.001545
     8550.662700       0.001714
     8557.980300       0.001894
     8565.310500       0.002086
     8572.653200       0.002288
     8580.008600       0.002503
     8587.376600       0.002730
     8594.757200       0.002968
     8602.150500       0.003219
     8609.556600       0.003483
     8616.975400       0.003759
     8624.407100       0.004048
     8631.851500       0.004351
     8639.308900       0.004667
     8646.779100       0.004996
     8654.262200       0.005339
     8661.758300       0.005695
     8669.267400       0.006066
     8676.789600       0.006451
     8684.324800       0.006850
     8691.873100       0.007263
     8699.434500       0.007691
     8707.009100       0.008134
     8714.596900       0.008592
     8722.198000       0.009064
     8729.812300       0.009552
     8737.439900       0.010055
     8745.080900       0.010573
     8752.735200       0.011107
     8760.403000       0.011657
     8768.084200       0.012223
     8775.778900       0.012804
     8783.487000       0.013401
     8791.208800       0.014015
     8798.944100       0.014644
     8806.693100       0.015291
     8814.455700       0.015953
     8822.232000       0.016633
     8830.022100       0.017329
     8837.825900       0.018041
     8845.643500       0.018771
     8853.475000       0.019518
     8861.320300       0.020282
     8869.179600       0.021063
     8877.052800       0.021862
     8884.940000       0.022678
     8892.841300       0.023512
     8900.756600       0.024364
     8908.686000       0.025233
     8916.629500       0.026120
     8924.587200       0.027026
     8932.559200       0.027949
     8940.545400       0.028891
     8948.545900       0.029851
     8956.560700       0.030829
     8964.589900       0.031826
     8972.633500       0.032842
     8980.691500       0.033876
     8988.764000       0.034930
     8996.851100       0.036002
     9004.952700       0.037093
     9013.068900       0.038203
     9021.199800       0.039333
     9029.345400       0.040482
     9037.505600       0.041651
     9045.680700       0.042839
     9053.870500       0.044046
     9062.075200       0.045274
     9070.294800       0.046521
     9078.529300       0.047789
     9086.778700       0.049076
     9095.043200       0.050384
     9103.322700       0.051711
     9111.617300       0.053060
     9119.927000       0.054428
     9128.251900       0.055817
     9136.592100       0.057227
     9144.947400       0.058657
     9153.318100       0.060109
     9161.704100       0.061581
     9170.105500       0.063074
     9178.522300       0.064588
     9186.954500       0.066124
     9195.402300       0.067680
     9203.865600       0.069258
     9212.344500       0.070858
     9220.839100       0.072479
     9229.349300       0.074121
     9237.875300       0.075786
     9246.417000       0.077472
     9254.974500       0.079180
     9263.547900       0.080910
     9272.137200       0.082662
     9280.742500       0.084436
     9289.363700       0.086232
     9298.000900       0.088050
     9306.654300       0.089891
     9315.323700       0.091754
     9324.009300       0.093640
     9332.711200       0.095548
     9341.429200       0.097478
     9350.163600       0.099432
     9358.914400       0.101407
     9367.681500       0.103406
     9376.465100       0.105428
     9385.265100       0.107472
     9394.081700       0.109540
     9402.914900       0.111630
     9411.764700       0.113743
     9420.631200       0.115880
     9429.514400       0.118039
     9438.414300       0.120222
     9447.331100       0.122428
     9456.264800       0.124657
     9465.215300       0.126910
     9474.182900       0.129185
     9483.167400       0.131484
     9492.169000       0.133807
     9501.187600       0.136153
     9510.223500       0.138522
     9519.276500       0.140914
     9528.346800       0.143331
     9537.434400       0.145770
     9546.539400       0.148233
     9555.661700       0.150719
     9564.801500       0.153229
     9573.958800       0.155763
     9583.133700       0.158319
     9592.326100       0.160900
     9601.536200       0.163503
     9610.764100       0.166130
     9620.009600       0.168781
     9629.273000       0.171455
     9638.554200       0.174152
     9647.853400       0.176873
     9657.170400       0.179616
     9666.505600       0.182384
     9675.858700       0.185174
     9685.230000       0.187988
     9694.619500       0.190824
     9704.027200       0.193684
     9713.453100       0.196567
     9722.897400       0.199473
     9732.360100       0.202402
     9741.841200       0.205354
     9751.340800       0.208328
     9760.859000       0.211325
     9770.395700       0.214345
     9779.951100       0.217387
     9789.525200       0.220452
     9799.118100       0.223540
     9808.729800       0.226649
     9818.360300       0.229781
     9828.009800       0.232935
     9837.678300       0.236111
     9847.365800       0.239309
     9857.072400       0.242528
     9866.798200       0.245770
     9876.543200       0.249032
     9886.307500       0.252317
     9896.091000       0.255622
     9905.894000       0.258949
     9915.716400       0.262297
     9925.558300       0.265665
     9935.419800       0.269055
     9945.300800       0.272465
     9955.201600       0.275895
     9965.122100       0.279346
     9975.062300       0.282816
     9985.022500       0.286307
     9995.002500       0.289818
    10005.002500       0.293348
    10015.022500       0.296898
    10025.062700       0.300466
    10035.122900       0.304054
    10045.203400       0.307661
    10055.304200       0.311287
    10065.425300       0.314931
    10075.566800       0.318593
    10085.728700       0.322273
    10095.911200       0.325971
    10106.114200       0.329687
    10116.337900       0.333420
    10126.582300       0.337171
    10136.847400       0.340938
    10147.133400       0.344722
    10157.440300       0.348523
    10167.768200       0.352340
    10178.117000       0.356173
    10188.487000       0.360021
    10198.878100       0.363886
    10209.290500       0.367765
    10219.724100       0.371660
    10230.179000       0.375569
    10240.655400       0.379493
    10251.153300       0.383431
    10261.672700       0.387382
    10272.213700       0.391348
    10282.776300       0.395327
    10293.360800       0.399319
    10303.967000       0.403324
    10314.595200       0.407341
    10325.245200       0.411371
    10335.917300       0.415412
    10346.611500       0.419465
    10357.327800       0.423530
    10368.066400       0.427605
    10378.827200       0.431691
    10389.610400       0.435788
    10400.416000       0.439894
    10411.244100       0.444010
    10422.094800       0.448136
    10432.968200       0.452271
    10443.864200       0.456415
    10454.783100       0.460566
    10465.724800       0.464726
    10476.689400       0.468894
    10487.677000       0.473070
    10498.687700       0.477252
    10509.721500       0.481441
    10520.778500       0.485636
    10531.858900       0.489837
    10542.962600       0.494044
    10554.089700       0.498257
    10565.240400       0.502474
    10576.414600       0.506696
    10587.612500       0.510922
    10598.834100       0.515152
    10610.079600       0.519385
    10621.348900       0.523621
    10632.642200       0.527861
    10643.959600       0.532102
    10655.301000       0.536346
    10666.666700       0.540591
    10678.056600       0.544837
    10689.470900       0.549085
    10700.909600       0.553333
    10712.372800       0.557580
    10723.860600       0.561828
    10735.373100       0.566075
    10746.910300       0.570321
    10758.472300       0.574565
    10770.059200       0.578807
    10781.671200       0.583047
    10793.308100       0.587285
    10804.970300       0.591520
    10816.657700       0.595751
    10828.370300       0.599978
    10840.108400       0.604201
    10851.871900       0.608419
    10863.661100       0.612633
    10875.475800       0.616841
    10887.316300       0.621043
    10899.182600       0.625239
    10911.074700       0.629429
    10922.992900       0.633611
    10934.937100       0.637786
    10946.907500       0.641953
    10958.904100       0.646112
    10970.927000       0.650263
    10982.976400       0.654404
    10995.052200       0.658537
    11007.154700       0.662659
    11019.283700       0.666771
    11031.439600       0.670873
    11043.622300       0.674963
    11055.832000       0.679042
    11068.068600       0.683110
    11080.332400       0.687165
    11092.623400       0.691208
    11104.941700       0.695238
    11117.287400       0.699254
    11129.660500       0.703257
    11142.061300       0.707246
    11154.489700       0.711220
    11166.945800       0.715179
    11179.429800       0.719123
    11191.941800       0.723052
    11204.481800       0.726964
    11217.049900       0.730860
    11229.646300       0.734739
    11242.270900       0.738601
    11254.924000       0.742446
    11267.605600       0.746273
    11280.315800       0.750081
    11293.054800       0.753871
    11305.822500       0.757642
    11318.619100       0.761393
    11331.444800       0.765125
    11344.299500       0.768837
    11357.183400       0.772528
    11370.096600       0.776199
    11383.039300       0.779848
    11396.011400       0.783476
    11409.013100       0.787082
    11422.044500       0.790666
    11435.105800       0.794227
    11448.196900       0.797766
    11461.318100       0.801281
    11474.469300       0.804773
    11487.650800       0.808241
    11500.862600       0.811685
    11514.104800       0.815105
    11527.377500       0.818500
    11540.680900       0.821869
    11554.015000       0.825214
    11567.380000       0.828533
    11580.775900       0.831825
    11594.202900       0.835092
    11607.661100       0.838332
    11621.150500       0.841545
    11634.671300       0.844731
    11648.223600       0.847889
    11661.807600       0.851020
    11675.423200       0.854123
    11689.070700       0.857197
    11702.750100       0.860243
    11716.461600       0.863261
    11730.205300       0.866249
    11743.981200       0.869208
    11757.789500       0.872138
    11771.630400       0.875038
    11785.503800       0.877907
    11799.410000       0.880747
    11813.349100       0.883557
    11827.321100       0.886335
    11841.326200       0.889083
    11855.364600       0.891799
    11869.436200       0.894485
    11883.541300       0.897139
    11897.680000       0.899761
    11911.852300       0.902351
    11926.058400       0.904910
    11940.298500       0.907436
    11954.572600       0.909930
    11968.880900       0.912391
    11983.223500       0.914819
    11997.600500       0.917215
    12012.012000       0.919577
    12026.458200       0.921906
    12040.939200       0.924202
    12055.455100       0.926465
    12070.006000       0.928693
    12084.592100       0.930888
    12099.213600       0.933050
    12113.870400       0.935177
    12128.562800       0.937270
    12143.290800       0.939329
    12158.054700       0.941354
    12172.854500       0.943344
    12187.690400       0.945300
    12202.562500       0.947221
    12217.471000       0.949108
    12232.415900       0.950960
    12247.397400       0.952778
    12262.415700       0.954560
    12277.470800       0.956308
    12292.563000       0.958021
    12307.692300       0.959699
    12322.858900       0.961341
    12338.062900       0.962949
    12353.304500       0.964522
    12368.583800       0.966060
    12383.900900       0.967563
    12399.256000       0.969031
    12414.649300       0.970464
    12430.080800       0.971862
    12445.550700       0.973225
    12461.059200       0.974553
    12476.606400       0.975846
    12492.192400       0.977104
    12507.817400       0.978327
    12523.481500       0.979516
    12539.185000       0.980669
    12554.927800       0.981788
    12570.710200       0.982873
    12586.532400       0.983922
    12602.394500       0.984938
    12618.296500       0.985919
    12634.238800       0.986865
    12650.221400       0.987777
    12666.244500       0.988656
    12682.308200       0.989500
    12698.412700       0.990310
    12714.558200       0.991087
    12730.744700       0.991829
    12746.972600       0.992539
    12763.241900       0.993215
    12779.552700       0.993857
    12795.905300       0.994467
    12812.299800       0.995044
    12828.736400       0.995587
    12845.215200       0.996099
    12861.736300       0.996577
    12878.300100       0.997024
    12894.906500       0.997438
    12911.555800       0.997821
    12928.248200       0.998172
    12944.983800       0.998491
    12961.762800       0.998779
    12978.585300       0.999036
    12995.451600       0.999262
    13012.361700       0.999458
    13029.316000       0.999623
    13046.314400       0.999758
    13063.357300       0.999863
    13080.444700       0.999938
    13097.576900       0.999983
    13114.754100       1.000000
    13131.976400       0.999988
    13149.243900       0.999946
    13166.556900       0.999877
    13183.915600       0.999779
    13201.320100       0.999654
    13218.770700       0.999500
    13236.267400       0.999320
    13253.810500       0.999112
    13271.400100       0.998878
    13289.036500       0.998618
    13306.719900       0.998331
    13324.450400       0.998018
    13342.228200       0.997680
    13360.053400       0.997317
    13377.926400       0.996929
    13395.847300       0.996517
    13413.816200       0.996080
    13431.833400       0.995619
    13449.899100       0.995135
    13468.013500       0.994628
    13486.176700       0.994098
    13504.388900       0.993545
    13522.650400       0.992970
    13540.961400       0.992374
    13559.322000       0.991756
    13577.732500       0.991117
    13596.193100       0.990457
    13614.703900       0.989777
    13633.265200       0.989077
    13651.877100       0.988358
    13670.540000       0.987619
    13689.253900       0.986862
    13708.019200       0.986086
    13726.836000       0.985292
    13745.704500       0.984480
    13764.624900       0.983651
    13783.597500       0.982805
    13802.622500       0.981943
    13821.700100       0.981065
    13840.830400       0.980171
    13860.013900       0.979261
    13879.250500       0.978337
    13898.540700       0.977399
    13917.884500       0.976446
    13937.282200       0.975480
    13956.734100       0.974500
    13976.240400       0.973508
    13995.801300       0.972503
    14015.417000       0.971486
    14035.087700       0.970458
    14054.813800       0.969418
    14074.595400       0.968368
    14094.432700       0.967307
    14114.326000       0.966236
    14134.275600       0.965156
    14154.281700       0.964067
    14174.344400       0.962969
    14194.464200       0.961863
    14214.641100       0.960749
    14234.875400       0.959628
    14255.167500       0.958499
    14275.517500       0.957364
    14295.925700       0.956223
    14316.392300       0.955076
    14336.917600       0.953924
    14357.501800       0.952767
    14378.145200       0.951606
    14398.848100       0.950440
    14419.610700       0.949271
    14440.433200       0.948098
    14461.316000       0.946923
    14482.259200       0.945745
    14503.263200       0.944565
    14524.328200       0.943383
    14545.454500       0.942201
    14566.642400       0.941017
    14587.892000       0.939833
    14609.203800       0.938649
    14630.577900       0.937465
    14652.014700       0.936283
    14673.514300       0.935101
    14695.077100       0.933921
    14716.703500       0.932742
    14738.393500       0.931566
    14760.147600       0.930393
    14781.966000       0.929223
    14803.849000       0.928056
    14825.796900       0.926893
    14847.809900       0.925734
    14869.888500       0.924580
    14892.032800       0.923430
    14914.243100       0.922286
    14936.519800       0.921147
    14958.863100       0.920015
    14981.273400       0.918888
    15003.750900       0.917768
    15026.296000       0.916656
    15048.909000       0.915550
    15071.590100       0.914452
    15094.339600       0.913362
    15117.158000       0.912280
    15140.045400       0.911206
    15163.002300       0.910142
    15186.028900       0.909086
    15209.125500       0.908040
    15232.292500       0.907004
    15255.530100       0.905978
    15278.838800       0.904962
    15302.218800       0.903956
    15325.670500       0.902961
    15349.194200       0.901977
    15372.790200       0.901005
    15396.458800       0.900044
    15420.200500       0.899095
    15444.015400       0.898158
    15467.904100       0.897233
    15491.866800       0.896321
    15515.903800       0.895421
    15540.015500       0.894534
    15564.202300       0.893660
    15588.464500       0.892799
    15612.802500       0.891952
    15637.216600       0.891119
    15661.707100       0.890299
    15686.274500       0.889493
    15710.919100       0.888701
    15735.641200       0.887924
    15760.441300       0.887160
    15785.319700       0.886412
    15810.276700       0.885677
    15835.312700       0.884958
    15860.428200       0.884253
    15885.623500       0.883564
    15910.899000       0.882889
    15936.255000       0.882229
    15961.691900       0.881585
    15987.210200       0.880955
    16012.810200       0.880341
    16038.492400       0.879742
    16064.257000       0.879159
    16090.104600       0.878591
    16116.035500       0.878038
    16142.050000       0.877501
    16168.148700       0.876979
    16194.332000       0.876472
    16220.600200       0.875980
    16246.953700       0.875504
    16273.393000       0.875043
    16299.918500       0.874598
    16326.530600       0.874167
    16353.229800       0.873751
    16380.016400       0.873351
    16406.890900       0.872965
    16433.853700       0.872594
    16460.905300       0.872238
    16488.046200       0.871896
    16515.276600       0.871569
    16542.597200       0.871256
    16570.008300       0.870957
    16597.510400       0.870671
    16625.103900       0.870400
    16652.789300       0.870142
    16680.567100       0.869898
    16708.437800       0.869667
    16736.401700       0.869448
    16764.459300       0.869243
    16792.611300       0.869050
    16820.857900       0.868869
    16849.199700       0.868700
    16877.637100       0.868543
    16906.170800       0.868397
    16934.801000       0.868263
    16963.528400       0.868139
    16992.353400       0.868026
    17021.276600       0.867923
    17050.298400       0.867829
    17079.419300       0.867746
    17108.639900       0.867671
    17137.960600       0.867605
    17167.382000       0.867548
    17196.904600       0.867499
    17226.528900       0.867457
    17256.255400       0.867422
    17286.084700       0.867394
