   2  ,noaa_10_hirs_02.flt
Number of data points:
85
Wavenumber (cm-1)   Filter response
      658.080000       0.000000
      661.470000       0.001606
      662.460000       0.003029
      663.380000       0.004045
      664.130000       0.005310
      664.850000       0.006574
      665.920000       0.008428
      666.680000       0.010951
      667.280000       0.016499
      667.920000       0.023552
      668.630000       0.035169
      669.150000       0.047536
      669.510000       0.060961
      669.870000       0.077228
      670.200000       0.091508
      670.430000       0.108150
      670.670000       0.126440
      671.050000       0.170200
      671.630000       0.227820
      671.910000       0.267010
      672.070000       0.293610
      672.220000       0.328320
      672.520000       0.373090
      672.790000       0.422360
      672.920000       0.457660
      673.160000       0.498340
      673.360000       0.524700
      673.530000       0.546740
      673.700000       0.572800
      673.930000       0.602430
      674.180000       0.630250
      674.380000       0.655050
      674.580000       0.677910
      674.820000       0.704710
      675.010000       0.724950
      675.390000       0.751560
      675.840000       0.778150
      676.370000       0.807130
      676.960000       0.834750
      677.490000       0.859180
      678.100000       0.886540
      678.620000       0.909010
      679.120000       0.926150
      679.590000       0.940230
      680.070000       0.954100
      680.820000       0.976110
      681.630000       0.990030
      682.220000       0.997540
      682.870000       1.000000
      683.350000       0.999190
      683.770000       0.992120
      684.100000       0.980890
      684.300000       0.968630
      684.500000       0.938560
      684.710000       0.913450
      685.000000       0.879690
      685.120000       0.853870
      685.280000       0.810250
      685.450000       0.769180
      685.640000       0.739290
      685.790000       0.709530
      685.880000       0.666590
      686.190000       0.607850
      686.440000       0.564940
      686.640000       0.504290
      686.920000       0.415050
      687.320000       0.341720
      687.630000       0.291580
      687.990000       0.235550
      688.490000       0.181270
      688.950000       0.138260
      689.390000       0.106000
      689.790000       0.083285
      690.460000       0.053288
      690.950000       0.042932
      692.020000       0.024715
      692.590000       0.021733
      693.270000       0.017686
      694.670000       0.019112
      695.610000       0.017941
      696.510000       0.013270
      697.390000       0.013136
      698.360000       0.011086
      699.460000       0.009415
      702.660000       0.000000
