27,   27, MVIRI VIS channel from srf_MET4_1992303_1992304_1801-Release_S10EL_10.dat
Number of data points:
752
Wavenumber (cm-1)   Filter response
     8745.080900       0.000000
     8752.735200       0.000000
     8760.403000       0.000001
     8768.084200       0.000059
     8775.778900       0.000200
     8783.487000       0.000422
     8791.208800       0.000723
     8798.944100       0.001099
     8806.693100       0.001549
     8814.455700       0.002070
     8822.232000       0.002661
     8830.022100       0.003319
     8837.825900       0.004042
     8845.643500       0.004829
     8853.475000       0.005677
     8861.320300       0.006584
     8869.179600       0.007549
     8877.052800       0.008570
     8884.940000       0.009645
     8892.841300       0.010772
     8900.756600       0.011951
     8908.686000       0.013179
     8916.629500       0.014455
     8924.587200       0.015778
     8932.559200       0.017146
     8940.545400       0.018558
     8948.545900       0.020013
     8956.560700       0.021509
     8964.589900       0.023045
     8972.633500       0.024620
     8980.691500       0.026233
     8988.764000       0.027883
     8996.851100       0.029568
     9004.952700       0.031289
     9013.068900       0.033043
     9021.199800       0.034830
     9029.345400       0.036649
     9037.505600       0.038499
     9045.680700       0.040380
     9053.870500       0.042290
     9062.075200       0.044229
     9070.294800       0.046196
     9078.529300       0.048191
     9086.778700       0.050212
     9095.043200       0.052260
     9103.322700       0.054332
     9111.617300       0.056430
     9119.927000       0.058552
     9128.251900       0.060698
     9136.592100       0.062868
     9144.947400       0.065060
     9153.318100       0.067275
     9161.704100       0.069511
     9170.105500       0.071769
     9178.522300       0.074049
     9186.954500       0.076349
     9195.402300       0.078670
     9203.865600       0.081011
     9212.344500       0.083372
     9220.839100       0.085752
     9229.349300       0.088152
     9237.875300       0.090571
     9246.417000       0.093008
     9254.974500       0.095464
     9263.547900       0.097939
     9272.137200       0.100431
     9280.742500       0.102942
     9289.363700       0.105470
     9298.000900       0.108016
     9306.654300       0.110580
     9315.323700       0.113161
     9324.009300       0.115759
     9332.711200       0.118374
     9341.429200       0.121007
     9350.163600       0.123656
     9358.914400       0.126322
     9367.681500       0.129006
     9376.465100       0.131706
     9385.265100       0.134422
     9394.081700       0.137155
     9402.914900       0.139905
     9411.764700       0.142672
     9420.631200       0.145455
     9429.514400       0.148254
     9438.414300       0.151070
     9447.331100       0.153902
     9456.264800       0.156752
     9465.215300       0.159617
     9474.182900       0.162499
     9483.167400       0.165398
     9492.169000       0.168312
     9501.187600       0.171244
     9510.223500       0.174192
     9519.276500       0.177156
     9528.346800       0.180138
     9537.434400       0.183135
     9546.539400       0.186149
     9555.661700       0.189180
     9564.801500       0.192228
     9573.958800       0.195292
     9583.133700       0.198373
     9592.326100       0.201470
     9601.536200       0.204585
     9610.764100       0.207716
     9620.009600       0.210864
     9629.273000       0.214029
     9638.554200       0.217210
     9647.853400       0.220408
     9657.170400       0.223623
     9666.505600       0.226855
     9675.858700       0.230104
     9685.230000       0.233370
     9694.619500       0.236653
     9704.027200       0.239952
     9713.453100       0.243269
     9722.897400       0.246602
     9732.360100       0.249953
     9741.841200       0.253320
     9751.340800       0.256704
     9760.859000       0.260105
     9770.395700       0.263523
     9779.951100       0.266958
     9789.525200       0.270409
     9799.118100       0.273878
     9808.729800       0.277363
     9818.360300       0.280865
     9828.009800       0.284383
     9837.678300       0.287918
     9847.365800       0.291470
     9857.072400       0.295038
     9866.798200       0.298623
     9876.543200       0.302224
     9886.307500       0.305842
     9896.091000       0.309476
     9905.894000       0.313126
     9915.716400       0.316792
     9925.558300       0.320474
     9935.419800       0.324172
     9945.300800       0.327887
     9955.201600       0.331616
     9965.122100       0.335361
     9975.062300       0.339122
     9985.022500       0.342898
     9995.002500       0.346690
    10005.002500       0.350497
    10015.022500       0.354318
    10025.062700       0.358155
    10035.122900       0.362006
    10045.203400       0.365871
    10055.304200       0.369752
    10065.425300       0.373646
    10075.566800       0.377554
    10085.728700       0.381477
    10095.911200       0.385413
    10106.114200       0.389362
    10116.337900       0.393325
    10126.582300       0.397301
    10136.847400       0.401290
    10147.133400       0.405292
    10157.440300       0.409306
    10167.768200       0.413332
    10178.117000       0.417371
    10188.487000       0.421421
    10198.878100       0.425483
    10209.290500       0.429557
    10219.724100       0.433641
    10230.179000       0.437736
    10240.655400       0.441842
    10251.153300       0.445958
    10261.672700       0.450085
    10272.213700       0.454221
    10282.776300       0.458366
    10293.360800       0.462521
    10303.967000       0.466685
    10314.595200       0.470858
    10325.245200       0.475039
    10335.917300       0.479228
    10346.611500       0.483424
    10357.327800       0.487629
    10368.066400       0.491840
    10378.827200       0.496058
    10389.610400       0.500283
    10400.416000       0.504514
    10411.244100       0.508750
    10422.094800       0.512992
    10432.968200       0.517240
    10443.864200       0.521492
    10454.783100       0.525749
    10465.724800       0.530009
    10476.689400       0.534274
    10487.677000       0.538542
    10498.687700       0.542813
    10509.721500       0.547087
    10520.778500       0.551363
    10531.858900       0.555640
    10542.962600       0.559920
    10554.089700       0.564201
    10565.240400       0.568482
    10576.414600       0.572764
    10587.612500       0.577045
    10598.834100       0.581327
    10610.079600       0.585608
    10621.348900       0.589887
    10632.642200       0.594165
    10643.959600       0.598441
    10655.301000       0.602715
    10666.666700       0.606986
    10678.056600       0.611253
    10689.470900       0.615517
    10700.909600       0.619777
    10712.372800       0.624033
    10723.860600       0.628284
    10735.373100       0.632529
    10746.910300       0.636769
    10758.472300       0.641003
    10770.059200       0.645230
    10781.671200       0.649450
    10793.308100       0.653663
    10804.970300       0.657868
    10816.657700       0.662065
    10828.370300       0.666253
    10840.108400       0.670433
    10851.871900       0.674602
    10863.661100       0.678762
    10875.475800       0.682911
    10887.316300       0.687050
    10899.182600       0.691177
    10911.074700       0.695293
    10922.992900       0.699397
    10934.937100       0.703488
    10946.907500       0.707566
    10958.904100       0.711631
    10970.927000       0.715682
    10982.976400       0.719719
    10995.052200       0.723741
    11007.154700       0.727748
    11019.283700       0.731739
    11031.439600       0.735715
    11043.622300       0.739674
    11055.832000       0.743617
    11068.068600       0.747542
    11080.332400       0.751450
    11092.623400       0.755339
    11104.941700       0.759211
    11117.287400       0.763063
    11129.660500       0.766896
    11142.061300       0.770709
    11154.489700       0.774503
    11166.945800       0.778275
    11179.429800       0.782027
    11191.941800       0.785758
    11204.481800       0.789466
    11217.049900       0.793153
    11229.646300       0.796817
    11242.270900       0.800458
    11254.924000       0.804077
    11267.605600       0.807671
    11280.315800       0.811241
    11293.054800       0.814787
    11305.822500       0.818307
    11318.619100       0.821803
    11331.444800       0.825273
    11344.299500       0.828717
    11357.183400       0.832135
    11370.096600       0.835526
    11383.039300       0.838890
    11396.011400       0.842227
    11409.013100       0.845536
    11422.044500       0.848817
    11435.105800       0.852069
    11448.196900       0.855293
    11461.318100       0.858487
    11474.469300       0.861652
    11487.650800       0.864788
    11500.862600       0.867893
    11514.104800       0.870968
    11527.377500       0.874012
    11540.680900       0.877025
    11554.015000       0.880007
    11567.380000       0.882956
    11580.775900       0.885875
    11594.202900       0.888760
    11607.661100       0.891614
    11621.150500       0.894434
    11634.671300       0.897222
    11648.223600       0.899976
    11661.807600       0.902696
    11675.423200       0.905383
    11689.070700       0.908035
    11702.750100       0.910653
    11716.461600       0.913237
    11730.205300       0.915785
    11743.981200       0.918299
    11757.789500       0.920777
    11771.630400       0.923219
    11785.503800       0.925626
    11799.410000       0.927997
    11813.349100       0.930331
    11827.321100       0.932630
    11841.326200       0.934891
    11855.364600       0.937116
    11869.436200       0.939304
    11883.541300       0.941455
    11897.680000       0.943568
    11911.852300       0.945644
    11926.058400       0.947682
    11940.298500       0.949683
    11954.572600       0.951645
    11968.880900       0.953570
    11983.223500       0.955456
    11997.600500       0.957304
    12012.012000       0.959113
    12026.458200       0.960884
    12040.939200       0.962616
    12055.455100       0.964310
    12070.006000       0.965964
    12084.592100       0.967580
    12099.213600       0.969156
    12113.870400       0.970693
    12128.562800       0.972191
    12143.290800       0.973650
    12158.054700       0.975070
    12172.854500       0.976450
    12187.690400       0.977790
    12202.562500       0.979091
    12217.471000       0.980353
    12232.415900       0.981575
    12247.397400       0.982757
    12262.415700       0.983900
    12277.470800       0.985004
    12292.563000       0.986067
    12307.692300       0.987092
    12322.858900       0.988076
    12338.062900       0.989021
    12353.304500       0.989927
    12368.583800       0.990793
    12383.900900       0.991619
    12399.256000       0.992406
    12414.649300       0.993154
    12430.080800       0.993863
    12445.550700       0.994532
    12461.059200       0.995162
    12476.606400       0.995753
    12492.192400       0.996305
    12507.817400       0.996818
    12523.481500       0.997292
    12539.185000       0.997728
    12554.927800       0.998125
    12570.710200       0.998483
    12586.532400       0.998803
    12602.394500       0.999085
    12618.296500       0.999329
    12634.238800       0.999535
    12650.221400       0.999703
    12666.244500       0.999833
    12682.308200       0.999926
    12698.412700       0.999982
    12714.558200       1.000000
    12730.744700       0.999981
    12746.972600       0.999926
    12763.241900       0.999834
    12779.552700       0.999705
    12795.905300       0.999541
    12812.299800       0.999340
    12828.736400       0.999104
    12845.215200       0.998831
    12861.736300       0.998524
    12878.300100       0.998182
    12894.906500       0.997804
    12911.555800       0.997392
    12928.248200       0.996946
    12944.983800       0.996465
    12961.762800       0.995951
    12978.585300       0.995402
    12995.451600       0.994821
    13012.361700       0.994206
    13029.316000       0.993559
    13046.314400       0.992879
    13063.357300       0.992167
    13080.444700       0.991423
    13097.576900       0.990648
    13114.754100       0.989841
    13131.976400       0.989003
    13149.243900       0.988134
    13166.556900       0.987235
    13183.915600       0.986306
    13201.320100       0.985347
    13218.770700       0.984359
    13236.267400       0.983342
    13253.810500       0.982296
    13271.400100       0.981221
    13289.036500       0.980119
    13306.719900       0.978989
    13324.450400       0.977831
    13342.228200       0.976647
    13360.053400       0.975436
    13377.926400       0.974199
    13395.847300       0.972936
    13413.816200       0.971648
    13431.833400       0.970334
    13449.899100       0.968996
    13468.013500       0.967634
    13486.176700       0.966247
    13504.388900       0.964837
    13522.650400       0.963404
    13540.961400       0.961948
    13559.322000       0.960470
    13577.732500       0.958970
    13596.193100       0.957449
    13614.703900       0.955906
    13633.265200       0.954343
    13651.877100       0.952760
    13670.540000       0.951156
    13689.253900       0.949534
    13708.019200       0.947892
    13726.836000       0.946232
    13745.704500       0.944553
    13764.624900       0.942857
    13783.597500       0.941144
    13802.622500       0.939414
    13821.700100       0.937667
    13840.830400       0.935905
    13860.013900       0.934127
    13879.250500       0.932334
    13898.540700       0.930526
    13917.884500       0.928704
    13937.282200       0.926868
    13956.734100       0.925019
    13976.240400       0.923158
    13995.801300       0.921284
    14015.417000       0.919397
    14035.087700       0.917500
    14054.813800       0.915591
    14074.595400       0.913672
    14094.432700       0.911743
    14114.326000       0.909804
    14134.275600       0.907855
    14154.281700       0.905898
    14174.344400       0.903933
    14194.464200       0.901959
    14214.641100       0.899979
    14234.875400       0.897991
    14255.167500       0.895997
    14275.517500       0.893996
    14295.925700       0.891990
    14316.392300       0.889979
    14336.917600       0.887963
    14357.501800       0.885943
    14378.145200       0.883918
    14398.848100       0.881891
    14419.610700       0.879860
    14440.433200       0.877827
    14461.316000       0.875792
    14482.259200       0.873755
    14503.263200       0.871717
    14524.328200       0.869678
    14545.454500       0.867639
    14566.642400       0.865600
    14587.892000       0.863561
    14609.203800       0.861524
    14630.577900       0.859487
    14652.014700       0.857453
    14673.514300       0.855420
    14695.077100       0.853390
    14716.703500       0.851363
    14738.393500       0.849340
    14760.147600       0.847320
    14781.966000       0.845305
    14803.849000       0.843294
    14825.796900       0.841288
    14847.809900       0.839287
    14869.888500       0.837293
    14892.032800       0.835304
    14914.243100       0.833322
    14936.519800       0.831347
    14958.863100       0.829379
    14981.273400       0.827419
    15003.750900       0.825467
    15026.296000       0.823523
    15048.909000       0.821588
    15071.590100       0.819662
    15094.339600       0.817746
    15117.158000       0.815839
    15140.045400       0.813942
    15163.002300       0.812056
    15186.028900       0.810181
    15209.125500       0.808316
    15232.292500       0.806463
    15255.530100       0.804622
    15278.838800       0.802793
    15302.218800       0.800976
    15325.670500       0.799171
    15349.194200       0.797380
    15372.790200       0.795602
    15396.458800       0.793837
    15420.200500       0.792085
    15444.015400       0.790348
    15467.904100       0.788625
    15491.866800       0.786917
    15515.903800       0.785223
    15540.015500       0.783544
    15564.202300       0.781880
    15588.464500       0.780232
    15612.802500       0.778599
    15637.216600       0.776982
    15661.707100       0.775381
    15686.274500       0.773797
    15710.919100       0.772228
    15735.641200       0.770677
    15760.441300       0.769142
    15785.319700       0.767624
    15810.276700       0.766123
    15835.312700       0.764640
    15860.428200       0.763173
    15885.623500       0.761725
    15910.899000       0.760294
    15936.255000       0.758880
    15961.691900       0.757485
    15987.210200       0.756108
    16012.810200       0.754748
    16038.492400       0.753407
    16064.257000       0.752085
    16090.104600       0.750780
    16116.035500       0.749494
    16142.050000       0.748226
    16168.148700       0.746977
    16194.332000       0.745747
    16220.600200       0.744535
    16246.953700       0.743341
    16273.393000       0.742166
    16299.918500       0.741010
    16326.530600       0.739873
    16353.229800       0.738754
    16380.016400       0.737653
    16406.890900       0.736571
    16433.853700       0.735508
    16460.905300       0.734463
    16488.046200       0.733436
    16515.276600       0.732428
    16542.597200       0.731438
    16570.008300       0.730466
    16597.510400       0.729512
    16625.103900       0.728576
    16652.789300       0.727659
    16680.567100       0.726758
    16708.437800       0.725876
    16736.401700       0.725011
    16764.459300       0.724163
    16792.611300       0.723332
    16820.857900       0.722518
    16849.199700       0.721722
    16877.637100       0.720941
    16906.170800       0.720177
    16934.801000       0.719430
    16963.528400       0.718698
    16992.353400       0.717982
    17021.276600       0.717282
    17050.298400       0.716597
    17079.419300       0.715927
    17108.639900       0.715272
    17137.960600       0.714631
    17167.382000       0.714005
    17196.904600       0.713393
    17226.528900       0.712794
    17256.255400       0.712208
    17286.084700       0.711636
    17316.017300       0.711076
    17346.053800       0.710529
    17376.194600       0.709994
    17406.440400       0.709470
    17436.791600       0.708958
    17467.248900       0.708456
    17497.812800       0.707965
    17528.483800       0.707484
    17559.262500       0.707013
    17590.149500       0.706552
    17621.145400       0.706099
    17652.250700       0.705655
    17683.466000       0.705219
    17714.791900       0.704790
    17746.228900       0.704368
    17777.777800       0.703954
    17809.439000       0.703545
    17841.213200       0.703143
    17873.101000       0.702745
    17905.103000       0.702352
    17937.219700       0.701964
    17969.451900       0.701579
    18001.800200       0.701198
    18034.265100       0.700819
    18066.847300       0.700442
    18099.547500       0.700067
    18132.366300       0.699693
    18165.304300       0.699320
    18198.362100       0.698947
    18231.540600       0.698572
    18264.840200       0.698197
    18298.261700       0.697820
    18331.805700       0.697441
    18365.472900       0.697058
    18399.264000       0.696672
    18433.179700       0.696282
    18467.220700       0.695886
    18501.387600       0.695486
    18535.681200       0.695079
    18570.102100       0.694665
    18604.651200       0.694244
    18639.329000       0.693815
    18674.136300       0.693378
    18709.073900       0.692931
    18744.142500       0.692473
    18779.342700       0.692006
    18814.675400       0.691526
    18850.141400       0.691035
    18885.741300       0.690531
    18921.475900       0.690013
    18957.346000       0.689481
    18993.352300       0.688934
    19029.495700       0.688372
    19065.776900       0.687793
