5,   channel 5 SRF from file SRF_SSH-1_Delivery_220520/SRF_DMSP-F4_SSH_Chan05.asc received June 2022 from SPASCIA
Number of data points:
1296
Wavenumber (cm-1)   Filter response
      369.800000       0.002000
      369.900000       0.002000
      370.000000       0.002100
      370.100000       0.002100
      370.200000       0.002100
      370.300000       0.002200
      370.400000       0.002200
      370.500000       0.002200
      370.600000       0.002200
      370.700000       0.002200
      370.800000       0.002200
      370.900000       0.002200
      371.000000       0.002300
      371.100000       0.002300
      371.200000       0.002300
      371.300000       0.002400
      371.400000       0.002400
      371.500000       0.002500
      371.600000       0.002500
      371.700000       0.002500
      371.800000       0.002600
      371.900000       0.002600
      372.000000       0.002600
      372.100000       0.002700
      372.200000       0.002700
      372.300000       0.002800
      372.400000       0.002800
      372.500000       0.002800
      372.600000       0.002900
      372.700000       0.002900
      372.800000       0.003000
      372.900000       0.003000
      373.000000       0.003000
      373.100000       0.003100
      373.200000       0.003100
      373.300000       0.003200
      373.400000       0.003200
      373.500000       0.003200
      373.600000       0.003300
      373.700000       0.003300
      373.800000       0.003400
      373.900000       0.003400
      374.000000       0.003400
      374.100000       0.003500
      374.200000       0.003500
      374.300000       0.003600
      374.400000       0.003600
      374.500000       0.003600
      374.600000       0.003700
      374.700000       0.003700
      374.800000       0.003800
      374.900000       0.003800
      375.000000       0.003800
      375.100000       0.003900
      375.200000       0.003900
      375.300000       0.004000
      375.400000       0.004000
      375.500000       0.004000
      375.600000       0.004100
      375.700000       0.004100
      375.800000       0.004200
      375.900000       0.004200
      376.000000       0.004300
      376.100000       0.004400
      376.200000       0.004500
      376.300000       0.004500
      376.400000       0.004600
      376.500000       0.004600
      376.600000       0.004700
      376.700000       0.004700
      376.800000       0.004700
      376.900000       0.004800
      377.000000       0.004900
      377.100000       0.005000
      377.200000       0.005100
      377.300000       0.005100
      377.400000       0.005200
      377.500000       0.005200
      377.600000       0.005300
      377.700000       0.005300
      377.800000       0.005300
      377.900000       0.005400
      378.000000       0.005500
      378.100000       0.005600
      378.200000       0.005700
      378.300000       0.005700
      378.400000       0.005800
      378.500000       0.005900
      378.600000       0.006000
      378.700000       0.006000
      378.800000       0.006100
      378.900000       0.006200
      379.000000       0.006300
      379.100000       0.006400
      379.200000       0.006400
      379.300000       0.006500
      379.400000       0.006600
      379.500000       0.006700
      379.600000       0.006800
      379.700000       0.006800
      379.800000       0.006900
      379.900000       0.007000
      380.000000       0.007200
      380.100000       0.007300
      380.200000       0.007400
      380.300000       0.007500
      380.400000       0.007600
      380.500000       0.007700
      380.600000       0.007900
      380.700000       0.008000
      380.800000       0.008100
      380.900000       0.008200
      381.000000       0.008300
      381.100000       0.008500
      381.200000       0.008600
      381.300000       0.008700
      381.400000       0.008800
      381.500000       0.008900
      381.600000       0.009100
      381.700000       0.009200
      381.800000       0.009300
      381.900000       0.009400
      382.000000       0.009600
      382.100000       0.009800
      382.200000       0.009900
      382.300000       0.010100
      382.400000       0.010200
      382.500000       0.010400
      382.600000       0.010600
      382.700000       0.010700
      382.800000       0.010900
      382.900000       0.011000
      383.000000       0.011200
      383.100000       0.011300
      383.200000       0.011500
      383.300000       0.011700
      383.400000       0.011900
      383.500000       0.012100
      383.600000       0.012300
      383.700000       0.012500
      383.800000       0.012600
      383.900000       0.012800
      384.000000       0.013000
      384.100000       0.013200
      384.200000       0.013400
      384.300000       0.013600
      384.400000       0.013900
      384.500000       0.014100
      384.600000       0.014300
      384.700000       0.014600
      384.800000       0.014800
      384.900000       0.015000
      385.000000       0.015200
      385.100000       0.015400
      385.200000       0.015600
      385.300000       0.015800
      385.400000       0.014900
      385.500000       0.014000
      385.600000       0.013100
      385.700000       0.012200
      385.800000       0.011300
      385.900000       0.012700
      386.000000       0.014100
      386.100000       0.015500
      386.200000       0.017000
      386.300000       0.018400
      386.400000       0.018700
      386.500000       0.018900
      386.600000       0.019200
      386.700000       0.019500
      386.800000       0.019800
      386.900000       0.020200
      387.000000       0.020600
      387.100000       0.020900
      387.200000       0.021300
      387.300000       0.021700
      387.400000       0.022100
      387.500000       0.022500
      387.600000       0.022900
      387.700000       0.023300
      387.800000       0.023700
      387.900000       0.024100
      388.000000       0.024500
      388.100000       0.024900
      388.200000       0.025300
      388.300000       0.025700
      388.400000       0.026100
      388.500000       0.026500
      388.600000       0.026900
      388.700000       0.027300
      388.800000       0.027700
      388.900000       0.028100
      389.000000       0.028500
      389.100000       0.028900
      389.200000       0.029200
      389.300000       0.029600
      389.400000       0.030000
      389.500000       0.030400
      389.600000       0.030800
      389.700000       0.031200
      389.800000       0.031600
      389.900000       0.032000
      390.000000       0.032400
      390.100000       0.032800
      390.200000       0.033200
      390.300000       0.033600
      390.400000       0.034000
      390.500000       0.034400
      390.600000       0.034800
      390.700000       0.035200
      390.800000       0.035600
      390.900000       0.036400
      391.000000       0.037200
      391.100000       0.037900
      391.200000       0.038700
      391.300000       0.039500
      391.400000       0.039900
      391.500000       0.040300
      391.600000       0.040700
      391.700000       0.041100
      391.800000       0.041500
      391.900000       0.042300
      392.000000       0.043100
      392.100000       0.043900
      392.200000       0.044700
      392.300000       0.045500
      392.400000       0.046200
      392.500000       0.047000
      392.600000       0.047800
      392.700000       0.048600
      392.800000       0.049400
      392.900000       0.050200
      393.000000       0.051000
      393.100000       0.051800
      393.200000       0.052600
      393.300000       0.053400
      393.400000       0.054200
      393.500000       0.054900
      393.600000       0.055700
      393.700000       0.056500
      393.800000       0.057300
      393.900000       0.058500
      394.000000       0.059700
      394.100000       0.060900
      394.200000       0.062100
      394.300000       0.063200
      394.400000       0.064400
      394.500000       0.065600
      394.600000       0.066800
      394.700000       0.068000
      394.800000       0.069200
      394.900000       0.070000
      395.000000       0.070800
      395.100000       0.071500
      395.200000       0.072300
      395.300000       0.073100
      395.400000       0.074700
      395.500000       0.076300
      395.600000       0.077900
      395.700000       0.079400
      395.800000       0.081000
      395.900000       0.083400
      396.000000       0.085800
      396.100000       0.088100
      396.200000       0.090500
      396.300000       0.092900
      396.400000       0.095300
      396.500000       0.097600
      396.600000       0.100000
      396.700000       0.102400
      396.800000       0.104700
      396.900000       0.107500
      397.000000       0.110300
      397.100000       0.113000
      397.200000       0.115800
      397.300000       0.118600
      397.400000       0.122500
      397.500000       0.126500
      397.600000       0.130400
      397.700000       0.134400
      397.800000       0.138300
      397.900000       0.141100
      398.000000       0.143900
      398.100000       0.146600
      398.200000       0.149400
      398.300000       0.152200
      398.400000       0.156500
      398.500000       0.160900
      398.600000       0.165200
      398.700000       0.169600
      398.800000       0.173900
      398.900000       0.179400
      399.000000       0.185000
      399.100000       0.190500
      399.200000       0.196000
      399.300000       0.201600
      399.400000       0.209900
      399.500000       0.218200
      399.600000       0.226500
      399.700000       0.234800
      399.800000       0.243100
      399.900000       0.249000
      400.000000       0.254900
      400.100000       0.260900
      400.200000       0.266800
      400.300000       0.272700
      400.400000       0.281400
      400.500000       0.290100
      400.600000       0.298800
      400.700000       0.307500
      400.800000       0.316200
      400.900000       0.326100
      401.000000       0.336000
      401.100000       0.345800
      401.200000       0.355700
      401.300000       0.365600
      401.400000       0.375100
      401.500000       0.384600
      401.600000       0.394100
      401.700000       0.403600
      401.800000       0.413000
      401.900000       0.422500
      402.000000       0.432000
      402.100000       0.441500
      402.200000       0.451000
      402.300000       0.460500
      402.400000       0.473500
      402.500000       0.486600
      402.600000       0.499600
      402.700000       0.512600
      402.800000       0.525700
      402.900000       0.537200
      403.000000       0.548600
      403.100000       0.560100
      403.200000       0.571500
      403.300000       0.583000
      403.400000       0.594900
      403.500000       0.606700
      403.600000       0.618600
      403.700000       0.630400
      403.800000       0.642300
      403.900000       0.654200
      404.000000       0.666000
      404.100000       0.677900
      404.200000       0.689700
      404.300000       0.701600
      404.400000       0.712600
      404.500000       0.723700
      404.600000       0.734800
      404.700000       0.745800
      404.800000       0.756900
      404.900000       0.766800
      405.000000       0.776700
      405.100000       0.786600
      405.200000       0.796400
      405.300000       0.806300
      405.400000       0.815800
      405.500000       0.825300
      405.600000       0.834800
      405.700000       0.844300
      405.800000       0.853800
      405.900000       0.861700
      406.000000       0.869600
      406.100000       0.877500
      406.200000       0.885400
      406.300000       0.893300
      406.400000       0.900000
      406.500000       0.906700
      406.600000       0.913400
      406.700000       0.920200
      406.800000       0.926900
      406.900000       0.933600
      407.000000       0.940300
      407.100000       0.947000
      407.200000       0.953800
      407.300000       0.960500
      407.400000       0.964000
      407.500000       0.967600
      407.600000       0.971100
      407.700000       0.974700
      407.800000       0.978300
      407.900000       0.981800
      408.000000       0.985400
      408.100000       0.988900
      408.200000       0.992500
      408.300000       0.996000
      408.400000       0.996800
      408.500000       0.997600
      408.600000       0.998400
      408.700000       0.999200
      408.800000       1.000000
      408.900000       0.999200
      409.000000       0.998400
      409.100000       0.997600
      409.200000       0.996800
      409.300000       0.996000
      409.400000       0.994100
      409.500000       0.992100
      409.600000       0.990100
      409.700000       0.988100
      409.800000       0.986200
      409.900000       0.983400
      410.000000       0.980600
      410.100000       0.977900
      410.200000       0.975100
      410.300000       0.972300
      410.400000       0.968400
      410.500000       0.964400
      410.600000       0.960500
      410.700000       0.956500
      410.800000       0.952600
      410.900000       0.947000
      411.000000       0.941500
      411.100000       0.936000
      411.200000       0.930400
      411.300000       0.924900
      411.400000       0.917800
      411.500000       0.910700
      411.600000       0.903600
      411.700000       0.896400
      411.800000       0.889300
      411.900000       0.880200
      412.000000       0.871100
      412.100000       0.862100
      412.200000       0.853000
      412.300000       0.843900
      412.400000       0.836000
      412.500000       0.828100
      412.600000       0.820200
      412.700000       0.812300
      412.800000       0.804300
      412.900000       0.796800
      413.000000       0.789300
      413.100000       0.781800
      413.200000       0.774300
      413.300000       0.766800
      413.400000       0.752200
      413.500000       0.737500
      413.600000       0.722900
      413.700000       0.708300
      413.800000       0.693700
      413.900000       0.681400
      414.000000       0.669200
      414.100000       0.656900
      414.200000       0.644700
      414.300000       0.632400
      414.400000       0.622500
      414.500000       0.612600
      414.600000       0.602800
      414.700000       0.592900
      414.800000       0.583000
      414.900000       0.573100
      415.000000       0.563200
      415.100000       0.553400
      415.200000       0.543500
      415.300000       0.533600
      415.400000       0.517800
      415.500000       0.502000
      415.600000       0.486200
      415.700000       0.470400
      415.800000       0.454500
      415.900000       0.444700
      416.000000       0.434800
      416.100000       0.424900
      416.200000       0.415000
      416.300000       0.405100
      416.400000       0.393700
      416.500000       0.382200
      416.600000       0.370800
      416.700000       0.359300
      416.800000       0.347800
      416.900000       0.340300
      417.000000       0.332800
      417.100000       0.325300
      417.200000       0.317800
      417.300000       0.310300
      417.400000       0.302000
      417.500000       0.293700
      417.600000       0.285400
      417.700000       0.277100
      417.800000       0.268800
      417.900000       0.261700
      418.000000       0.254500
      418.100000       0.247400
      418.200000       0.240300
      418.300000       0.233200
      418.400000       0.228100
      418.500000       0.222900
      418.600000       0.217800
      418.700000       0.212600
      418.800000       0.207500
      418.900000       0.202800
      419.000000       0.198000
      419.100000       0.193300
      419.200000       0.188500
      419.300000       0.183800
      419.400000       0.178700
      419.500000       0.173500
      419.600000       0.168400
      419.700000       0.163200
      419.800000       0.158100
      419.900000       0.154200
      420.000000       0.150200
      420.100000       0.146200
      420.200000       0.142300
      420.300000       0.138300
      420.400000       0.134800
      420.500000       0.131200
      420.600000       0.127700
      420.700000       0.124100
      420.800000       0.120600
      420.900000       0.117000
      421.000000       0.113400
      421.100000       0.109900
      421.200000       0.106300
      421.300000       0.102800
      421.400000       0.100000
      421.500000       0.097200
      421.600000       0.094500
      421.700000       0.091700
      421.800000       0.088900
      421.900000       0.087000
      422.000000       0.085000
      422.100000       0.083000
      422.200000       0.081000
      422.300000       0.079100
      422.400000       0.077900
      422.500000       0.076700
      422.600000       0.075500
      422.700000       0.074300
      422.800000       0.073100
      422.900000       0.071900
      423.000000       0.070800
      423.100000       0.069600
      423.200000       0.068400
      423.300000       0.067200
      423.400000       0.065600
      423.500000       0.064000
      423.600000       0.062500
      423.700000       0.060900
      423.800000       0.059300
      423.900000       0.058100
      424.000000       0.056900
      424.100000       0.055700
      424.200000       0.054500
      424.300000       0.053400
      424.400000       0.052600
      424.500000       0.051800
      424.600000       0.051000
      424.700000       0.050200
      424.800000       0.049400
      424.900000       0.048200
      425.000000       0.047000
      425.100000       0.045800
      425.200000       0.044700
      425.300000       0.043500
      425.400000       0.042700
      425.500000       0.041900
      425.600000       0.041100
      425.700000       0.040300
      425.800000       0.039500
      425.900000       0.039100
      426.000000       0.038700
      426.100000       0.038300
      426.200000       0.037900
      426.300000       0.037500
      426.400000       0.037200
      426.500000       0.036800
      426.600000       0.036400
      426.700000       0.036000
      426.800000       0.035600
      426.900000       0.034800
      427.000000       0.034000
      427.100000       0.033200
      427.200000       0.032400
      427.300000       0.031600
      427.400000       0.031200
      427.500000       0.030800
      427.600000       0.030400
      427.700000       0.030000
      427.800000       0.029600
      427.900000       0.029200
      428.000000       0.028900
      428.100000       0.028500
      428.200000       0.028100
      428.300000       0.027700
      428.400000       0.027300
      428.500000       0.026900
      428.600000       0.026500
      428.700000       0.026100
      428.800000       0.025700
      428.900000       0.025700
      429.000000       0.025700
      429.100000       0.025700
      429.200000       0.025700
      429.300000       0.025700
      429.400000       0.025300
      429.500000       0.024900
      429.600000       0.024500
      429.700000       0.024100
      429.800000       0.023700
      429.900000       0.023300
      430.000000       0.022900
      430.100000       0.022500
      430.200000       0.022100
      430.300000       0.021700
      430.400000       0.021300
      430.500000       0.020900
      430.600000       0.020600
      430.700000       0.020200
      430.800000       0.019800
      430.900000       0.019600
      431.000000       0.019400
      431.100000       0.019200
      431.200000       0.019000
      431.300000       0.018800
      431.400000       0.018500
      431.500000       0.018300
      431.600000       0.018100
