03 , goes_10_imager_04.flt
Number of data points:
1188
Wavenumber (cm-1)   Filter response
      879.100000       0.002319
      879.200000       0.007200
      879.300000       0.009967
      879.400000       0.010345
      879.500000       0.010735
      879.600000       0.011130
      879.700000       0.011536
      879.800000       0.011946
      879.900000       0.012369
      880.000000       0.012796
      880.100000       0.013232
      880.200000       0.013680
      880.300000       0.014130
      880.400000       0.014585
      880.500000       0.015053
      880.600000       0.015526
      880.700000       0.016004
      880.800000       0.016492
      880.900000       0.016987
      881.000000       0.017482
      881.100000       0.017993
      881.200000       0.018503
      881.300000       0.019018
      881.400000       0.019536
      881.500000       0.020057
      881.600000       0.020579
      881.700000       0.021105
      881.800000       0.021633
      881.900000       0.022155
      882.000000       0.022683
      882.100000       0.023211
      882.200000       0.023742
      882.300000       0.024284
      882.400000       0.024832
      882.500000       0.025398
      882.600000       0.025981
      882.700000       0.026581
      882.800000       0.027211
      882.900000       0.027862
      883.000000       0.028545
      883.100000       0.029258
      883.200000       0.029996
      883.300000       0.030751
      883.400000       0.031524
      883.500000       0.032313
      883.600000       0.033106
      883.700000       0.033909
      883.800000       0.034712
      883.900000       0.035517
      884.000000       0.036320
      884.100000       0.037126
      884.200000       0.037944
      884.300000       0.038784
      884.400000       0.039648
      884.500000       0.040541
      884.600000       0.041484
      884.700000       0.042475
      884.800000       0.043525
      884.900000       0.044646
      885.000000       0.045839
      885.100000       0.047090
      885.200000       0.048384
      885.300000       0.049690
      885.400000       0.050985
      885.500000       0.052261
      885.600000       0.053492
      885.700000       0.054656
      885.800000       0.055729
      885.900000       0.056684
      886.000000       0.057525
      886.100000       0.058271
      886.200000       0.058981
      886.300000       0.059702
      886.400000       0.060477
      886.500000       0.061363
      886.600000       0.062403
      886.700000       0.063652
      886.800000       0.065165
      886.900000       0.066992
      887.000000       0.069176
      887.100000       0.071677
      887.200000       0.074439
      887.300000       0.077394
      887.400000       0.080491
      887.500000       0.083683
      887.600000       0.086913
      887.700000       0.090128
      887.800000       0.093277
      887.900000       0.096309
      888.000000       0.099174
      888.100000       0.101901
      888.200000       0.104505
      888.300000       0.107017
      888.400000       0.109454
      888.500000       0.111838
      888.600000       0.114199
      888.700000       0.116551
      888.800000       0.118923
      888.900000       0.121327
      889.000000       0.123786
      889.100000       0.126310
      889.200000       0.128897
      889.300000       0.131544
      889.400000       0.134253
      889.500000       0.137030
      889.600000       0.139872
      889.700000       0.142789
      889.800000       0.145789
      889.900000       0.148866
      890.000000       0.152028
      890.100000       0.155265
      890.200000       0.158558
      890.300000       0.161885
      890.400000       0.165237
      890.500000       0.168602
      890.600000       0.171954
      890.700000       0.175287
      890.800000       0.178581
      890.900000       0.181816
      891.000000       0.184988
      891.100000       0.188095
      891.200000       0.191155
      891.300000       0.194157
      891.400000       0.197127
      891.500000       0.200056
      891.600000       0.202961
      891.700000       0.205843
      891.800000       0.208710
      891.900000       0.211564
      892.000000       0.214409
      892.100000       0.217251
      892.200000       0.220065
      892.300000       0.222864
      892.400000       0.225626
      892.500000       0.228353
      892.600000       0.231035
      892.700000       0.233664
      892.800000       0.236238
      892.900000       0.238740
      893.000000       0.241162
      893.100000       0.243508
      893.200000       0.245787
      893.300000       0.247984
      893.400000       0.250108
      893.500000       0.252157
      893.600000       0.254133
      893.700000       0.256024
      893.800000       0.257836
      893.900000       0.259562
      894.000000       0.261195
      894.100000       0.262746
      894.200000       0.264210
      894.300000       0.265593
      894.400000       0.266897
      894.500000       0.268120
      894.600000       0.269266
      894.700000       0.270332
      894.800000       0.271312
      894.900000       0.272210
      895.000000       0.273026
      895.100000       0.273764
      895.200000       0.274444
      895.300000       0.275072
      895.400000       0.275665
      895.500000       0.276230
      895.600000       0.276786
      895.700000       0.277336
      895.800000       0.277894
      895.900000       0.278464
      896.000000       0.279070
      896.100000       0.279703
      896.200000       0.280363
      896.300000       0.281056
      896.400000       0.281777
      896.500000       0.282527
      896.600000       0.283310
      896.700000       0.284123
      896.800000       0.284971
      896.900000       0.285857
      897.000000       0.286780
      897.100000       0.287748
      897.200000       0.288761
      897.300000       0.289832
      897.400000       0.290968
      897.500000       0.292171
      897.600000       0.293452
      897.700000       0.294821
      897.800000       0.296284
      897.900000       0.297855
      898.000000       0.299541
      898.100000       0.301355
      898.200000       0.303301
      898.300000       0.305385
      898.400000       0.307627
      898.500000       0.310026
      898.600000       0.312608
      898.700000       0.315377
      898.800000       0.318357
      898.900000       0.321566
      899.000000       0.325011
      899.100000       0.328674
      899.200000       0.332519
      899.300000       0.336519
      899.400000       0.340642
      899.500000       0.344862
      899.600000       0.349160
      899.700000       0.353498
      899.800000       0.357861
      899.900000       0.362212
      900.000000       0.366547
      900.100000       0.370878
      900.200000       0.375218
      900.300000       0.379594
      900.400000       0.384029
      900.500000       0.388545
      900.600000       0.393166
      900.700000       0.397914
      900.800000       0.402815
      900.900000       0.407906
      901.000000       0.413192
      901.100000       0.418671
      901.200000       0.424312
      901.300000       0.430103
      901.400000       0.436022
      901.500000       0.442052
      901.600000       0.448178
      901.700000       0.454383
      901.800000       0.460659
      901.900000       0.466984
      902.000000       0.473348
      902.100000       0.479745
      902.200000       0.486169
      902.300000       0.492624
      902.400000       0.499088
      902.500000       0.505565
      902.600000       0.512047
      902.700000       0.518529
      902.800000       0.525008
      902.900000       0.531478
      903.000000       0.537935
      903.100000       0.544396
      903.200000       0.550863
      903.300000       0.557368
      903.400000       0.563907
      903.500000       0.570502
      903.600000       0.577174
      903.700000       0.583931
      903.800000       0.590798
      903.900000       0.597783
      904.000000       0.604903
      904.100000       0.612117
      904.200000       0.619377
      904.300000       0.626645
      904.400000       0.633865
      904.500000       0.640995
      904.600000       0.647992
      904.700000       0.654794
      904.800000       0.661368
      904.900000       0.667645
      905.000000       0.673592
      905.100000       0.679258
      905.200000       0.684687
      905.300000       0.689940
      905.400000       0.695061
      905.500000       0.700105
      905.600000       0.705123
      905.700000       0.710159
      905.800000       0.715265
      905.900000       0.720488
      906.000000       0.725869
      906.100000       0.731383
      906.200000       0.736987
      906.300000       0.742656
      906.400000       0.748342
      906.500000       0.754021
      906.600000       0.759655
      906.700000       0.765199
      906.800000       0.770627
      906.900000       0.775893
      907.000000       0.780977
      907.100000       0.785895
      907.200000       0.790681
      907.300000       0.795362
      907.400000       0.799967
      907.500000       0.804528
      907.600000       0.809068
      907.700000       0.813616
      907.800000       0.818200
      907.900000       0.822845
      908.000000       0.827576
      908.100000       0.832392
      908.200000       0.837275
      908.300000       0.842229
      908.400000       0.847232
      908.500000       0.852280
      908.600000       0.857371
      908.700000       0.862492
      908.800000       0.867644
      908.900000       0.872812
      909.000000       0.877991
      909.100000       0.883169
      909.200000       0.888320
      909.300000       0.893434
      909.400000       0.898490
      909.500000       0.903466
      909.600000       0.908347
      909.700000       0.913100
      909.800000       0.917721
      909.900000       0.922171
      910.000000       0.926437
      910.100000       0.930515
      910.200000       0.934395
      910.300000       0.938078
      910.400000       0.941560
      910.500000       0.944830
      910.600000       0.947877
      910.700000       0.950689
      910.800000       0.953251
      910.900000       0.955545
      911.000000       0.957564
      911.100000       0.959323
      911.200000       0.960864
      911.300000       0.962222
      911.400000       0.963408
      911.500000       0.964459
      911.600000       0.965400
      911.700000       0.966250
      911.800000       0.967036
      911.900000       0.967784
      912.000000       0.968502
      912.100000       0.969208
      912.200000       0.969896
      912.300000       0.970584
      912.400000       0.971262
      912.500000       0.971940
      912.600000       0.972625
      912.700000       0.973316
      912.800000       0.974024
      912.900000       0.974742
      913.000000       0.975482
      913.100000       0.976243
      913.200000       0.977014
      913.300000       0.977804
      913.400000       0.978605
      913.500000       0.979413
      913.600000       0.980234
      913.700000       0.981059
      913.800000       0.981892
      913.900000       0.982725
      914.000000       0.983564
      914.100000       0.984397
      914.200000       0.985230
      914.300000       0.986055
      914.400000       0.986869
      914.500000       0.987674
      914.600000       0.988460
      914.700000       0.989230
      914.800000       0.989978
      914.900000       0.990691
      915.000000       0.991379
      915.100000       0.992038
      915.200000       0.992665
      915.300000       0.993259
      915.400000       0.993814
      915.500000       0.994337
      915.600000       0.994820
      915.700000       0.995265
      915.800000       0.995663
      915.900000       0.996016
      916.000000       0.996323
      916.100000       0.996579
      916.200000       0.996791
      916.300000       0.996966
      916.400000       0.997102
      916.500000       0.997204
      916.600000       0.997267
      916.700000       0.997300
      916.800000       0.997300
      916.900000       0.997270
      917.000000       0.997205
      917.100000       0.997120
      917.200000       0.997004
      917.300000       0.996872
      917.400000       0.996719
      917.500000       0.996547
      917.600000       0.996364
      917.700000       0.996169
      917.800000       0.995962
      917.900000       0.995749
      918.000000       0.995526
      918.100000       0.995296
      918.200000       0.995066
      918.300000       0.994831
      918.400000       0.994588
      918.500000       0.994343
      918.600000       0.994096
      918.700000       0.993843
      918.800000       0.993588
      918.900000       0.993330
      919.000000       0.993075
      919.100000       0.992812
      919.200000       0.992547
      919.300000       0.992285
      919.400000       0.992014
      919.500000       0.991737
      919.600000       0.991459
      919.700000       0.991174
      919.800000       0.990884
      919.900000       0.990591
      920.000000       0.990286
      920.100000       0.989981
      920.200000       0.989670
      920.300000       0.989363
      920.400000       0.989055
      920.500000       0.988755
      920.600000       0.988457
      920.700000       0.988170
      920.800000       0.987894
      920.900000       0.987629
      921.000000       0.987387
      921.100000       0.987154
      921.200000       0.986939
      921.300000       0.986734
      921.400000       0.986536
      921.500000       0.986346
      921.600000       0.986169
      921.700000       0.985998
      921.800000       0.985828
      921.900000       0.985668
      922.000000       0.985511
      922.100000       0.985356
      922.200000       0.985201
      922.300000       0.985048
      922.400000       0.984898
      922.500000       0.984746
      922.600000       0.984596
      922.700000       0.984441
      922.800000       0.984288
      922.900000       0.984133
      923.000000       0.983973
      923.100000       0.983808
      923.200000       0.983648
      923.300000       0.983488
      923.400000       0.983330
      923.500000       0.983178
      923.600000       0.983028
      923.700000       0.982888
      923.800000       0.982760
      923.900000       0.982638
      924.000000       0.982530
      924.100000       0.982433
      924.200000       0.982345
      924.300000       0.982268
      924.400000       0.982198
      924.500000       0.982135
      924.600000       0.982075
      924.700000       0.982020
      924.800000       0.981970
      924.900000       0.981928
      925.000000       0.981881
      925.100000       0.981841
      925.200000       0.981808
      925.300000       0.981781
      925.400000       0.981763
      925.500000       0.981758
      925.600000       0.981766
      925.700000       0.981783
      925.800000       0.981821
      925.900000       0.981884
      926.000000       0.981961
      926.100000       0.982061
      926.200000       0.982181
      926.300000       0.982319
      926.400000       0.982464
      926.500000       0.982622
      926.600000       0.982792
      926.700000       0.982974
      926.800000       0.983162
      926.900000       0.983352
      927.000000       0.983550
      927.100000       0.983753
      927.200000       0.983950
      927.300000       0.984153
      927.400000       0.984343
      927.500000       0.984531
      927.600000       0.984706
      927.700000       0.984871
      927.800000       0.985021
      927.900000       0.985143
      928.000000       0.985254
      928.100000       0.985344
      928.200000       0.985414
      928.300000       0.985469
      928.400000       0.985509
      928.500000       0.985536
      928.600000       0.985554
      928.700000       0.985559
      928.800000       0.985554
      928.900000       0.985539
      929.000000       0.985521
      929.100000       0.985496
      929.200000       0.985468
      929.300000       0.985446
      929.400000       0.985424
      929.500000       0.985416
      929.600000       0.985413
      929.700000       0.985428
      929.800000       0.985461
      929.900000       0.985521
      930.000000       0.985601
      930.100000       0.985704
      930.200000       0.985826
      930.300000       0.985966
      930.400000       0.986119
      930.500000       0.986286
      930.600000       0.986457
      930.700000       0.986634
      930.800000       0.986814
      930.900000       0.986994
      931.000000       0.987175
      931.100000       0.987350
      931.200000       0.987517
      931.300000       0.987680
      931.400000       0.987830
      931.500000       0.987968
      931.600000       0.988093
      931.700000       0.988200
      931.800000       0.988288
      931.900000       0.988353
      932.000000       0.988393
      932.100000       0.988416
      932.200000       0.988421
      932.300000       0.988416
      932.400000       0.988401
      932.500000       0.988386
      932.600000       0.988373
      932.700000       0.988360
      932.800000       0.988363
      932.900000       0.988376
      933.000000       0.988411
      933.100000       0.988461
      933.200000       0.988521
      933.300000       0.988593
      933.400000       0.988676
      933.500000       0.988766
      933.600000       0.988861
      933.700000       0.988961
      933.800000       0.989059
      933.900000       0.989156
      934.000000       0.989251
      934.100000       0.989344
      934.200000       0.989429
      934.300000       0.989506
      934.400000       0.989579
      934.500000       0.989636
      934.600000       0.989686
      934.700000       0.989724
      934.800000       0.989739
      934.900000       0.989744
      935.000000       0.989729
      935.100000       0.989699
      935.200000       0.989651
      935.300000       0.989591
      935.400000       0.989521
      935.500000       0.989446
      935.600000       0.989364
      935.700000       0.989276
      935.800000       0.989189
      935.900000       0.989096
      936.000000       0.989013
      936.100000       0.988928
      936.200000       0.988843
      936.300000       0.988761
      936.400000       0.988686
      936.500000       0.988613
      936.600000       0.988538
      936.700000       0.988473
      936.800000       0.988413
      936.900000       0.988353
      937.000000       0.988303
      937.100000       0.988255
      937.200000       0.988213
      937.300000       0.988168
      937.400000       0.988131
      937.500000       0.988093
      937.600000       0.988053
      937.700000       0.988011
      937.800000       0.987970
      937.900000       0.987920
      938.000000       0.987873
      938.100000       0.987820
      938.200000       0.987773
      938.300000       0.987728
      938.400000       0.987696
      938.500000       0.987671
      938.600000       0.987661
      938.700000       0.987668
      938.800000       0.987696
      938.900000       0.987756
      939.000000       0.987841
      939.100000       0.987954
      939.200000       0.988096
      939.300000       0.988261
      939.400000       0.988454
      939.500000       0.988669
      939.600000       0.988909
      939.700000       0.989177
      939.800000       0.989470
      939.900000       0.989783
      940.000000       0.990123
      940.100000       0.990488
      940.200000       0.990869
      940.300000       0.991266
      940.400000       0.991679
      940.500000       0.992104
      940.600000       0.992532
      940.700000       0.992968
      940.800000       0.993408
      940.900000       0.993846
      941.000000       0.994284
      941.100000       0.994714
      941.200000       0.995144
