62,   62, MVIRI VIS channel from srf_MET5_1998348_1998349_1801-Release_S10EL_10.dat
Number of data points:
806
Wavenumber (cm-1)   Filter response
     8350.730700       0.000000
     8357.710000       0.000000
     8364.701000       0.000000
     8371.703600       0.000002
     8378.718100       0.000004
     8385.744200       0.000009
     8392.782200       0.000016
     8399.832000       0.000027
     8406.893700       0.000041
     8413.967200       0.000060
     8421.052600       0.000083
     8428.150000       0.000111
     8435.259400       0.000145
     8442.380800       0.000185
     8449.514200       0.000231
     8456.659600       0.000284
     8463.817200       0.000345
     8470.986900       0.000413
     8478.168700       0.000489
     8485.362700       0.000574
     8492.569000       0.000667
     8499.787500       0.000769
     8507.018300       0.000881
     8514.261400       0.001002
     8521.516800       0.001133
     8528.784600       0.001275
     8536.064900       0.001427
     8543.357500       0.001590
     8550.662700       0.001764
     8557.980300       0.001949
     8565.310500       0.002146
     8572.653200       0.002354
     8580.008600       0.002575
     8587.376600       0.002808
     8594.757200       0.003053
     8602.150500       0.003311
     8609.556600       0.003582
     8616.975400       0.003867
     8624.407100       0.004164
     8631.851500       0.004475
     8639.308900       0.004799
     8646.779100       0.005137
     8654.262200       0.005490
     8661.758300       0.005856
     8669.267400       0.006237
     8676.789600       0.006632
     8684.324800       0.007042
     8691.873100       0.007467
     8699.434500       0.007907
     8707.009100       0.008361
     8714.596900       0.008831
     8722.198000       0.009317
     8729.812300       0.009818
     8737.439900       0.010334
     8745.080900       0.010867
     8752.735200       0.011415
     8760.403000       0.011979
     8768.084200       0.012560
     8775.778900       0.013156
     8783.487000       0.013769
     8791.208800       0.014399
     8798.944100       0.015045
     8806.693100       0.015708
     8814.455700       0.016388
     8822.232000       0.017085
     8830.022100       0.017799
     8837.825900       0.018531
     8845.643500       0.019279
     8853.475000       0.020045
     8861.320300       0.020829
     8869.179600       0.021630
     8877.052800       0.022449
     8884.940000       0.023286
     8892.841300       0.024141
     8900.756600       0.025014
     8908.686000       0.025906
     8916.629500       0.026815
     8924.587200       0.027743
     8932.559200       0.028689
     8940.545400       0.029655
     8948.545900       0.030638
     8956.560700       0.031641
     8964.589900       0.032663
     8972.633500       0.033703
     8980.691500       0.034763
     8988.764000       0.035842
     8996.851100       0.036940
     9004.952700       0.038058
     9013.068900       0.039195
     9021.199800       0.040352
     9029.345400       0.041529
     9037.505600       0.042725
     9045.680700       0.043942
     9053.870500       0.045178
     9062.075200       0.046435
     9070.294800       0.047712
     9078.529300       0.049009
     9086.778700       0.050326
     9095.043200       0.051665
     9103.322700       0.053023
     9111.617300       0.054403
     9119.927000       0.055803
     9128.251900       0.057224
     9136.592100       0.058666
     9144.947400       0.060129
     9153.318100       0.061614
     9161.704100       0.063119
     9170.105500       0.064646
     9178.522300       0.066195
     9186.954500       0.067765
     9195.402300       0.069356
     9203.865600       0.070969
     9212.344500       0.072605
     9220.839100       0.074261
     9229.349300       0.075940
     9237.875300       0.077641
     9246.417000       0.079364
     9254.974500       0.081110
     9263.547900       0.082877
     9272.137200       0.084667
     9280.742500       0.086479
     9289.363700       0.088314
     9298.000900       0.090171
     9306.654300       0.092051
     9315.323700       0.093953
     9324.009300       0.095879
     9332.711200       0.097827
     9341.429200       0.099798
     9350.163600       0.101792
     9358.914400       0.103809
     9367.681500       0.105849
     9376.465100       0.107913
     9385.265100       0.109999
     9394.081700       0.112109
     9402.914900       0.114241
     9411.764700       0.116398
     9420.631200       0.118577
     9429.514400       0.120780
     9438.414300       0.123007
     9447.331100       0.125256
     9456.264800       0.127530
     9465.215300       0.129827
     9474.182900       0.132147
     9483.167400       0.134491
     9492.169000       0.136858
     9501.187600       0.139250
     9510.223500       0.141665
     9519.276500       0.144103
     9528.346800       0.146565
     9537.434400       0.149051
     9546.539400       0.151560
     9555.661700       0.154094
     9564.801500       0.156650
     9573.958800       0.159231
     9583.133700       0.161835
     9592.326100       0.164463
     9601.536200       0.167114
     9610.764100       0.169789
     9620.009600       0.172488
     9629.273000       0.175210
     9638.554200       0.177955
     9647.853400       0.180725
     9657.170400       0.183517
     9666.505600       0.186333
     9675.858700       0.189173
     9685.230000       0.192035
     9694.619500       0.194922
     9704.027200       0.197831
     9713.453100       0.200763
     9722.897400       0.203719
     9732.360100       0.206697
     9741.841200       0.209699
     9751.340800       0.212723
     9760.859000       0.215770
     9770.395700       0.218840
     9779.951100       0.221933
     9789.525200       0.225048
     9799.118100       0.228185
     9808.729800       0.231345
     9818.360300       0.234527
     9828.009800       0.237731
     9837.678300       0.240958
     9847.365800       0.244206
     9857.072400       0.247476
     9866.798200       0.250768
     9876.543200       0.254081
     9886.307500       0.257416
     9896.091000       0.260772
     9905.894000       0.264148
     9915.716400       0.267547
     9925.558300       0.270965
     9935.419800       0.274405
     9945.300800       0.277865
     9955.201600       0.281345
     9965.122100       0.284846
     9975.062300       0.288367
     9985.022500       0.291907
     9995.002500       0.295468
    10005.002500       0.299047
    10015.022500       0.302646
    10025.062700       0.306264
    10035.122900       0.309901
    10045.203400       0.313557
    10055.304200       0.317232
    10065.425300       0.320924
    10075.566800       0.324635
    10085.728700       0.328363
    10095.911200       0.332110
    10106.114200       0.335873
    10116.337900       0.339654
    10126.582300       0.343452
    10136.847400       0.347267
    10147.133400       0.351098
    10157.440300       0.354945
    10167.768200       0.358809
    10178.117000       0.362688
    10188.487000       0.366582
    10198.878100       0.370492
    10209.290500       0.374417
    10219.724100       0.378357
    10230.179000       0.382311
    10240.655400       0.386279
    10251.153300       0.390261
    10261.672700       0.394257
    10272.213700       0.398265
    10282.776300       0.402287
    10293.360800       0.406322
    10303.967000       0.410369
    10314.595200       0.414428
    10325.245200       0.418499
    10335.917300       0.422582
    10346.611500       0.426676
    10357.327800       0.430780
    10368.066400       0.434895
    10378.827200       0.439021
    10389.610400       0.443156
    10400.416000       0.447301
    10411.244100       0.451455
    10422.094800       0.455618
    10432.968200       0.459790
    10443.864200       0.463970
    10454.783100       0.468158
    10465.724800       0.472353
    10476.689400       0.476556
    10487.677000       0.480766
    10498.687700       0.484982
    10509.721500       0.489204
    10520.778500       0.493432
    10531.858900       0.497665
    10542.962600       0.501904
    10554.089700       0.506147
    10565.240400       0.510395
    10576.414600       0.514646
    10587.612500       0.518901
    10598.834100       0.523160
    10610.079600       0.527421
    10621.348900       0.531685
    10632.642200       0.535950
    10643.959600       0.540218
    10655.301000       0.544487
    10666.666700       0.548756
    10678.056600       0.553027
    10689.470900       0.557297
    10700.909600       0.561567
    10712.372800       0.565837
    10723.860600       0.570105
    10735.373100       0.574373
    10746.910300       0.578638
    10758.472300       0.582901
    10770.059200       0.587162
    10781.671200       0.591419
    10793.308100       0.595673
    10804.970300       0.599924
    10816.657700       0.604170
    10828.370300       0.608412
    10840.108400       0.612648
    10851.871900       0.616879
    10863.661100       0.621105
    10875.475800       0.625324
    10887.316300       0.629537
    10899.182600       0.633742
    10911.074700       0.637940
    10922.992900       0.642131
    10934.937100       0.646313
    10946.907500       0.650486
    10958.904100       0.654650
    10970.927000       0.658805
    10982.976400       0.662951
    10995.052200       0.667085
    11007.154700       0.671209
    11019.283700       0.675323
    11031.439600       0.679425
    11043.622300       0.683514
    11055.832000       0.687592
    11068.068600       0.691657
    11080.332400       0.695709
    11092.623400       0.699747
    11104.941700       0.703772
    11117.287400       0.707782
    11129.660500       0.711778
    11142.061300       0.715759
    11154.489700       0.719724
    11166.945800       0.723674
    11179.429800       0.727607
    11191.941800       0.731524
    11204.481800       0.735424
    11217.049900       0.739307
    11229.646300       0.743172
    11242.270900       0.747019
    11254.924000       0.750847
    11267.605600       0.754657
    11280.315800       0.758447
    11293.054800       0.762218
    11305.822500       0.765968
    11318.619100       0.769699
    11331.444800       0.773409
    11344.299500       0.777098
    11357.183400       0.780765
    11370.096600       0.784411
    11383.039300       0.788035
    11396.011400       0.791636
    11409.013100       0.795215
    11422.044500       0.798770
    11435.105800       0.802302
    11448.196900       0.805811
    11461.318100       0.809295
    11474.469300       0.812754
    11487.650800       0.816189
    11500.862600       0.819599
    11514.104800       0.822984
    11527.377500       0.826343
    11540.680900       0.829676
    11554.015000       0.832982
    11567.380000       0.836262
    11580.775900       0.839515
    11594.202900       0.842741
    11607.661100       0.845939
    11621.150500       0.849110
    11634.671300       0.852252
    11648.223600       0.855366
    11661.807600       0.858452
    11675.423200       0.861508
    11689.070700       0.864536
    11702.750100       0.867534
    11716.461600       0.870502
    11730.205300       0.873441
    11743.981200       0.876350
    11757.789500       0.879228
    11771.630400       0.882075
    11785.503800       0.884891
    11799.410000       0.887677
    11813.349100       0.890431
    11827.321100       0.893154
    11841.326200       0.895845
    11855.364600       0.898503
    11869.436200       0.901130
    11883.541300       0.903725
    11897.680000       0.906287
    11911.852300       0.908816
    11926.058400       0.911312
    11940.298500       0.913776
    11954.572600       0.916206
    11968.880900       0.918603
    11983.223500       0.920966
    11997.600500       0.923295
    12012.012000       0.925591
    12026.458200       0.927853
    12040.939200       0.930080
    12055.455100       0.932273
    12070.006000       0.934432
    12084.592100       0.936557
    12099.213600       0.938646
    12113.870400       0.940701
    12128.562800       0.942722
    12143.290800       0.944707
    12158.054700       0.946657
    12172.854500       0.948572
    12187.690400       0.950452
    12202.562500       0.952297
    12217.471000       0.954107
    12232.415900       0.955881
    12247.397400       0.957620
    12262.415700       0.959323
    12277.470800       0.960991
    12292.563000       0.962623
    12307.692300       0.964220
    12322.858900       0.965781
    12338.062900       0.967306
    12353.304500       0.968796
    12368.583800       0.970250
    12383.900900       0.971669
    12399.256000       0.973052
    12414.649300       0.974399
    12430.080800       0.975711
    12445.550700       0.976987
    12461.059200       0.978228
    12476.606400       0.979433
    12492.192400       0.980603
    12507.817400       0.981737
    12523.481500       0.982836
    12539.185000       0.983900
    12554.927800       0.984928
    12570.710200       0.985922
    12586.532400       0.986880
    12602.394500       0.987803
    12618.296500       0.988692
    12634.238800       0.989546
    12650.221400       0.990365
    12666.244500       0.991149
    12682.308200       0.991899
    12698.412700       0.992615
    12714.558200       0.993297
    12730.744700       0.993944
    12746.972600       0.994558
    12763.241900       0.995137
    12779.552700       0.995684
    12795.905300       0.996196
    12812.299800       0.996676
    12828.736400       0.997122
    12845.215200       0.997535
    12861.736300       0.997916
    12878.300100       0.998264
    12894.906500       0.998579
    12911.555800       0.998863
    12928.248200       0.999114
    12944.983800       0.999334
    12961.762800       0.999522
    12978.585300       0.999679
    12995.451600       0.999804
    13012.361700       0.999899
    13029.316000       0.999963
    13046.314400       0.999997
    13063.357300       1.000000
    13080.444700       0.999974
    13097.576900       0.999917
    13114.754100       0.999832
    13131.976400       0.999717
    13149.243900       0.999574
    13166.556900       0.999402
    13183.915600       0.999201
    13201.320100       0.998973
    13218.770700       0.998716
    13236.267400       0.998433
    13253.810500       0.998122
    13271.400100       0.997784
    13289.036500       0.997420
    13306.719900       0.997030
    13324.450400       0.996614
    13342.228200       0.996172
    13360.053400       0.995705
    13377.926400       0.995213
    13395.847300       0.994696
    13413.816200       0.994156
    13431.833400       0.993591
    13449.899100       0.993003
    13468.013500       0.992391
    13486.176700       0.991757
    13504.388900       0.991100
    13522.650400       0.990421
    13540.961400       0.989720
    13559.322000       0.988998
    13577.732500       0.988255
    13596.193100       0.987491
    13614.703900       0.986706
    13633.265200       0.985902
    13651.877100       0.985078
    13670.540000       0.984235
    13689.253900       0.983374
    13708.019200       0.982494
    13726.836000       0.981595
    13745.704500       0.980680
    13764.624900       0.979747
    13783.597500       0.978797
    13802.622500       0.977831
    13821.700100       0.976849
    13840.830400       0.975851
    13860.013900       0.974838
    13879.250500       0.973810
    13898.540700       0.972768
    13917.884500       0.971712
    13937.282200       0.970642
    13956.734100       0.969559
    13976.240400       0.968463
    13995.801300       0.967355
    14015.417000       0.966236
    14035.087700       0.965104
    14054.813800       0.963962
    14074.595400       0.962809
    14094.432700       0.961645
    14114.326000       0.960472
    14134.275600       0.959289
    14154.281700       0.958098
    14174.344400       0.956898
    14194.464200       0.955689
    14214.641100       0.954473
    14234.875400       0.953250
    14255.167500       0.952020
    14275.517500       0.950783
    14295.925700       0.949540
    14316.392300       0.948292
    14336.917600       0.947038
    14357.501800       0.945780
    14378.145200       0.944517
    14398.848100       0.943250
    14419.610700       0.941980
    14440.433200       0.940706
    14461.316000       0.939430
    14482.259200       0.938151
    14503.263200       0.936871
    14524.328200       0.935589
    14545.454500       0.934305
    14566.642400       0.933021
    14587.892000       0.931737
    14609.203800       0.930453
    14630.577900       0.929169
    14652.014700       0.927886
    14673.514300       0.926604
    14695.077100       0.925324
    14716.703500       0.924046
    14738.393500       0.922770
    14760.147600       0.921497
    14781.966000       0.920227
    14803.849000       0.918960
    14825.796900       0.917697
    14847.809900       0.916439
    14869.888500       0.915185
    14892.032800       0.913936
    14914.243100       0.912692
    14936.519800       0.911454
    14958.863100       0.910222
    14981.273400       0.908996
    15003.750900       0.907776
    15026.296000       0.906564
    15048.909000       0.905359
    15071.590100       0.904161
    15094.339600       0.902971
    15117.158000       0.901790
    15140.045400       0.900616
    15163.002300       0.899452
    15186.028900       0.898297
    15209.125500       0.897151
    15232.292500       0.896015
    15255.530100       0.894889
    15278.838800       0.893772
    15302.218800       0.892667
    15325.670500       0.891572
    15349.194200       0.890488
    15372.790200       0.889415
    15396.458800       0.888353
    15420.200500       0.887304
    15444.015400       0.886266
    15467.904100       0.885240
    15491.866800       0.884227
    15515.903800       0.883226
    15540.015500       0.882237
    15564.202300       0.881262
    15588.464500       0.880300
    15612.802500       0.879351
    15637.216600       0.878415
    15661.707100       0.877493
    15686.274500       0.876585
    15710.919100       0.875690
    15735.641200       0.874810
    15760.441300       0.873944
    15785.319700       0.873092
    15810.276700       0.872254
    15835.312700       0.871431
    15860.428200       0.870622
    15885.623500       0.869828
    15910.899000       0.869049
    15936.255000       0.868284
    15961.691900       0.867535
    15987.210200       0.866800
    16012.810200       0.866080
    16038.492400       0.865376
    16064.257000       0.864686
    16090.104600       0.864011
    16116.035500       0.863351
    16142.050000       0.862707
    16168.148700       0.862077
    16194.332000       0.861463
    16220.600200       0.860863
    16246.953700       0.860278
    16273.393000       0.859708
    16299.918500       0.859154
    16326.530600       0.858613
    16353.229800       0.858088
    16380.016400       0.857577
    16406.890900       0.857080
    16433.853700       0.856598
    16460.905300       0.856130
    16488.046200       0.855677
    16515.276600       0.855237
    16542.597200       0.854811
    16570.008300       0.854399
    16597.510400       0.854001
    16625.103900       0.853616
    16652.789300       0.853244
    16680.567100       0.852885
    16708.437800       0.852538
    16736.401700       0.852205
    16764.459300       0.851883
    16792.611300       0.851574
    16820.857900       0.851276
    16849.199700       0.850990
    16877.637100       0.850716
    16906.170800       0.850452
    16934.801000       0.850199
    16963.528400       0.849956
    16992.353400       0.849724
    17021.276600       0.849501
    17050.298400       0.849288
    17079.419300       0.849084
    17108.639900       0.848889
    17137.960600       0.848702
    17167.382000       0.848523
    17196.904600       0.848352
    17226.528900       0.848188
    17256.255400       0.848030
    17286.084700       0.847880
