51,   51, MVIRI VIS channel from srf_MET7_2003348_2003349_1801-Release_S10EE_10.dat
Number of data points:
793
Wavenumber (cm-1)   Filter response
     8442.380800       0.000000
     8449.514200       0.000000
     8456.659600       0.000004
     8463.817200       0.000054
     8470.986900       0.000161
     8478.168700       0.000321
     8485.362700       0.000535
     8492.569000       0.000800
     8499.787500       0.001114
     8507.018300       0.001477
     8514.261400       0.001888
     8521.516800       0.002343
     8528.784600       0.002843
     8536.064900       0.003386
     8543.357500       0.003971
     8550.662700       0.004597
     8557.980300       0.005263
     8565.310500       0.005967
     8572.653200       0.006709
     8580.008600       0.007487
     8587.376600       0.008301
     8594.757200       0.009150
     8602.150500       0.010032
     8609.556600       0.010948
     8616.975400       0.011895
     8624.407100       0.012875
     8631.851500       0.013885
     8639.308900       0.014925
     8646.779100       0.015994
     8654.262200       0.017092
     8661.758300       0.018219
     8669.267400       0.019373
     8676.789600       0.020554
     8684.324800       0.021761
     8691.873100       0.022994
     8699.434500       0.024253
     8707.009100       0.025538
     8714.596900       0.026846
     8722.198000       0.028179
     8729.812300       0.029536
     8737.439900       0.030917
     8745.080900       0.032321
     8752.735200       0.033747
     8760.403000       0.035197
     8768.084200       0.036669
     8775.778900       0.038163
     8783.487000       0.039678
     8791.208800       0.041216
     8798.944100       0.042775
     8806.693100       0.044356
     8814.455700       0.045957
     8822.232000       0.047580
     8830.022100       0.049224
     8837.825900       0.050889
     8845.643500       0.052574
     8853.475000       0.054280
     8861.320300       0.056006
     8869.179600       0.057753
     8877.052800       0.059520
     8884.940000       0.061308
     8892.841300       0.063116
     8900.756600       0.064944
     8908.686000       0.066793
     8916.629500       0.068662
     8924.587200       0.070552
     8932.559200       0.072461
     8940.545400       0.074391
     8948.545900       0.076342
     8956.560700       0.078312
     8964.589900       0.080304
     8972.633500       0.082316
     8980.691500       0.084348
     8988.764000       0.086401
     8996.851100       0.088475
     9004.952700       0.090570
     9013.068900       0.092685
     9021.199800       0.094821
     9029.345400       0.096979
     9037.505600       0.099157
     9045.680700       0.101356
     9053.870500       0.103577
     9062.075200       0.105819
     9070.294800       0.108082
     9078.529300       0.110367
     9086.778700       0.112674
     9095.043200       0.115002
     9103.322700       0.117352
     9111.617300       0.119724
     9119.927000       0.122117
     9128.251900       0.124533
     9136.592100       0.126972
     9144.947400       0.129432
     9153.318100       0.131914
     9161.704100       0.134419
     9170.105500       0.136947
     9178.522300       0.139497
     9186.954500       0.142069
     9195.402300       0.144665
     9203.865600       0.147283
     9212.344500       0.149924
     9220.839100       0.152589
     9229.349300       0.155276
     9237.875300       0.157986
     9246.417000       0.160719
     9254.974500       0.163476
     9263.547900       0.166256
     9272.137200       0.169059
     9280.742500       0.171886
     9289.363700       0.174736
     9298.000900       0.177610
     9306.654300       0.180507
     9315.323700       0.183428
     9324.009300       0.186372
     9332.711200       0.189340
     9341.429200       0.192331
     9350.163600       0.195346
     9358.914400       0.198384
     9367.681500       0.201447
     9376.465100       0.204533
     9385.265100       0.207642
     9394.081700       0.210775
     9402.914900       0.213931
     9411.764700       0.217112
     9420.631200       0.220315
     9429.514400       0.223542
     9438.414300       0.226793
     9447.331100       0.230066
     9456.264800       0.233363
     9465.215300       0.236684
     9474.182900       0.240027
     9483.167400       0.243394
     9492.169000       0.246783
     9501.187600       0.250196
     9510.223500       0.253631
     9519.276500       0.257089
     9528.346800       0.260570
     9537.434400       0.264074
     9546.539400       0.267599
     9555.661700       0.271147
     9564.801500       0.274717
     9573.958800       0.278309
     9583.133700       0.281923
     9592.326100       0.285559
     9601.536200       0.289216
     9610.764100       0.292895
     9620.009600       0.296595
     9629.273000       0.300316
     9638.554200       0.304057
     9647.853400       0.307820
     9657.170400       0.311602
     9666.505600       0.315406
     9675.858700       0.319229
     9685.230000       0.323072
     9694.619500       0.326935
     9704.027200       0.330817
     9713.453100       0.334718
     9722.897400       0.338639
     9732.360100       0.342577
     9741.841200       0.346535
     9751.340800       0.350510
     9760.859000       0.354504
     9770.395700       0.358516
     9779.951100       0.362544
     9789.525200       0.366590
     9799.118100       0.370653
     9808.729800       0.374732
     9818.360300       0.378827
     9828.009800       0.382938
     9837.678300       0.387065
     9847.365800       0.391208
     9857.072400       0.395365
     9866.798200       0.399537
     9876.543200       0.403723
     9886.307500       0.407924
     9896.091000       0.412138
     9905.894000       0.416365
     9915.716400       0.420606
     9925.558300       0.424859
     9935.419800       0.429124
     9945.300800       0.433402
     9955.201600       0.437690
     9965.122100       0.441991
     9975.062300       0.446301
     9985.022500       0.450623
     9995.002500       0.454955
    10005.002500       0.459296
    10015.022500       0.463646
    10025.062700       0.468005
    10035.122900       0.472373
    10045.203400       0.476749
    10055.304200       0.481133
    10065.425300       0.485524
    10075.566800       0.489922
    10085.728700       0.494326
    10095.911200       0.498736
    10106.114200       0.503152
    10116.337900       0.507573
    10126.582300       0.511999
    10136.847400       0.516430
    10147.133400       0.520864
    10157.440300       0.525301
    10167.768200       0.529742
    10178.117000       0.534185
    10188.487000       0.538631
    10198.878100       0.543078
    10209.290500       0.547526
    10219.724100       0.551976
    10230.179000       0.556425
    10240.655400       0.560875
    10251.153300       0.565324
    10261.672700       0.569772
    10272.213700       0.574218
    10282.776300       0.578663
    10293.360800       0.583105
    10303.967000       0.587544
    10314.595200       0.591981
    10325.245200       0.596413
    10335.917300       0.600841
    10346.611500       0.605265
    10357.327800       0.609683
    10368.066400       0.614096
    10378.827200       0.618502
    10389.610400       0.622903
    10400.416000       0.627296
    10411.244100       0.631681
    10422.094800       0.636059
    10432.968200       0.640428
    10443.864200       0.644789
    10454.783100       0.649140
    10465.724800       0.653482
    10476.689400       0.657813
    10487.677000       0.662133
    10498.687700       0.666443
    10509.721500       0.670740
    10520.778500       0.675026
    10531.858900       0.679299
    10542.962600       0.683559
    10554.089700       0.687805
    10565.240400       0.692038
    10576.414600       0.696256
    10587.612500       0.700460
    10598.834100       0.704648
    10610.079600       0.708821
    10621.348900       0.712977
    10632.642200       0.717117
    10643.959600       0.721239
    10655.301000       0.725345
    10666.666700       0.729432
    10678.056600       0.733501
    10689.470900       0.737551
    10700.909600       0.741582
    10712.372800       0.745594
    10723.860600       0.749585
    10735.373100       0.753556
    10746.910300       0.757506
    10758.472300       0.761434
    10770.059200       0.765341
    10781.671200       0.769226
    10793.308100       0.773088
    10804.970300       0.776928
    10816.657700       0.780744
    10828.370300       0.784536
    10840.108400       0.788304
    10851.871900       0.792048
    10863.661100       0.795767
    10875.475800       0.799460
    10887.316300       0.803128
    10899.182600       0.806770
    10911.074700       0.810386
    10922.992900       0.813974
    10934.937100       0.817536
    10946.907500       0.821070
    10958.904100       0.824577
    10970.927000       0.828056
    10982.976400       0.831505
    10995.052200       0.834927
    11007.154700       0.838318
    11019.283700       0.841681
    11031.439600       0.845014
    11043.622300       0.848317
    11055.832000       0.851589
    11068.068600       0.854830
    11080.332400       0.858041
    11092.623400       0.861220
    11104.941700       0.864368
    11117.287400       0.867484
    11129.660500       0.870567
    11142.061300       0.873619
    11154.489700       0.876637
    11166.945800       0.879623
    11179.429800       0.882575
    11191.941800       0.885494
    11204.481800       0.888380
    11217.049900       0.891231
    11229.646300       0.894048
    11242.270900       0.896831
    11254.924000       0.899579
    11267.605600       0.902292
    11280.315800       0.904971
    11293.054800       0.907614
    11305.822500       0.910221
    11318.619100       0.912793
    11331.444800       0.915330
    11344.299500       0.917830
    11357.183400       0.920294
    11370.096600       0.922722
    11383.039300       0.925113
    11396.011400       0.927467
    11409.013100       0.929785
    11422.044500       0.932066
    11435.105800       0.934310
    11448.196900       0.936516
    11461.318100       0.938686
    11474.469300       0.940817
    11487.650800       0.942912
    11500.862600       0.944969
    11514.104800       0.946988
    11527.377500       0.948969
    11540.680900       0.950912
    11554.015000       0.952817
    11567.380000       0.954685
    11580.775900       0.956514
    11594.202900       0.958305
    11607.661100       0.960058
    11621.150500       0.961772
    11634.671300       0.963449
    11648.223600       0.965087
    11661.807600       0.966686
    11675.423200       0.968248
    11689.070700       0.969771
    11702.750100       0.971255
    11716.461600       0.972702
    11730.205300       0.974110
    11743.981200       0.975480
    11757.789500       0.976811
    11771.630400       0.978104
    11785.503800       0.979359
    11799.410000       0.980576
    11813.349100       0.981754
    11827.321100       0.982895
    11841.326200       0.983998
    11855.364600       0.985062
    11869.436200       0.986089
    11883.541300       0.987078
    11897.680000       0.988030
    11911.852300       0.988944
    11926.058400       0.989820
    11940.298500       0.990659
    11954.572600       0.991461
    11968.880900       0.992226
    11983.223500       0.992954
    11997.600500       0.993644
    12012.012000       0.994299
    12026.458200       0.994916
    12040.939200       0.995498
    12055.455100       0.996043
    12070.006000       0.996552
    12084.592100       0.997025
    12099.213600       0.997462
    12113.870400       0.997864
    12128.562800       0.998231
    12143.290800       0.998562
    12158.054700       0.998859
    12172.854500       0.999120
    12187.690400       0.999348
    12202.562500       0.999541
    12217.471000       0.999700
    12232.415900       0.999825
    12247.397400       0.999917
    12262.415700       0.999975
    12277.470800       1.000000
    12292.563000       0.999992
    12307.692300       0.999952
    12322.858900       0.999880
    12338.062900       0.999775
    12353.304500       0.999639
    12368.583800       0.999471
    12383.900900       0.999273
    12399.256000       0.999043
    12414.649300       0.998783
    12430.080800       0.998492
    12445.550700       0.998171
    12461.059200       0.997821
    12476.606400       0.997442
    12492.192400       0.997033
    12507.817400       0.996596
    12523.481500       0.996130
    12539.185000       0.995637
    12554.927800       0.995116
    12570.710200       0.994567
    12586.532400       0.993991
    12602.394500       0.993389
    12618.296500       0.992761
    12634.238800       0.992106
    12650.221400       0.991426
    12666.244500       0.990721
    12682.308200       0.989991
    12698.412700       0.989237
    12714.558200       0.988459
    12730.744700       0.987657
    12746.972600       0.986832
    12763.241900       0.985983
    12779.552700       0.985113
    12795.905300       0.984220
    12812.299800       0.983306
    12828.736400       0.982370
    12845.215200       0.981413
    12861.736300       0.980436
    12878.300100       0.979439
    12894.906500       0.978423
    12911.555800       0.977387
    12928.248200       0.976332
    12944.983800       0.975259
    12961.762800       0.974168
    12978.585300       0.973060
    12995.451600       0.971934
    13012.361700       0.970792
    13029.316000       0.969633
    13046.314400       0.968459
    13063.357300       0.967269
    13080.444700       0.966065
    13097.576900       0.964846
    13114.754100       0.963613
    13131.976400       0.962366
    13149.243900       0.961107
    13166.556900       0.959834
    13183.915600       0.958550
    13201.320100       0.957253
    13218.770700       0.955945
    13236.267400       0.954627
    13253.810500       0.953298
    13271.400100       0.951958
    13289.036500       0.950610
    13306.719900       0.949252
    13324.450400       0.947886
    13342.228200       0.946511
    13360.053400       0.945129
    13377.926400       0.943739
    13395.847300       0.942343
    13413.816200       0.940940
    13431.833400       0.939531
    13449.899100       0.938117
    13468.013500       0.936697
    13486.176700       0.935273
    13504.388900       0.933845
    13522.650400       0.932414
    13540.961400       0.930979
    13559.322000       0.929541
    13577.732500       0.928101
    13596.193100       0.926659
    13614.703900       0.925215
    13633.265200       0.923771
    13651.877100       0.922326
    13670.540000       0.920880
    13689.253900       0.919435
    13708.019200       0.917991
    13726.836000       0.916548
    13745.704500       0.915106
    13764.624900       0.913666
    13783.597500       0.912229
    13802.622500       0.910795
    13821.700100       0.909364
    13840.830400       0.907936
    13860.013900       0.906512
    13879.250500       0.905094
    13898.540700       0.903679
    13917.884500       0.902271
    13937.282200       0.900867
    13956.734100       0.899470
    13976.240400       0.898080
    13995.801300       0.896696
    14015.417000       0.895320
    14035.087700       0.893951
    14054.813800       0.892590
    14074.595400       0.891237
    14094.432700       0.889894
    14114.326000       0.888559
    14134.275600       0.887234
    14154.281700       0.885918
    14174.344400       0.884613
    14194.464200       0.883318
    14214.641100       0.882034
    14234.875400       0.880762
    14255.167500       0.879501
    14275.517500       0.878251
    14295.925700       0.877014
    14316.392300       0.875789
    14336.917600       0.874577
    14357.501800       0.873379
    14378.145200       0.872193
    14398.848100       0.871021
    14419.610700       0.869863
    14440.433200       0.868720
    14461.316000       0.867591
    14482.259200       0.866476
    14503.263200       0.865377
    14524.328200       0.864293
    14545.454500       0.863225
    14566.642400       0.862172
    14587.892000       0.861136
    14609.203800       0.860115
    14630.577900       0.859112
    14652.014700       0.858124
    14673.514300       0.857154
    14695.077100       0.856201
    14716.703500       0.855265
    14738.393500       0.854347
    14760.147600       0.853446
    14781.966000       0.852564
    14803.849000       0.851699
    14825.796900       0.850852
    14847.809900       0.850024
    14869.888500       0.849214
    14892.032800       0.848423
    14914.243100       0.847650
    14936.519800       0.846897
    14958.863100       0.846162
    14981.273400       0.845446
    15003.750900       0.844750
    15026.296000       0.844072
    15048.909000       0.843414
    15071.590100       0.842776
    15094.339600       0.842157
    15117.158000       0.841557
    15140.045400       0.840977
    15163.002300       0.840417
    15186.028900       0.839876
    15209.125500       0.839355
    15232.292500       0.838853
    15255.530100       0.838371
    15278.838800       0.837909
    15302.218800       0.837466
    15325.670500       0.837043
    15349.194200       0.836639
    15372.790200       0.836255
    15396.458800       0.835891
    15420.200500       0.835546
    15444.015400       0.835220
    15467.904100       0.834913
    15491.866800       0.834626
    15515.903800       0.834358
    15540.015500       0.834108
    15564.202300       0.833878
    15588.464500       0.833666
    15612.802500       0.833472
    15637.216600       0.833298
    15661.707100       0.833141
    15686.274500       0.833003
    15710.919100       0.832882
    15735.641200       0.832779
    15760.441300       0.832694
    15785.319700       0.832626
    15810.276700       0.832575
    15835.312700       0.832541
    15860.428200       0.832524
    15885.623500       0.832524
    15910.899000       0.832539
    15936.255000       0.832570
    15961.691900       0.832618
    15987.210200       0.832680
    16012.810200       0.832757
    16038.492400       0.832850
    16064.257000       0.832957
    16090.104600       0.833077
    16116.035500       0.833212
    16142.050000       0.833360
    16168.148700       0.833522
    16194.332000       0.833696
    16220.600200       0.833883
    16246.953700       0.834081
    16273.393000       0.834292
    16299.918500       0.834513
    16326.530600       0.834745
    16353.229800       0.834988
    16380.016400       0.835241
    16406.890900       0.835504
    16433.853700       0.835775
    16460.905300       0.836055
    16488.046200       0.836344
    16515.276600       0.836640
    16542.597200       0.836943
    16570.008300       0.837254
    16597.510400       0.837570
    16625.103900       0.837892
    16652.789300       0.838220
    16680.567100       0.838552
    16708.437800       0.838889
    16736.401700       0.839229
    16764.459300       0.839572
    16792.611300       0.839918
    16820.857900       0.840266
    16849.199700       0.840615
    16877.637100       0.840965
    16906.170800       0.841315
    16934.801000       0.841665
    16963.528400       0.842014
    16992.353400       0.842361
    17021.276600       0.842706
    17050.298400       0.843048
    17079.419300       0.843387
    17108.639900       0.843721
    17137.960600       0.844051
    17167.382000       0.844375
    17196.904600       0.844693
    17226.528900       0.845005
    17256.255400       0.845308
    17286.084700       0.845604
    17316.017300       0.845891
    17346.053800       0.846168
    17376.194600       0.846434
    17406.440400       0.846690
    17436.791600       0.846934
    17467.248900       0.847166
    17497.812800       0.847384
    17528.483800       0.847588
    17559.262500       0.847778
    17590.149500       0.847952
    17621.145400       0.848110
    17652.250700       0.848251
    17683.466000       0.848374
