38,   38, MVIRI VIS channel from srf_MET5_1995348_1995349_1801-Release_S10EL_10.dat
Number of data points:
806
Wavenumber (cm-1)   Filter response
     8350.730700       0.000000
     8357.710000       0.000000
     8364.701000       0.000000
     8371.703600       0.000002
     8378.718100       0.000004
     8385.744200       0.000009
     8392.782200       0.000016
     8399.832000       0.000027
     8406.893700       0.000041
     8413.967200       0.000059
     8421.052600       0.000082
     8428.150000       0.000109
     8435.259400       0.000143
     8442.380800       0.000182
     8449.514200       0.000228
     8456.659600       0.000280
     8463.817200       0.000340
     8470.986900       0.000407
     8478.168700       0.000482
     8485.362700       0.000565
     8492.569000       0.000657
     8499.787500       0.000758
     8507.018300       0.000868
     8514.261400       0.000987
     8521.516800       0.001117
     8528.784600       0.001256
     8536.064900       0.001406
     8543.357500       0.001566
     8550.662700       0.001738
     8557.980300       0.001920
     8565.310500       0.002114
     8572.653200       0.002320
     8580.008600       0.002537
     8587.376600       0.002767
     8594.757200       0.003009
     8602.150500       0.003263
     8609.556600       0.003530
     8616.975400       0.003810
     8624.407100       0.004103
     8631.851500       0.004410
     8639.308900       0.004730
     8646.779100       0.005063
     8654.262200       0.005410
     8661.758300       0.005772
     8669.267400       0.006147
     8676.789600       0.006537
     8684.324800       0.006941
     8691.873100       0.007360
     8699.434500       0.007794
     8707.009100       0.008242
     8714.596900       0.008706
     8722.198000       0.009184
     8729.812300       0.009678
     8737.439900       0.010188
     8745.080900       0.010713
     8752.735200       0.011253
     8760.403000       0.011810
     8768.084200       0.012383
     8775.778900       0.012971
     8783.487000       0.013576
     8791.208800       0.014197
     8798.944100       0.014835
     8806.693100       0.015489
     8814.455700       0.016160
     8822.232000       0.016848
     8830.022100       0.017552
     8837.825900       0.018274
     8845.643500       0.019013
     8853.475000       0.019769
     8861.320300       0.020542
     8869.179600       0.021333
     8877.052800       0.022141
     8884.940000       0.022967
     8892.841300       0.023811
     8900.756600       0.024673
     8908.686000       0.025553
     8916.629500       0.026451
     8924.587200       0.027367
     8932.559200       0.028301
     8940.545400       0.029254
     8948.545900       0.030225
     8956.560700       0.031215
     8964.589900       0.032224
     8972.633500       0.033251
     8980.691500       0.034298
     8988.764000       0.035363
     8996.851100       0.036448
     9004.952700       0.037552
     9013.068900       0.038675
     9021.199800       0.039818
     9029.345400       0.040980
     9037.505600       0.042162
     9045.680700       0.043363
     9053.870500       0.044585
     9062.075200       0.045826
     9070.294800       0.047088
     9078.529300       0.048369
     9086.778700       0.049671
     9095.043200       0.050993
     9103.322700       0.052336
     9111.617300       0.053699
     9119.927000       0.055082
     9128.251900       0.056487
     9136.592100       0.057912
     9144.947400       0.059358
     9153.318100       0.060825
     9161.704100       0.062313
     9170.105500       0.063822
     9178.522300       0.065353
     9186.954500       0.066905
     9195.402300       0.068478
     9203.865600       0.070073
     9212.344500       0.071689
     9220.839100       0.073327
     9229.349300       0.074987
     9237.875300       0.076669
     9246.417000       0.078372
     9254.974500       0.080098
     9263.547900       0.081846
     9272.137200       0.083616
     9280.742500       0.085408
     9289.363700       0.087223
     9298.000900       0.089060
     9306.654300       0.090919
     9315.323700       0.092801
     9324.009300       0.094706
     9332.711200       0.096633
     9341.429200       0.098583
     9350.163600       0.100555
     9358.914400       0.102551
     9367.681500       0.104569
     9376.465100       0.106611
     9385.265100       0.108675
     9394.081700       0.110763
     9402.914900       0.112873
     9411.764700       0.115007
     9420.631200       0.117164
     9429.514400       0.119344
     9438.414300       0.121548
     9447.331100       0.123775
     9456.264800       0.126025
     9465.215300       0.128299
     9474.182900       0.130596
     9483.167400       0.132916
     9492.169000       0.135260
     9501.187600       0.137628
     9510.223500       0.140019
     9519.276500       0.142433
     9528.346800       0.144871
     9537.434400       0.147333
     9546.539400       0.149818
     9555.661700       0.152327
     9564.801500       0.154859
     9573.958800       0.157415
     9583.133700       0.159994
     9592.326100       0.162597
     9601.536200       0.165224
     9610.764100       0.167873
     9620.009600       0.170547
     9629.273000       0.173244
     9638.554200       0.175964
     9647.853400       0.178708
     9657.170400       0.181475
     9666.505600       0.184266
     9675.858700       0.187080
     9685.230000       0.189917
     9694.619500       0.192777
     9704.027200       0.195660
     9713.453100       0.198567
     9722.897400       0.201497
     9732.360100       0.204449
     9741.841200       0.207425
     9751.340800       0.210423
     9760.859000       0.213444
     9770.395700       0.216488
     9779.951100       0.219554
     9789.525200       0.222643
     9799.118100       0.225754
     9808.729800       0.228888
     9818.360300       0.232044
     9828.009800       0.235222
     9837.678300       0.238422
     9847.365800       0.241644
     9857.072400       0.244887
     9866.798200       0.248153
     9876.543200       0.251440
     9886.307500       0.254748
     9896.091000       0.258078
     9905.894000       0.261428
     9915.716400       0.264800
     9925.558300       0.268193
     9935.419800       0.271606
     9945.300800       0.275040
     9955.201600       0.278495
     9965.122100       0.281969
     9975.062300       0.285464
     9985.022500       0.288978
     9995.002500       0.292513
    10005.002500       0.296067
    10015.022500       0.299640
    10025.062700       0.303232
    10035.122900       0.306844
    10045.203400       0.310474
    10055.304200       0.314123
    10065.425300       0.317790
    10075.566800       0.321476
    10085.728700       0.325179
    10095.911200       0.328901
    10106.114200       0.332639
    10116.337900       0.336395
    10126.582300       0.340168
    10136.847400       0.343958
    10147.133400       0.347765
    10157.440300       0.351588
    10167.768200       0.355427
    10178.117000       0.359283
    10188.487000       0.363153
    10198.878100       0.367040
    10209.290500       0.370941
    10219.724100       0.374857
    10230.179000       0.378787
    10240.655400       0.382733
    10251.153300       0.386692
    10261.672700       0.390665
    10272.213700       0.394651
    10282.776300       0.398650
    10293.360800       0.402663
    10303.967000       0.406688
    10314.595200       0.410726
    10325.245200       0.414775
    10335.917300       0.418837
    10346.611500       0.422909
    10357.327800       0.426993
    10368.066400       0.431087
    10378.827200       0.435192
    10389.610400       0.439308
    10400.416000       0.443433
    10411.244100       0.447567
    10422.094800       0.451711
    10432.968200       0.455863
    10443.864200       0.460025
    10454.783100       0.464194
    10465.724800       0.468371
    10476.689400       0.472555
    10487.677000       0.476747
    10498.687700       0.480946
    10509.721500       0.485151
    10520.778500       0.489362
    10531.858900       0.493579
    10542.962600       0.497801
    10554.089700       0.502028
    10565.240400       0.506260
    10576.414600       0.510496
    10587.612500       0.514736
    10598.834100       0.518980
    10610.079600       0.523227
    10621.348900       0.527477
    10632.642200       0.531729
    10643.959600       0.535983
    10655.301000       0.540239
    10666.666700       0.544496
    10678.056600       0.548754
    10689.470900       0.553013
    10700.909600       0.557271
    10712.372800       0.561530
    10723.860600       0.565788
    10735.373100       0.570044
    10746.910300       0.574300
    10758.472300       0.578553
    10770.059200       0.582805
    10781.671200       0.587053
    10793.308100       0.591299
    10804.970300       0.595541
    10816.657700       0.599780
    10828.370300       0.604014
    10840.108400       0.608244
    10851.871900       0.612469
    10863.661100       0.616688
    10875.475800       0.620902
    10887.316300       0.625109
    10899.182600       0.629310
    10911.074700       0.633504
    10922.992900       0.637690
    10934.937100       0.641869
    10946.907500       0.646039
    10958.904100       0.650201
    10970.927000       0.654354
    10982.976400       0.658498
    10995.052200       0.662631
    11007.154700       0.666755
    11019.283700       0.670868
    11031.439600       0.674970
    11043.622300       0.679060
    11055.832000       0.683139
    11068.068600       0.687205
    11080.332400       0.691260
    11092.623400       0.695300
    11104.941700       0.699328
    11117.287400       0.703342
    11129.660500       0.707342
    11142.061300       0.711327
    11154.489700       0.715297
    11166.945800       0.719252
    11179.429800       0.723191
    11191.941800       0.727115
    11204.481800       0.731021
    11217.049900       0.734911
    11229.646300       0.738784
    11242.270900       0.742639
    11254.924000       0.746476
    11267.605600       0.750295
    11280.315800       0.754095
    11293.054800       0.757876
    11305.822500       0.761637
    11318.619100       0.765379
    11331.444800       0.769101
    11344.299500       0.772802
    11357.183400       0.776482
    11370.096600       0.780141
    11383.039300       0.783779
    11396.011400       0.787394
    11409.013100       0.790987
    11422.044500       0.794558
    11435.105800       0.798106
    11448.196900       0.801630
    11461.318100       0.805131
    11474.469300       0.808608
    11487.650800       0.812060
    11500.862600       0.815488
    11514.104800       0.818892
    11527.377500       0.822269
    11540.680900       0.825622
    11554.015000       0.828949
    11567.380000       0.832249
    11580.775900       0.835523
    11594.202900       0.838770
    11607.661100       0.841991
    11621.150500       0.845184
    11634.671300       0.848349
    11648.223600       0.851487
    11661.807600       0.854596
    11675.423200       0.857677
    11689.070700       0.860730
    11702.750100       0.863753
    11716.461600       0.866747
    11730.205300       0.869712
    11743.981200       0.872647
    11757.789500       0.875553
    11771.630400       0.878428
    11785.503800       0.881272
    11799.410000       0.884086
    11813.349100       0.886870
    11827.321100       0.889622
    11841.326200       0.892343
    11855.364600       0.895032
    11869.436200       0.897690
    11883.541300       0.900316
    11897.680000       0.902909
    11911.852300       0.905471
    11926.058400       0.908000
    11940.298500       0.910496
    11954.572600       0.912960
    11968.880900       0.915391
    11983.223500       0.917788
    11997.600500       0.920152
    12012.012000       0.922483
    12026.458200       0.924780
    12040.939200       0.927044
    12055.455100       0.929273
    12070.006000       0.931469
    12084.592100       0.933631
    12099.213600       0.935758
    12113.870400       0.937851
    12128.562800       0.939909
    12143.290800       0.941934
    12158.054700       0.943923
    12172.854500       0.945878
    12187.690400       0.947797
    12202.562500       0.949683
    12217.471000       0.951533
    12232.415900       0.953348
    12247.397400       0.955128
    12262.415700       0.956873
    12277.470800       0.958582
    12292.563000       0.960257
    12307.692300       0.961896
    12322.858900       0.963500
    12338.062900       0.965069
    12353.304500       0.966603
    12368.583800       0.968101
    12383.900900       0.969564
    12399.256000       0.970991
    12414.649300       0.972383
    12430.080800       0.973740
    12445.550700       0.975062
    12461.059200       0.976349
    12476.606400       0.977600
    12492.192400       0.978816
    12507.817400       0.979997
    12523.481500       0.981143
    12539.185000       0.982254
    12554.927800       0.983330
    12570.710200       0.984371
    12586.532400       0.985377
    12602.394500       0.986348
    12618.296500       0.987285
    12634.238800       0.988188
    12650.221400       0.989056
    12666.244500       0.989889
    12682.308200       0.990689
    12698.412700       0.991454
    12714.558200       0.992185
    12730.744700       0.992883
    12746.972600       0.993546
    12763.241900       0.994176
    12779.552700       0.994773
    12795.905300       0.995337
    12812.299800       0.995867
    12828.736400       0.996364
    12845.215200       0.996829
    12861.736300       0.997261
    12878.300100       0.997660
    12894.906500       0.998028
    12911.555800       0.998363
    12928.248200       0.998666
    12944.983800       0.998938
    12961.762800       0.999179
    12978.585300       0.999388
    12995.451600       0.999566
    13012.361700       0.999713
    13029.316000       0.999830
    13046.314400       0.999917
    13063.357300       0.999973
    13080.444700       1.000000
    13097.576900       0.999997
    13114.754100       0.999965
    13131.976400       0.999904
    13149.243900       0.999814
    13166.556900       0.999695
    13183.915600       0.999548
    13201.320100       0.999374
    13218.770700       0.999171
    13236.267400       0.998942
    13253.810500       0.998685
    13271.400100       0.998401
    13289.036500       0.998091
    13306.719900       0.997755
    13324.450400       0.997393
    13342.228200       0.997006
    13360.053400       0.996593
    13377.926400       0.996155
    13395.847300       0.995693
    13413.816200       0.995206
    13431.833400       0.994696
    13449.899100       0.994162
    13468.013500       0.993605
    13486.176700       0.993025
    13504.388900       0.992423
    13522.650400       0.991798
    13540.961400       0.991152
    13559.322000       0.990484
    13577.732500       0.989795
    13596.193100       0.989085
    13614.703900       0.988356
    13633.265200       0.987606
    13651.877100       0.986836
    13670.540000       0.986048
    13689.253900       0.985240
    13708.019200       0.984415
    13726.836000       0.983571
    13745.704500       0.982709
    13764.624900       0.981831
    13783.597500       0.980935
    13802.622500       0.980023
    13821.700100       0.979095
    13840.830400       0.978152
    13860.013900       0.977193
    13879.250500       0.976219
    13898.540700       0.975231
    13917.884500       0.974228
    13937.282200       0.973213
    13956.734100       0.972183
    13976.240400       0.971142
    13995.801300       0.970087
    14015.417000       0.969021
    14035.087700       0.967943
    14054.813800       0.966855
    14074.595400       0.965755
    14094.432700       0.964645
    14114.326000       0.963525
    14134.275600       0.962396
    14154.281700       0.961258
    14174.344400       0.960111
    14194.464200       0.958956
    14214.641100       0.957793
    14234.875400       0.956623
    14255.167500       0.955446
    14275.517500       0.954262
    14295.925700       0.953072
    14316.392300       0.951876
    14336.917600       0.950676
    14357.501800       0.949470
    14378.145200       0.948260
    14398.848100       0.947046
    14419.610700       0.945828
    14440.433200       0.944607
    14461.316000       0.943383
    14482.259200       0.942157
    14503.263200       0.940929
    14524.328200       0.939699
    14545.454500       0.938468
    14566.642400       0.937236
    14587.892000       0.936004
    14609.203800       0.934772
    14630.577900       0.933540
    14652.014700       0.932309
    14673.514300       0.931079
    14695.077100       0.929851
    14716.703500       0.928625
    14738.393500       0.927401
    14760.147600       0.926180
    14781.966000       0.924962
    14803.849000       0.923747
    14825.796900       0.922536
    14847.809900       0.921329
    14869.888500       0.920127
    14892.032800       0.918930
    14914.243100       0.917738
    14936.519800       0.916551
    14958.863100       0.915371
    14981.273400       0.914196
    15003.750900       0.913029
    15026.296000       0.911868
    15048.909000       0.910715
    15071.590100       0.909569
    15094.339600       0.908431
    15117.158000       0.907301
    15140.045400       0.906179
    15163.002300       0.905067
    15186.028900       0.903964
    15209.125500       0.902869
    15232.292500       0.901785
    15255.530100       0.900711
    15278.838800       0.899647
    15302.218800       0.898593
    15325.670500       0.897550
    15349.194200       0.896518
    15372.790200       0.895497
    15396.458800       0.894488
    15420.200500       0.893490
    15444.015400       0.892505
    15467.904100       0.891531
    15491.866800       0.890570
    15515.903800       0.889622
    15540.015500       0.888686
    15564.202300       0.887763
    15588.464500       0.886854
    15612.802500       0.885958
    15637.216600       0.885075
    15661.707100       0.884206
    15686.274500       0.883351
    15710.919100       0.882510
    15735.641200       0.881683
    15760.441300       0.880870
    15785.319700       0.880071
    15810.276700       0.879287
    15835.312700       0.878518
    15860.428200       0.877763
    15885.623500       0.877023
    15910.899000       0.876298
    15936.255000       0.875588
    15961.691900       0.874893
    15987.210200       0.874213
    16012.810200       0.873548
    16038.492400       0.872898
    16064.257000       0.872263
    16090.104600       0.871644
    16116.035500       0.871040
    16142.050000       0.870450
    16168.148700       0.869877
    16194.332000       0.869318
    16220.600200       0.868774
    16246.953700       0.868246
    16273.393000       0.867732
    16299.918500       0.867234
    16326.530600       0.866751
    16353.229800       0.866282
    16380.016400       0.865828
    16406.890900       0.865389
    16433.853700       0.864965
    16460.905300       0.864555
    16488.046200       0.864159
    16515.276600       0.863777
    16542.597200       0.863410
    16570.008300       0.863056
    16597.510400       0.862717
    16625.103900       0.862390
    16652.789300       0.862078
    16680.567100       0.861778
    16708.437800       0.861491
    16736.401700       0.861217
    16764.459300       0.860956
    16792.611300       0.860707
    16820.857900       0.860469
    16849.199700       0.860244
    16877.637100       0.860030
    16906.170800       0.859828
    16934.801000       0.859636
    16963.528400       0.859455
    16992.353400       0.859284
    17021.276600       0.859123
    17050.298400       0.858972
    17079.419300       0.858831
    17108.639900       0.858698
    17137.960600       0.858573
    17167.382000       0.858457
    17196.904600       0.858349
    17226.528900       0.858248
    17256.255400       0.858154
    17286.084700       0.858067
