30,   30, MVIRI VIS channel from srf_MET5_1994348_1994349_1801-Release_S10EL_10.dat
Number of data points:
806
Wavenumber (cm-1)   Filter response
     8350.730700       0.000000
     8357.710000       0.000000
     8364.701000       0.000000
     8371.703600       0.000001
     8378.718100       0.000004
     8385.744200       0.000009
     8392.782200       0.000016
     8399.832000       0.000026
     8406.893700       0.000040
     8413.967200       0.000058
     8421.052600       0.000081
     8428.150000       0.000109
     8435.259400       0.000142
     8442.380800       0.000181
     8449.514200       0.000227
     8456.659600       0.000279
     8463.817200       0.000338
     8470.986900       0.000405
     8478.168700       0.000479
     8485.362700       0.000562
     8492.569000       0.000654
     8499.787500       0.000754
     8507.018300       0.000863
     8514.261400       0.000982
     8521.516800       0.001111
     8528.784600       0.001250
     8536.064900       0.001399
     8543.357500       0.001558
     8550.662700       0.001729
     8557.980300       0.001911
     8565.310500       0.002104
     8572.653200       0.002308
     8580.008600       0.002525
     8587.376600       0.002753
     8594.757200       0.002994
     8602.150500       0.003247
     8609.556600       0.003513
     8616.975400       0.003792
     8624.407100       0.004083
     8631.851500       0.004388
     8639.308900       0.004707
     8646.779100       0.005038
     8654.262200       0.005384
     8661.758300       0.005744
     8669.267400       0.006117
     8676.789600       0.006505
     8684.324800       0.006908
     8691.873100       0.007325
     8699.434500       0.007756
     8707.009100       0.008202
     8714.596900       0.008664
     8722.198000       0.009140
     8729.812300       0.009632
     8737.439900       0.010139
     8745.080900       0.010662
     8752.735200       0.011200
     8760.403000       0.011754
     8768.084200       0.012324
     8775.778900       0.012910
     8783.487000       0.013512
     8791.208800       0.014131
     8798.944100       0.014765
     8806.693100       0.015417
     8814.455700       0.016085
     8822.232000       0.016769
     8830.022100       0.017470
     8837.825900       0.018189
     8845.643500       0.018925
     8853.475000       0.019677
     8861.320300       0.020447
     8869.179600       0.021234
     8877.052800       0.022039
     8884.940000       0.022862
     8892.841300       0.023702
     8900.756600       0.024560
     8908.686000       0.025436
     8916.629500       0.026330
     8924.587200       0.027242
     8932.559200       0.028172
     8940.545400       0.029121
     8948.545900       0.030088
     8956.560700       0.031074
     8964.589900       0.032079
     8972.633500       0.033102
     8980.691500       0.034144
     8988.764000       0.035205
     8996.851100       0.036285
     9004.952700       0.037384
     9013.068900       0.038503
     9021.199800       0.039641
     9029.345400       0.040798
     9037.505600       0.041975
     9045.680700       0.043172
     9053.870500       0.044388
     9062.075200       0.045624
     9070.294800       0.046880
     9078.529300       0.048157
     9086.778700       0.049453
     9095.043200       0.050770
     9103.322700       0.052107
     9111.617300       0.053465
     9119.927000       0.054843
     9128.251900       0.056242
     9136.592100       0.057661
     9144.947400       0.059102
     9153.318100       0.060563
     9161.704100       0.062045
     9170.105500       0.063548
     9178.522300       0.065073
     9186.954500       0.066619
     9195.402300       0.068186
     9203.865600       0.069775
     9212.344500       0.071385
     9220.839100       0.073017
     9229.349300       0.074671
     9237.875300       0.076346
     9246.417000       0.078043
     9254.974500       0.079762
     9263.547900       0.081504
     9272.137200       0.083267
     9280.742500       0.085053
     9289.363700       0.086860
     9298.000900       0.088691
     9306.654300       0.090543
     9315.323700       0.092418
     9324.009300       0.094316
     9332.711200       0.096236
     9341.429200       0.098179
     9350.163600       0.100145
     9358.914400       0.102133
     9367.681500       0.104144
     9376.465100       0.106178
     9385.265100       0.108235
     9394.081700       0.110316
     9402.914900       0.112419
     9411.764700       0.114545
     9420.631200       0.116695
     9429.514400       0.118867
     9438.414300       0.121063
     9447.331100       0.123282
     9456.264800       0.125525
     9465.215300       0.127791
     9474.182900       0.130080
     9483.167400       0.132393
     9492.169000       0.134729
     9501.187600       0.137089
     9510.223500       0.139472
     9519.276500       0.141878
     9528.346800       0.144308
     9537.434400       0.146762
     9546.539400       0.149239
     9555.661700       0.151739
     9564.801500       0.154263
     9573.958800       0.156811
     9583.133700       0.159382
     9592.326100       0.161977
     9601.536200       0.164595
     9610.764100       0.167236
     9620.009600       0.169902
     9629.273000       0.172590
     9638.554200       0.175302
     9647.853400       0.178037
     9657.170400       0.180796
     9666.505600       0.183578
     9675.858700       0.186383
     9685.230000       0.189212
     9694.619500       0.192064
     9704.027200       0.194938
     9713.453100       0.197836
     9722.897400       0.200757
     9732.360100       0.203701
     9741.841200       0.206668
     9751.340800       0.209657
     9760.859000       0.212670
     9770.395700       0.215705
     9779.951100       0.218762
     9789.525200       0.221843
     9799.118100       0.224945
     9808.729800       0.228070
     9818.360300       0.231217
     9828.009800       0.234386
     9837.678300       0.237578
     9847.365800       0.240791
     9857.072400       0.244025
     9866.798200       0.247282
     9876.543200       0.250560
     9886.307500       0.253860
     9896.091000       0.257181
     9905.894000       0.260523
     9915.716400       0.263886
     9925.558300       0.267269
     9935.419800       0.270674
     9945.300800       0.274100
     9955.201600       0.277545
     9965.122100       0.281011
     9975.062300       0.284497
     9985.022500       0.288003
     9995.002500       0.291529
    10005.002500       0.295074
    10015.022500       0.298638
    10025.062700       0.302222
    10035.122900       0.305825
    10045.203400       0.309447
    10055.304200       0.313087
    10065.425300       0.316746
    10075.566800       0.320423
    10085.728700       0.324118
    10095.911200       0.327831
    10106.114200       0.331561
    10116.337900       0.335309
    10126.582300       0.339074
    10136.847400       0.342856
    10147.133400       0.346654
    10157.440300       0.350469
    10167.768200       0.354300
    10178.117000       0.358147
    10188.487000       0.362010
    10198.878100       0.365888
    10209.290500       0.369781
    10219.724100       0.373690
    10230.179000       0.377612
    10240.655400       0.381550
    10251.153300       0.385501
    10261.672700       0.389466
    10272.213700       0.393445
    10282.776300       0.397437
    10293.360800       0.401442
    10303.967000       0.405460
    10314.595200       0.409490
    10325.245200       0.413532
    10335.917300       0.417587
    10346.611500       0.421652
    10357.327800       0.425729
    10368.066400       0.429816
    10378.827200       0.433914
    10389.610400       0.438023
    10400.416000       0.442141
    10411.244100       0.446269
    10422.094800       0.450406
    10432.968200       0.454552
    10443.864200       0.458707
    10454.783100       0.462870
    10465.724800       0.467041
    10476.689400       0.471219
    10487.677000       0.475405
    10498.687700       0.479598
    10509.721500       0.483797
    10520.778500       0.488002
    10531.858900       0.492214
    10542.962600       0.496431
    10554.089700       0.500652
    10565.240400       0.504879
    10576.414600       0.509110
    10587.612500       0.513345
    10598.834100       0.517584
    10610.079600       0.521826
    10621.348900       0.526070
    10632.642200       0.530318
    10643.959600       0.534568
    10655.301000       0.538819
    10666.666700       0.543072
    10678.056600       0.547325
    10689.470900       0.551580
    10700.909600       0.555835
    10712.372800       0.560089
    10723.860600       0.564343
    10735.373100       0.568597
    10746.910300       0.572849
    10758.472300       0.577099
    10770.059200       0.581347
    10781.671200       0.585592
    10793.308100       0.589835
    10804.970300       0.594075
    10816.657700       0.598311
    10828.370300       0.602543
    10840.108400       0.606770
    10851.871900       0.610992
    10863.661100       0.615210
    10875.475800       0.619421
    10887.316300       0.623627
    10899.182600       0.627826
    10911.074700       0.632018
    10922.992900       0.636203
    10934.937100       0.640381
    10946.907500       0.644550
    10958.904100       0.648711
    10970.927000       0.652863
    10982.976400       0.657006
    10995.052200       0.661139
    11007.154700       0.665262
    11019.283700       0.669375
    11031.439600       0.673477
    11043.622300       0.677567
    11055.832000       0.681646
    11068.068600       0.685713
    11080.332400       0.689768
    11092.623400       0.693809
    11104.941700       0.697838
    11117.287400       0.701853
    11129.660500       0.705853
    11142.061300       0.709840
    11154.489700       0.713812
    11166.945800       0.717768
    11179.429800       0.721709
    11191.941800       0.725635
    11204.481800       0.729544
    11217.049900       0.733436
    11229.646300       0.737311
    11242.270900       0.741169
    11254.924000       0.745009
    11267.605600       0.748830
    11280.315800       0.752633
    11293.054800       0.756418
    11305.822500       0.760183
    11318.619100       0.763928
    11331.444800       0.767653
    11344.299500       0.771358
    11357.183400       0.775043
    11370.096600       0.778706
    11383.039300       0.782348
    11396.011400       0.785968
    11409.013100       0.789566
    11422.044500       0.793141
    11435.105800       0.796694
    11448.196900       0.800224
    11461.318100       0.803730
    11474.469300       0.807212
    11487.650800       0.810671
    11500.862600       0.814105
    11514.104800       0.817514
    11527.377500       0.820898
    11540.680900       0.824257
    11554.015000       0.827590
    11567.380000       0.830897
    11580.775900       0.834178
    11594.202900       0.837432
    11607.661100       0.840660
    11621.150500       0.843860
    11634.671300       0.847033
    11648.223600       0.850178
    11661.807600       0.853296
    11675.423200       0.856385
    11689.070700       0.859445
    11702.750100       0.862477
    11716.461600       0.865480
    11730.205300       0.868453
    11743.981200       0.871397
    11757.789500       0.874312
    11771.630400       0.877196
    11785.503800       0.880050
    11799.410000       0.882873
    11813.349100       0.885666
    11827.321100       0.888428
    11841.326200       0.891158
    11855.364600       0.893858
    11869.436200       0.896526
    11883.541300       0.899162
    11897.680000       0.901766
    11911.852300       0.904338
    11926.058400       0.906878
    11940.298500       0.909385
    11954.572600       0.911860
    11968.880900       0.914302
    11983.223500       0.916710
    11997.600500       0.919086
    12012.012000       0.921429
    12026.458200       0.923737
    12040.939200       0.926013
    12055.455100       0.928254
    12070.006000       0.930462
    12084.592100       0.932636
    12099.213600       0.934776
    12113.870400       0.936881
    12128.562800       0.938953
    12143.290800       0.940989
    12158.054700       0.942992
    12172.854500       0.944960
    12187.690400       0.946893
    12202.562500       0.948791
    12217.471000       0.950654
    12232.415900       0.952483
    12247.397400       0.954277
    12262.415700       0.956035
    12277.470800       0.957759
    12292.563000       0.959448
    12307.692300       0.961101
    12322.858900       0.962719
    12338.062900       0.964302
    12353.304500       0.965850
    12368.583800       0.967363
    12383.900900       0.968841
    12399.256000       0.970283
    12414.649300       0.971690
    12430.080800       0.973062
    12445.550700       0.974399
    12461.059200       0.975700
    12476.606400       0.976967
    12492.192400       0.978198
    12507.817400       0.979395
    12523.481500       0.980556
    12539.185000       0.981683
    12554.927800       0.982774
    12570.710200       0.983831
    12586.532400       0.984854
    12602.394500       0.985841
    12618.296500       0.986794
    12634.238800       0.987713
    12650.221400       0.988597
    12666.244500       0.989447
    12682.308200       0.990262
    12698.412700       0.991044
    12714.558200       0.991792
    12730.744700       0.992506
    12746.972600       0.993186
    12763.241900       0.993833
    12779.552700       0.994447
    12795.905300       0.995027
    12812.299800       0.995574
    12828.736400       0.996088
    12845.215200       0.996570
    12861.736300       0.997019
    12878.300100       0.997436
    12894.906500       0.997820
    12911.555800       0.998173
    12928.248200       0.998494
    12944.983800       0.998783
    12961.762800       0.999041
    12978.585300       0.999267
    12995.451600       0.999463
    13012.361700       0.999628
    13029.316000       0.999762
    13046.314400       0.999867
    13063.357300       0.999941
    13080.444700       0.999985
    13097.576900       1.000000
    13114.754100       0.999986
    13131.976400       0.999942
    13149.243900       0.999870
    13166.556900       0.999769
    13183.915600       0.999641
    13201.320100       0.999484
    13218.770700       0.999299
    13236.267400       0.999088
    13253.810500       0.998849
    13271.400100       0.998583
    13289.036500       0.998291
    13306.719900       0.997973
    13324.450400       0.997629
    13342.228200       0.997260
    13360.053400       0.996865
    13377.926400       0.996445
    13395.847300       0.996001
    13413.816200       0.995533
    13431.833400       0.995041
    13449.899100       0.994525
    13468.013500       0.993986
    13486.176700       0.993424
    13504.388900       0.992840
    13522.650400       0.992234
    13540.961400       0.991605
    13559.322000       0.990956
    13577.732500       0.990285
    13596.193100       0.989594
    13614.703900       0.988882
    13633.265200       0.988150
    13651.877100       0.987399
    13670.540000       0.986629
    13689.253900       0.985840
    13708.019200       0.985032
    13726.836000       0.984206
    13745.704500       0.983363
    13764.624900       0.982502
    13783.597500       0.981625
    13802.622500       0.980731
    13821.700100       0.979821
    13840.830400       0.978896
    13860.013900       0.977955
    13879.250500       0.976999
    13898.540700       0.976029
    13917.884500       0.975045
    13937.282200       0.974047
    13956.734100       0.973036
    13976.240400       0.972012
    13995.801300       0.970976
    14015.417000       0.969928
    14035.087700       0.968868
    14054.813800       0.967797
    14074.595400       0.966715
    14094.432700       0.965623
    14114.326000       0.964522
    14134.275600       0.963410
    14154.281700       0.962290
    14174.344400       0.961161
    14194.464200       0.960024
    14214.641100       0.958878
    14234.875400       0.957726
    14255.167500       0.956567
    14275.517500       0.955401
    14295.925700       0.954229
    14316.392300       0.953051
    14336.917600       0.951868
    14357.501800       0.950680
    14378.145200       0.949487
    14398.848100       0.948291
    14419.610700       0.947090
    14440.433200       0.945887
    14461.316000       0.944681
    14482.259200       0.943472
    14503.263200       0.942262
    14524.328200       0.941049
    14545.454500       0.939836
    14566.642400       0.938622
    14587.892000       0.937407
    14609.203800       0.936192
    14630.577900       0.934978
    14652.014700       0.933765
    14673.514300       0.932553
    14695.077100       0.931342
    14716.703500       0.930133
    14738.393500       0.928926
    14760.147600       0.927723
    14781.966000       0.926522
    14803.849000       0.925325
    14825.796900       0.924131
    14847.809900       0.922942
    14869.888500       0.921757
    14892.032800       0.920577
    14914.243100       0.919402
    14936.519800       0.918233
    14958.863100       0.917070
    14981.273400       0.915913
    15003.750900       0.914763
    15026.296000       0.913620
    15048.909000       0.912484
    15071.590100       0.911355
    15094.339600       0.910235
    15117.158000       0.909122
    15140.045400       0.908018
    15163.002300       0.906923
    15186.028900       0.905837
    15209.125500       0.904761
    15232.292500       0.903694
    15255.530100       0.902637
    15278.838800       0.901590
    15302.218800       0.900554
    15325.670500       0.899528
    15349.194200       0.898514
    15372.790200       0.897511
    15396.458800       0.896519
    15420.200500       0.895539
    15444.015400       0.894571
    15467.904100       0.893615
    15491.866800       0.892672
    15515.903800       0.891741
    15540.015500       0.890823
    15564.202300       0.889918
    15588.464500       0.889026
    15612.802500       0.888148
    15637.216600       0.887283
    15661.707100       0.886432
    15686.274500       0.885595
    15710.919100       0.884771
    15735.641200       0.883962
    15760.441300       0.883168
    15785.319700       0.882387
    15810.276700       0.881621
    15835.312700       0.880870
    15860.428200       0.880133
    15885.623500       0.879412
    15910.899000       0.878705
    15936.255000       0.878013
    15961.691900       0.877336
    15987.210200       0.876675
    16012.810200       0.876028
    16038.492400       0.875397
    16064.257000       0.874781
    16090.104600       0.874180
    16116.035500       0.873594
    16142.050000       0.873024
    16168.148700       0.872469
    16194.332000       0.871929
    16220.600200       0.871404
    16246.953700       0.870895
    16273.393000       0.870401
    16299.918500       0.869921
    16326.530600       0.869457
    16353.229800       0.869008
    16380.016400       0.868573
    16406.890900       0.868154
    16433.853700       0.867748
    16460.905300       0.867358
    16488.046200       0.866982
    16515.276600       0.866620
    16542.597200       0.866272
    16570.008300       0.865938
    16597.510400       0.865618
    16625.103900       0.865312
    16652.789300       0.865019
    16680.567100       0.864740
    16708.437800       0.864473
    16736.401700       0.864219
    16764.459300       0.863978
    16792.611300       0.863749
    16820.857900       0.863533
    16849.199700       0.863328
    16877.637100       0.863135
    16906.170800       0.862953
    16934.801000       0.862782
    16963.528400       0.862621
    16992.353400       0.862471
    17021.276600       0.862332
    17050.298400       0.862201
    17079.419300       0.862081
    17108.639900       0.861969
    17137.960600       0.861866
    17167.382000       0.861771
    17196.904600       0.861684
    17226.528900       0.861605
    17256.255400       0.861532
    17286.084700       0.861467
