   3  ,noaa_14_hirs_03.flt
Number of data points:
100
Wavenumber (cm-1)   Filter response
      669.520000       0.000000
      669.920000       0.000000
      670.320000       0.000000
      670.730000       0.000000
      671.140000       0.000000
      671.540000       0.000000
      671.940000       0.000000
      672.350000       0.000000
      672.750000       0.000000
      673.150000       0.001617
      673.560000       0.001613
      673.970000       0.003923
      674.370000       0.003944
      674.770000       0.005770
      675.180000       0.007501
      675.590000       0.009980
      675.990000       0.011914
      676.390000       0.016373
      676.800000       0.022100
      677.200000       0.026171
      677.610000       0.034372
      678.020000       0.047290
      678.430000       0.055738
      678.840000       0.072555
      679.250000       0.090999
      679.620000       0.114020
      680.010000       0.139490
      680.420000       0.169330
      680.820000       0.204870
      681.230000       0.245140
      681.610000       0.288800
      682.020000       0.331910
      682.430000       0.379010
      682.800000       0.422320
      683.220000       0.468240
      683.640000       0.517470
      684.050000       0.558610
      684.420000       0.605970
      684.820000       0.650400
      685.220000       0.696400
      685.620000       0.734110
      686.020000       0.783320
      686.420000       0.827810
      686.820000       0.865600
      687.210000       0.902800
      687.610000       0.939140
      688.010000       0.963670
      688.410000       0.978230
      688.820000       0.995690
      689.220000       1.000000
      689.610000       0.997120
      690.040000       0.987760
      690.440000       0.976530
      690.840000       0.958530
      691.230000       0.945710
      691.630000       0.923020
      692.020000       0.907430
      692.420000       0.890950
      692.810000       0.874210
      693.260000       0.854030
      693.650000       0.836460
      694.040000       0.804050
      694.430000       0.760420
      694.870000       0.715780
      695.250000       0.659640
      695.640000       0.587870
      696.100000       0.510980
      696.470000       0.437290
      696.950000       0.366110
      697.320000       0.308460
      697.690000       0.251280
      698.060000       0.200530
      698.530000       0.161910
      698.930000       0.131290
      699.320000       0.103710
      699.680000       0.078240
      700.080000       0.064564
      700.480000       0.046426
      700.870000       0.039430
      701.270000       0.027466
      701.670000       0.022537
      702.070000       0.019836
      702.460000       0.018176
      702.860000       0.015167
      703.260000       0.012911
      703.650000       0.007948
      704.050000       0.000000
      704.450000       0.000000
      704.840000       0.000000
      705.240000       0.000000
      705.630000       0.000000
      706.030000       0.000000
      706.430000       0.000000
      706.820000       0.000000
      707.220000       0.000000
      707.610000       0.000000
      708.010000       0.000000
      708.410000       0.000000
      708.810000       0.000000
      709.200000       0.000000
