1,   1, MVIRI VIS channel from srf_MET7_1997258_1997259_1801-Release_S10EE_10.dat
Number of data points:
793
Wavenumber (cm-1)   Filter response
     8442.380800       0.000000
     8449.514200       0.000000
     8456.659600       0.000004
     8463.817200       0.000051
     8470.986900       0.000151
     8478.168700       0.000302
     8485.362700       0.000504
     8492.569000       0.000753
     8499.787500       0.001049
     8507.018300       0.001391
     8514.261400       0.001777
     8521.516800       0.002207
     8528.784600       0.002678
     8536.064900       0.003190
     8543.357500       0.003741
     8550.662700       0.004331
     8557.980300       0.004959
     8565.310500       0.005623
     8572.653200       0.006323
     8580.008600       0.007057
     8587.376600       0.007825
     8594.757200       0.008626
     8602.150500       0.009459
     8609.556600       0.010323
     8616.975400       0.011218
     8624.407100       0.012143
     8631.851500       0.013097
     8639.308900       0.014080
     8646.779100       0.015090
     8654.262200       0.016128
     8661.758300       0.017193
     8669.267400       0.018284
     8676.789600       0.019400
     8684.324800       0.020542
     8691.873100       0.021709
     8699.434500       0.022900
     8707.009100       0.024115
     8714.596900       0.025354
     8722.198000       0.026616
     8729.812300       0.027901
     8737.439900       0.029208
     8745.080900       0.030538
     8752.735200       0.031889
     8760.403000       0.033263
     8768.084200       0.034658
     8775.778900       0.036074
     8783.487000       0.037511
     8791.208800       0.038969
     8798.944100       0.040448
     8806.693100       0.041947
     8814.455700       0.043467
     8822.232000       0.045007
     8830.022100       0.046567
     8837.825900       0.048147
     8845.643500       0.049747
     8853.475000       0.051367
     8861.320300       0.053007
     8869.179600       0.054667
     8877.052800       0.056347
     8884.940000       0.058046
     8892.841300       0.059764
     8900.756600       0.061503
     8908.686000       0.063261
     8916.629500       0.065039
     8924.587200       0.066837
     8932.559200       0.068654
     8940.545400       0.070491
     8948.545900       0.072348
     8956.560700       0.074225
     8964.589900       0.076121
     8972.633500       0.078038
     8980.691500       0.079974
     8988.764000       0.081931
     8996.851100       0.083907
     9004.952700       0.085904
     9013.068900       0.087921
     9021.199800       0.089958
     9029.345400       0.092017
     9037.505600       0.094095
     9045.680700       0.096194
     9053.870500       0.098313
     9062.075200       0.100454
     9070.294800       0.102615
     9078.529300       0.104797
     9086.778700       0.107001
     9095.043200       0.109226
     9103.322700       0.111471
     9111.617300       0.113738
     9119.927000       0.116027
     9128.251900       0.118337
     9136.592100       0.120669
     9144.947400       0.123023
     9153.318100       0.125398
     9161.704100       0.127796
     9170.105500       0.130215
     9178.522300       0.132657
     9186.954500       0.135121
     9195.402300       0.137607
     9203.865600       0.140115
     9212.344500       0.142646
     9220.839100       0.145200
     9229.349300       0.147776
     9237.875300       0.150375
     9246.417000       0.152996
     9254.974500       0.155641
     9263.547900       0.158308
     9272.137200       0.160998
     9280.742500       0.163712
     9289.363700       0.166448
     9298.000900       0.169208
     9306.654300       0.171991
     9315.323700       0.174797
     9324.009300       0.177626
     9332.711200       0.180479
     9341.429200       0.183354
     9350.163600       0.186253
     9358.914400       0.189176
     9367.681500       0.192122
     9376.465100       0.195091
     9385.265100       0.198083
     9394.081700       0.201099
     9402.914900       0.204138
     9411.764700       0.207201
     9420.631200       0.210287
     9429.514400       0.213396
     9438.414300       0.216529
     9447.331100       0.219684
     9456.264800       0.222863
     9465.215300       0.226065
     9474.182900       0.229290
     9483.167400       0.232539
     9492.169000       0.235809
     9501.187600       0.239104
     9510.223500       0.242421
     9519.276500       0.245760
     9528.346800       0.249122
     9537.434400       0.252507
     9546.539400       0.255914
     9555.661700       0.259344
     9564.801500       0.262795
     9573.958800       0.266269
     9583.133700       0.269766
     9592.326100       0.273283
     9601.536200       0.276823
     9610.764100       0.280383
     9620.009600       0.283966
     9629.273000       0.287570
     9638.554200       0.291194
     9647.853400       0.294840
     9657.170400       0.298507
     9666.505600       0.302194
     9675.858700       0.305902
     9685.230000       0.309629
     9694.619500       0.313377
     9704.027200       0.317144
     9713.453100       0.320932
     9722.897400       0.324738
     9732.360100       0.328564
     9741.841200       0.332409
     9751.340800       0.336272
     9760.859000       0.340154
     9770.395700       0.344054
     9779.951100       0.347972
     9789.525200       0.351908
     9799.118100       0.355861
     9808.729800       0.359831
     9818.360300       0.363818
     9828.009800       0.367822
     9837.678300       0.371842
     9847.365800       0.375879
     9857.072400       0.379931
     9866.798200       0.383999
     9876.543200       0.388081
     9886.307500       0.392179
     9896.091000       0.396291
     9905.894000       0.400417
     9915.716400       0.404558
     9925.558300       0.408712
     9935.419800       0.412879
     9945.300800       0.417059
     9955.201600       0.421252
     9965.122100       0.425457
     9975.062300       0.429673
     9985.022500       0.433902
     9995.002500       0.438141
    10005.002500       0.442392
    10015.022500       0.446652
    10025.062700       0.450923
    10035.122900       0.455204
    10045.203400       0.459494
    10055.304200       0.463793
    10065.425300       0.468100
    10075.566800       0.472415
    10085.728700       0.476739
    10095.911200       0.481070
    10106.114200       0.485407
    10116.337900       0.489751
    10126.582300       0.494102
    10136.847400       0.498458
    10147.133400       0.502820
    10157.440300       0.507186
    10167.768200       0.511557
    10178.117000       0.515932
    10188.487000       0.520311
    10198.878100       0.524694
    10209.290500       0.529079
    10219.724100       0.533466
    10230.179000       0.537856
    10240.655400       0.542247
    10251.153300       0.546639
    10261.672700       0.551032
    10272.213700       0.555425
    10282.776300       0.559818
    10293.360800       0.564210
    10303.967000       0.568601
    10314.595200       0.572991
    10325.245200       0.577379
    10335.917300       0.581765
    10346.611500       0.586147
    10357.327800       0.590527
    10368.066400       0.594902
    10378.827200       0.599274
    10389.610400       0.603641
    10400.416000       0.608003
    10411.244100       0.612359
    10422.094800       0.616709
    10432.968200       0.621053
    10443.864200       0.625391
    10454.783100       0.629721
    10465.724800       0.634043
    10476.689400       0.638357
    10487.677000       0.642662
    10498.687700       0.646958
    10509.721500       0.651245
    10520.778500       0.655521
    10531.858900       0.659788
    10542.962600       0.664043
    10554.089700       0.668287
    10565.240400       0.672520
    10576.414600       0.676740
    10587.612500       0.680947
    10598.834100       0.685142
    10610.079600       0.689323
    10621.348900       0.693490
    10632.642200       0.697642
    10643.959600       0.701780
    10655.301000       0.705903
    10666.666700       0.710010
    10678.056600       0.714101
    10689.470900       0.718175
    10700.909600       0.722233
    10712.372800       0.726273
    10723.860600       0.730295
    10735.373100       0.734299
    10746.910300       0.738285
    10758.472300       0.742251
    10770.059200       0.746199
    10781.671200       0.750126
    10793.308100       0.754033
    10804.970300       0.757920
    10816.657700       0.761785
    10828.370300       0.765629
    10840.108400       0.769452
    10851.871900       0.773252
    10863.661100       0.777030
    10875.475800       0.780785
    10887.316300       0.784516
    10899.182600       0.788224
    10911.074700       0.791908
    10922.992900       0.795567
    10934.937100       0.799202
    10946.907500       0.802811
    10958.904100       0.806395
    10970.927000       0.809954
    10982.976400       0.813486
    10995.052200       0.816992
    11007.154700       0.820471
    11019.283700       0.823923
    11031.439600       0.827347
    11043.622300       0.830744
    11055.832000       0.834112
    11068.068600       0.837452
    11080.332400       0.840764
    11092.623400       0.844046
    11104.941700       0.847299
    11117.287400       0.850523
    11129.660500       0.853716
    11142.061300       0.856880
    11154.489700       0.860013
    11166.945800       0.863115
    11179.429800       0.866186
    11191.941800       0.869227
    11204.481800       0.872235
    11217.049900       0.875212
    11229.646300       0.878157
    11242.270900       0.881070
    11254.924000       0.883950
    11267.605600       0.886798
    11280.315800       0.889613
    11293.054800       0.892394
    11305.822500       0.895143
    11318.619100       0.897858
    11331.444800       0.900539
    11344.299500       0.903186
    11357.183400       0.905799
    11370.096600       0.908378
    11383.039300       0.910922
    11396.011400       0.913432
    11409.013100       0.915907
    11422.044500       0.918347
    11435.105800       0.920752
    11448.196900       0.923122
    11461.318100       0.925456
    11474.469300       0.927755
    11487.650800       0.930019
    11500.862600       0.932246
    11514.104800       0.934438
    11527.377500       0.936594
    11540.680900       0.938714
    11554.015000       0.940797
    11567.380000       0.942845
    11580.775900       0.944856
    11594.202900       0.946830
    11607.661100       0.948768
    11621.150500       0.950670
    11634.671300       0.952535
    11648.223600       0.954364
    11661.807600       0.956156
    11675.423200       0.957911
    11689.070700       0.959629
    11702.750100       0.961311
    11716.461600       0.962956
    11730.205300       0.964564
    11743.981200       0.966136
    11757.789500       0.967670
    11771.630400       0.969168
    11785.503800       0.970629
    11799.410000       0.972054
    11813.349100       0.973441
    11827.321100       0.974793
    11841.326200       0.976107
    11855.364600       0.977385
    11869.436200       0.978626
    11883.541300       0.979831
    11897.680000       0.981000
    11911.852300       0.982132
    11926.058400       0.983228
    11940.298500       0.984288
    11954.572600       0.985312
    11968.880900       0.986300
    11983.223500       0.987253
    11997.600500       0.988169
    12012.012000       0.989050
    12026.458200       0.989895
    12040.939200       0.990706
    12055.455100       0.991480
    12070.006000       0.992220
    12084.592100       0.992925
    12099.213600       0.993596
    12113.870400       0.994231
    12128.562800       0.994832
    12143.290800       0.995399
    12158.054700       0.995932
    12172.854500       0.996432
    12187.690400       0.996897
    12202.562500       0.997329
    12217.471000       0.997728
    12232.415900       0.998093
    12247.397400       0.998426
    12262.415700       0.998726
    12277.470800       0.998994
    12292.563000       0.999230
    12307.692300       0.999434
    12322.858900       0.999606
    12338.062900       0.999746
    12353.304500       0.999856
    12368.583800       0.999934
    12383.900900       0.999982
    12399.256000       1.000000
    12414.649300       0.999988
    12430.080800       0.999945
    12445.550700       0.999873
    12461.059200       0.999772
    12476.606400       0.999643
    12492.192400       0.999484
    12507.817400       0.999297
    12523.481500       0.999082
    12539.185000       0.998840
    12554.927800       0.998570
    12570.710200       0.998273
    12586.532400       0.997949
    12602.394500       0.997599
    12618.296500       0.997223
    12634.238800       0.996821
    12650.221400       0.996394
    12666.244500       0.995942
    12682.308200       0.995465
    12698.412700       0.994964
    12714.558200       0.994439
    12730.744700       0.993891
    12746.972600       0.993319
    12763.241900       0.992725
    12779.552700       0.992108
    12795.905300       0.991469
    12812.299800       0.990809
    12828.736400       0.990127
    12845.215200       0.989425
    12861.736300       0.988701
    12878.300100       0.987958
    12894.906500       0.987196
    12911.555800       0.986414
    12928.248200       0.985613
    12944.983800       0.984794
    12961.762800       0.983956
    12978.585300       0.983101
    12995.451600       0.982229
    13012.361700       0.981341
    13029.316000       0.980435
    13046.314400       0.979514
    13063.357300       0.978578
    13080.444700       0.977626
    13097.576900       0.976660
    13114.754100       0.975680
    13131.976400       0.974686
    13149.243900       0.973678
    13166.556900       0.972658
    13183.915600       0.971625
    13201.320100       0.970581
    13218.770700       0.969525
    13236.267400       0.968458
    13253.810500       0.967380
    13271.400100       0.966292
    13289.036500       0.965194
    13306.719900       0.964087
    13324.450400       0.962971
    13342.228200       0.961846
    13360.053400       0.960714
    13377.926400       0.959574
    13395.847300       0.958427
    13413.816200       0.957274
    13431.833400       0.956114
    13449.899100       0.954949
    13468.013500       0.953779
    13486.176700       0.952604
    13504.388900       0.951424
    13522.650400       0.950241
    13540.961400       0.949054
    13559.322000       0.947864
    13577.732500       0.946672
    13596.193100       0.945477
    13614.703900       0.944281
    13633.265200       0.943084
    13651.877100       0.941886
    13670.540000       0.940688
    13689.253900       0.939489
    13708.019200       0.938292
    13726.836000       0.937095
    13745.704500       0.935900
    13764.624900       0.934707
    13783.597500       0.933516
    13802.622500       0.932328
    13821.700100       0.931143
    13840.830400       0.929962
    13860.013900       0.928784
    13879.250500       0.927611
    13898.540700       0.926443
    13917.884500       0.925281
    13937.282200       0.924123
    13956.734100       0.922973
    13976.240400       0.921828
    13995.801300       0.920691
    14015.417000       0.919560
    14035.087700       0.918438
    14054.813800       0.917324
    14074.595400       0.916218
    14094.432700       0.915121
    14114.326000       0.914033
    14134.275600       0.912955
    14154.281700       0.911887
    14174.344400       0.910829
    14194.464200       0.909782
    14214.641100       0.908746
    14234.875400       0.907722
    14255.167500       0.906709
    14275.517500       0.905708
    14295.925700       0.904720
    14316.392300       0.903745
    14336.917600       0.902783
    14357.501800       0.901835
    14378.145200       0.900900
    14398.848100       0.899979
    14419.610700       0.899073
    14440.433200       0.898182
    14461.316000       0.897305
    14482.259200       0.896444
    14503.263200       0.895599
    14524.328200       0.894769
    14545.454500       0.893955
    14566.642400       0.893158
    14587.892000       0.892378
    14609.203800       0.891615
    14630.577900       0.890868
    14652.014700       0.890139
    14673.514300       0.889428
    14695.077100       0.888735
    14716.703500       0.888060
    14738.393500       0.887403
    14760.147600       0.886764
    14781.966000       0.886145
    14803.849000       0.885544
    14825.796900       0.884962
    14847.809900       0.884400
    14869.888500       0.883857
    14892.032800       0.883334
    14914.243100       0.882830
    14936.519800       0.882346
    14958.863100       0.881883
    14981.273400       0.881439
    15003.750900       0.881016
    15026.296000       0.880613
    15048.909000       0.880231
    15071.590100       0.879869
    15094.339600       0.879528
    15117.158000       0.879208
    15140.045400       0.878908
    15163.002300       0.878629
    15186.028900       0.878372
    15209.125500       0.878135
    15232.292500       0.877919
    15255.530100       0.877724
    15278.838800       0.877551
    15302.218800       0.877398
    15325.670500       0.877267
    15349.194200       0.877156
    15372.790200       0.877067
    15396.458800       0.876998
    15420.200500       0.876950
    15444.015400       0.876924
    15467.904100       0.876918
    15491.866800       0.876933
    15515.903800       0.876968
    15540.015500       0.877024
    15564.202300       0.877101
    15588.464500       0.877198
    15612.802500       0.877315
    15637.216600       0.877453
    15661.707100       0.877610
    15686.274500       0.877787
    15710.919100       0.877984
    15735.641200       0.878201
    15760.441300       0.878436
    15785.319700       0.878691
    15810.276700       0.878965
    15835.312700       0.879257
    15860.428200       0.879568
    15885.623500       0.879898
    15910.899000       0.880245
    15936.255000       0.880610
    15961.691900       0.880992
    15987.210200       0.881392
    16012.810200       0.881809
    16038.492400       0.882242
    16064.257000       0.882692
    16090.104600       0.883157
    16116.035500       0.883639
    16142.050000       0.884135
    16168.148700       0.884647
    16194.332000       0.885173
    16220.600200       0.885714
    16246.953700       0.886268
    16273.393000       0.886836
    16299.918500       0.887417
    16326.530600       0.888011
    16353.229800       0.888617
    16380.016400       0.889235
    16406.890900       0.889864
    16433.853700       0.890504
    16460.905300       0.891154
    16488.046200       0.891815
    16515.276600       0.892485
    16542.597200       0.893164
    16570.008300       0.893851
    16597.510400       0.894547
    16625.103900       0.895249
    16652.789300       0.895959
    16680.567100       0.896675
    16708.437800       0.897397
    16736.401700       0.898124
    16764.459300       0.898855
    16792.611300       0.899591
    16820.857900       0.900330
    16849.199700       0.901072
    16877.637100       0.901816
    16906.170800       0.902562
    16934.801000       0.903308
    16963.528400       0.904055
    16992.353400       0.904802
    17021.276600       0.905547
    17050.298400       0.906291
    17079.419300       0.907032
    17108.639900       0.907770
    17137.960600       0.908504
    17167.382000       0.909234
    17196.904600       0.909959
    17226.528900       0.910677
    17256.255400       0.911389
    17286.084700       0.912093
    17316.017300       0.912789
    17346.053800       0.913476
    17376.194600       0.914153
    17406.440400       0.914820
    17436.791600       0.915475
    17467.248900       0.916118
    17497.812800       0.916748
    17528.483800       0.917364
    17559.262500       0.917966
    17590.149500       0.918552
    17621.145400       0.919122
    17652.250700       0.919674
    17683.466000       0.920209
