64,   64, MVIRI VIS channel from srf_MET5_1999078_1999079_1801-Release_S10EL_10.dat
Number of data points:
806
Wavenumber (cm-1)   Filter response
     8350.730700       0.000000
     8357.710000       0.000000
     8364.701000       0.000000
     8371.703600       0.000002
     8378.718100       0.000004
     8385.744200       0.000009
     8392.782200       0.000016
     8399.832000       0.000027
     8406.893700       0.000041
     8413.967200       0.000060
     8421.052600       0.000083
     8428.150000       0.000111
     8435.259400       0.000145
     8442.380800       0.000185
     8449.514200       0.000232
     8456.659600       0.000285
     8463.817200       0.000345
     8470.986900       0.000414
     8478.168700       0.000490
     8485.362700       0.000575
     8492.569000       0.000668
     8499.787500       0.000770
     8507.018300       0.000882
     8514.261400       0.001003
     8521.516800       0.001135
     8528.784600       0.001277
     8536.064900       0.001429
     8543.357500       0.001592
     8550.662700       0.001766
     8557.980300       0.001951
     8565.310500       0.002149
     8572.653200       0.002357
     8580.008600       0.002578
     8587.376600       0.002812
     8594.757200       0.003057
     8602.150500       0.003316
     8609.556600       0.003587
     8616.975400       0.003871
     8624.407100       0.004169
     8631.851500       0.004480
     8639.308900       0.004805
     8646.779100       0.005144
     8654.262200       0.005497
     8661.758300       0.005864
     8669.267400       0.006245
     8676.789600       0.006641
     8684.324800       0.007051
     8691.873100       0.007476
     8699.434500       0.007917
     8707.009100       0.008372
     8714.596900       0.008842
     8722.198000       0.009328
     8729.812300       0.009830
     8737.439900       0.010347
     8745.080900       0.010880
     8752.735200       0.011429
     8760.403000       0.011994
     8768.084200       0.012575
     8775.778900       0.013172
     8783.487000       0.013786
     8791.208800       0.014417
     8798.944100       0.015064
     8806.693100       0.015727
     8814.455700       0.016408
     8822.232000       0.017106
     8830.022100       0.017821
     8837.825900       0.018553
     8845.643500       0.019303
     8853.475000       0.020069
     8861.320300       0.020854
     8869.179600       0.021656
     8877.052800       0.022476
     8884.940000       0.023314
     8892.841300       0.024170
     8900.756600       0.025044
     8908.686000       0.025936
     8916.629500       0.026847
     8924.587200       0.027776
     8932.559200       0.028723
     8940.545400       0.029690
     8948.545900       0.030674
     8956.560700       0.031678
     8964.589900       0.032701
     8972.633500       0.033743
     8980.691500       0.034803
     8988.764000       0.035884
     8996.851100       0.036983
     9004.952700       0.038102
     9013.068900       0.039240
     9021.199800       0.040399
     9029.345400       0.041577
     9037.505600       0.042774
     9045.680700       0.043992
     9053.870500       0.045230
     9062.075200       0.046488
     9070.294800       0.047766
     9078.529300       0.049064
     9086.778700       0.050383
     9095.043200       0.051723
     9103.322700       0.053083
     9111.617300       0.054464
     9119.927000       0.055865
     9128.251900       0.057288
     9136.592100       0.058732
     9144.947400       0.060196
     9153.318100       0.061682
     9161.704100       0.063189
     9170.105500       0.064718
     9178.522300       0.066268
     9186.954500       0.067839
     9195.402300       0.069433
     9203.865600       0.071047
     9212.344500       0.072684
     9220.839100       0.074343
     9229.349300       0.076023
     9237.875300       0.077726
     9246.417000       0.079450
     9254.974500       0.081197
     9263.547900       0.082967
     9272.137200       0.084758
     9280.742500       0.086572
     9289.363700       0.088409
     9298.000900       0.090268
     9306.654300       0.092149
     9315.323700       0.094054
     9324.009300       0.095981
     9332.711200       0.097931
     9341.429200       0.099904
     9350.163600       0.101900
     9358.914400       0.103919
     9367.681500       0.105961
     9376.465100       0.108026
     9385.265100       0.110114
     9394.081700       0.112226
     9402.914900       0.114360
     9411.764700       0.116519
     9420.631200       0.118700
     9429.514400       0.120905
     9438.414300       0.123133
     9447.331100       0.125385
     9456.264800       0.127660
     9465.215300       0.129959
     9474.182900       0.132282
     9483.167400       0.134628
     9492.169000       0.136997
     9501.187600       0.139391
     9510.223500       0.141808
     9519.276500       0.144248
     9528.346800       0.146712
     9537.434400       0.149200
     9546.539400       0.151712
     9555.661700       0.154247
     9564.801500       0.156806
     9573.958800       0.159389
     9583.133700       0.161995
     9592.326100       0.164625
     9601.536200       0.167279
     9610.764100       0.169956
     9620.009600       0.172656
     9629.273000       0.175381
     9638.554200       0.178129
     9647.853400       0.180900
     9657.170400       0.183695
     9666.505600       0.186513
     9675.858700       0.189355
     9685.230000       0.192220
     9694.619500       0.195108
     9704.027200       0.198019
     9713.453100       0.200954
     9722.897400       0.203912
     9732.360100       0.206892
     9741.841200       0.209896
     9751.340800       0.212923
     9760.859000       0.215972
     9770.395700       0.219045
     9779.951100       0.222139
     9789.525200       0.225257
     9799.118100       0.228397
     9808.729800       0.231559
     9818.360300       0.234743
     9828.009800       0.237949
     9837.678300       0.241178
     9847.365800       0.244429
     9857.072400       0.247701
     9866.798200       0.250995
     9876.543200       0.254310
     9886.307500       0.257647
     9896.091000       0.261005
     9905.894000       0.264385
     9915.716400       0.267785
     9925.558300       0.271206
     9935.419800       0.274648
     9945.300800       0.278110
     9955.201600       0.281593
     9965.122100       0.285096
     9975.062300       0.288619
     9985.022500       0.292161
     9995.002500       0.295724
    10005.002500       0.299306
    10015.022500       0.302907
    10025.062700       0.306528
    10035.122900       0.310167
    10045.203400       0.313825
    10055.304200       0.317501
    10065.425300       0.321196
    10075.566800       0.324909
    10085.728700       0.328640
    10095.911200       0.332388
    10106.114200       0.336154
    10116.337900       0.339937
    10126.582300       0.343737
    10136.847400       0.347554
    10147.133400       0.351387
    10157.440300       0.355237
    10167.768200       0.359102
    10178.117000       0.362983
    10188.487000       0.366880
    10198.878100       0.370792
    10209.290500       0.374719
    10219.724100       0.378660
    10230.179000       0.382616
    10240.655400       0.386587
    10251.153300       0.390571
    10261.672700       0.394568
    10272.213700       0.398579
    10282.776300       0.402603
    10293.360800       0.406639
    10303.967000       0.410688
    10314.595200       0.414749
    10325.245200       0.418822
    10335.917300       0.422907
    10346.611500       0.427002
    10357.327800       0.431109
    10368.066400       0.435225
    10378.827200       0.439353
    10389.610400       0.443490
    10400.416000       0.447636
    10411.244100       0.451792
    10422.094800       0.455957
    10432.968200       0.460130
    10443.864200       0.464312
    10454.783100       0.468502
    10465.724800       0.472699
    10476.689400       0.476903
    10487.677000       0.481114
    10498.687700       0.485331
    10509.721500       0.489555
    10520.778500       0.493785
    10531.858900       0.498019
    10542.962600       0.502259
    10554.089700       0.506504
    10565.240400       0.510753
    10576.414600       0.515006
    10587.612500       0.519262
    10598.834100       0.523522
    10610.079600       0.527784
    10621.348900       0.532049
    10632.642200       0.536316
    10643.959600       0.540585
    10655.301000       0.544855
    10666.666700       0.549125
    10678.056600       0.553397
    10689.470900       0.557668
    10700.909600       0.561939
    10712.372800       0.566210
    10723.860600       0.570479
    10735.373100       0.574747
    10746.910300       0.579014
    10758.472300       0.583278
    10770.059200       0.587539
    10781.671200       0.591797
    10793.308100       0.596052
    10804.970300       0.600303
    10816.657700       0.604550
    10828.370300       0.608792
    10840.108400       0.613029
    10851.871900       0.617261
    10863.661100       0.621487
    10875.475800       0.625707
    10887.316300       0.629920
    10899.182600       0.634125
    10911.074700       0.638324
    10922.992900       0.642515
    10934.937100       0.646697
    10946.907500       0.650871
    10958.904100       0.655035
    10970.927000       0.659190
    10982.976400       0.663336
    10995.052200       0.667470
    11007.154700       0.671595
    11019.283700       0.675708
    11031.439600       0.679810
    11043.622300       0.683899
    11055.832000       0.687977
    11068.068600       0.692042
    11080.332400       0.696094
    11092.623400       0.700132
    11104.941700       0.704156
    11117.287400       0.708166
    11129.660500       0.712162
    11142.061300       0.716142
    11154.489700       0.720107
    11166.945800       0.724056
    11179.429800       0.727989
    11191.941800       0.731905
    11204.481800       0.735805
    11217.049900       0.739687
    11229.646300       0.743551
    11242.270900       0.747397
    11254.924000       0.751225
    11267.605600       0.755033
    11280.315800       0.758823
    11293.054800       0.762592
    11305.822500       0.766342
    11318.619100       0.770072
    11331.444800       0.773781
    11344.299500       0.777469
    11357.183400       0.781135
    11370.096600       0.784780
    11383.039300       0.788402
    11396.011400       0.792002
    11409.013100       0.795579
    11422.044500       0.799134
    11435.105800       0.802664
    11448.196900       0.806171
    11461.318100       0.809654
    11474.469300       0.813112
    11487.650800       0.816545
    11500.862600       0.819954
    11514.104800       0.823337
    11527.377500       0.826694
    11540.680900       0.830025
    11554.015000       0.833330
    11567.380000       0.836608
    11580.775900       0.839859
    11594.202900       0.843083
    11607.661100       0.846279
    11621.150500       0.849448
    11634.671300       0.852588
    11648.223600       0.855700
    11661.807600       0.858784
    11675.423200       0.861838
    11689.070700       0.864864
    11702.750100       0.867860
    11716.461600       0.870826
    11730.205300       0.873762
    11743.981200       0.876668
    11757.789500       0.879544
    11771.630400       0.882389
    11785.503800       0.885203
    11799.410000       0.887986
    11813.349100       0.890737
    11827.321100       0.893457
    11841.326200       0.896146
    11855.364600       0.898802
    11869.436200       0.901426
    11883.541300       0.904018
    11897.680000       0.906577
    11911.852300       0.909104
    11926.058400       0.911597
    11940.298500       0.914058
    11954.572600       0.916485
    11968.880900       0.918878
    11983.223500       0.921239
    11997.600500       0.923565
    12012.012000       0.925858
    12026.458200       0.928116
    12040.939200       0.930341
    12055.455100       0.932531
    12070.006000       0.934686
    12084.592100       0.936807
    12099.213600       0.938894
    12113.870400       0.940946
    12128.562800       0.942962
    12143.290800       0.944944
    12158.054700       0.946891
    12172.854500       0.948803
    12187.690400       0.950680
    12202.562500       0.952521
    12217.471000       0.954327
    12232.415900       0.956097
    12247.397400       0.957833
    12262.415700       0.959532
    12277.470800       0.961196
    12292.563000       0.962825
    12307.692300       0.964418
    12322.858900       0.965975
    12338.062900       0.967497
    12353.304500       0.968983
    12368.583800       0.970433
    12383.900900       0.971848
    12399.256000       0.973227
    12414.649300       0.974571
    12430.080800       0.975878
    12445.550700       0.977151
    12461.059200       0.978387
    12476.606400       0.979589
    12492.192400       0.980754
    12507.817400       0.981885
    12523.481500       0.982980
    12539.185000       0.984039
    12554.927800       0.985064
    12570.710200       0.986053
    12586.532400       0.987007
    12602.394500       0.987926
    12618.296500       0.988811
    12634.238800       0.989660
    12650.221400       0.990475
    12666.244500       0.991255
    12682.308200       0.992001
    12698.412700       0.992712
    12714.558200       0.993390
    12730.744700       0.994033
    12746.972600       0.994642
    12763.241900       0.995217
    12779.552700       0.995759
    12795.905300       0.996267
    12812.299800       0.996742
    12828.736400       0.997184
    12845.215200       0.997593
    12861.736300       0.997969
    12878.300100       0.998313
    12894.906500       0.998624
    12911.555800       0.998903
    12928.248200       0.999150
    12944.983800       0.999365
    12961.762800       0.999548
    12978.585300       0.999700
    12995.451600       0.999821
    13012.361700       0.999912
    13029.316000       0.999971
    13046.314400       1.000000
    13063.357300       0.999999
    13080.444700       0.999968
    13097.576900       0.999907
    13114.754100       0.999817
    13131.976400       0.999698
    13149.243900       0.999549
    13166.556900       0.999373
    13183.915600       0.999168
    13201.320100       0.998934
    13218.770700       0.998674
    13236.267400       0.998385
    13253.810500       0.998070
    13271.400100       0.997728
    13289.036500       0.997359
    13306.719900       0.996964
    13324.450400       0.996543
    13342.228200       0.996096
    13360.053400       0.995625
    13377.926400       0.995128
    13395.847300       0.994607
    13413.816200       0.994061
    13431.833400       0.993492
    13449.899100       0.992899
    13468.013500       0.992283
    13486.176700       0.991643
    13504.388900       0.990982
    13522.650400       0.990298
    13540.961400       0.989593
    13559.322000       0.988866
    13577.732500       0.988118
    13596.193100       0.987349
    13614.703900       0.986560
    13633.265200       0.985751
    13651.877100       0.984923
    13670.540000       0.984075
    13689.253900       0.983209
    13708.019200       0.982324
    13726.836000       0.981421
    13745.704500       0.980501
    13764.624900       0.979563
    13783.597500       0.978608
    13802.622500       0.977638
    13821.700100       0.976651
    13840.830400       0.975648
    13860.013900       0.974631
    13879.250500       0.973598
    13898.540700       0.972551
    13917.884500       0.971490
    13937.282200       0.970416
    13956.734100       0.969329
    13976.240400       0.968228
    13995.801300       0.967116
    14015.417000       0.965991
    14035.087700       0.964855
    14054.813800       0.963708
    14074.595400       0.962550
    14094.432700       0.961382
    14114.326000       0.960204
    14134.275600       0.959017
    14154.281700       0.957821
    14174.344400       0.956616
    14194.464200       0.955403
    14214.641100       0.954183
    14234.875400       0.952955
    14255.167500       0.951720
    14275.517500       0.950479
    14295.925700       0.949231
    14316.392300       0.947978
    14336.917600       0.946720
    14357.501800       0.945457
    14378.145200       0.944190
    14398.848100       0.942919
    14419.610700       0.941644
    14440.433200       0.940366
    14461.316000       0.939085
    14482.259200       0.937802
    14503.263200       0.936517
    14524.328200       0.935230
    14545.454500       0.933942
    14566.642400       0.932654
    14587.892000       0.931365
    14609.203800       0.930076
    14630.577900       0.928788
    14652.014700       0.927500
    14673.514300       0.926214
    14695.077100       0.924929
    14716.703500       0.923647
    14738.393500       0.922366
    14760.147600       0.921089
    14781.966000       0.919814
    14803.849000       0.918543
    14825.796900       0.917276
    14847.809900       0.916013
    14869.888500       0.914755
    14892.032800       0.913501
    14914.243100       0.912253
    14936.519800       0.911010
    14958.863100       0.909773
    14981.273400       0.908543
    15003.750900       0.907319
    15026.296000       0.906102
    15048.909000       0.904893
    15071.590100       0.903691
    15094.339600       0.902496
    15117.158000       0.901310
    15140.045400       0.900133
    15163.002300       0.898964
    15186.028900       0.897804
    15209.125500       0.896654
    15232.292500       0.895513
    15255.530100       0.894383
    15278.838800       0.893262
    15302.218800       0.892152
    15325.670500       0.891052
    15349.194200       0.889964
    15372.790200       0.888887
    15396.458800       0.887821
    15420.200500       0.886766
    15444.015400       0.885724
    15467.904100       0.884694
    15491.866800       0.883676
    15515.903800       0.882670
    15540.015500       0.881678
    15564.202300       0.880698
    15588.464500       0.879731
    15612.802500       0.878777
    15637.216600       0.877837
    15661.707100       0.876911
    15686.274500       0.875998
    15710.919100       0.875099
    15735.641200       0.874214
    15760.441300       0.873343
    15785.319700       0.872486
    15810.276700       0.871644
    15835.312700       0.870816
    15860.428200       0.870003
    15885.623500       0.869204
    15910.899000       0.868420
    15936.255000       0.867651
    15961.691900       0.866897
    15987.210200       0.866158
    16012.810200       0.865433
    16038.492400       0.864724
    16064.257000       0.864029
    16090.104600       0.863350
    16116.035500       0.862685
    16142.050000       0.862036
    16168.148700       0.861401
    16194.332000       0.860782
    16220.600200       0.860178
    16246.953700       0.859588
    16273.393000       0.859013
    16299.918500       0.858454
    16326.530600       0.857909
    16353.229800       0.857378
    16380.016400       0.856862
    16406.890900       0.856361
    16433.853700       0.855874
    16460.905300       0.855401
    16488.046200       0.854943
    16515.276600       0.854498
    16542.597200       0.854067
    16570.008300       0.853650
    16597.510400       0.853247
    16625.103900       0.852856
    16652.789300       0.852479
    16680.567100       0.852115
    16708.437800       0.851764
    16736.401700       0.851425
    16764.459300       0.851098
    16792.611300       0.850784
    16820.857900       0.850481
    16849.199700       0.850190
    16877.637100       0.849910
    16906.170800       0.849641
    16934.801000       0.849383
    16963.528400       0.849135
    16992.353400       0.848898
    17021.276600       0.848670
    17050.298400       0.848451
    17079.419300       0.848242
    17108.639900       0.848041
    17137.960600       0.847849
    17167.382000       0.847664
    17196.904600       0.847488
    17226.528900       0.847318
    17256.255400       0.847156
    17286.084700       0.846999
