47,   47, MVIRI VIS channel from srf_MET5_1997033_1997034_1801-Release_S10EL_10.dat
Number of data points:
806
Wavenumber (cm-1)   Filter response
     8350.730700       0.000000
     8357.710000       0.000000
     8364.701000       0.000000
     8371.703600       0.000002
     8378.718100       0.000004
     8385.744200       0.000009
     8392.782200       0.000016
     8399.832000       0.000027
     8406.893700       0.000041
     8413.967200       0.000059
     8421.052600       0.000082
     8428.150000       0.000110
     8435.259400       0.000144
     8442.380800       0.000183
     8449.514200       0.000229
     8456.659600       0.000282
     8463.817200       0.000342
     8470.986900       0.000409
     8478.168700       0.000485
     8485.362700       0.000568
     8492.569000       0.000661
     8499.787500       0.000762
     8507.018300       0.000873
     8514.261400       0.000993
     8521.516800       0.001123
     8528.784600       0.001263
     8536.064900       0.001414
     8543.357500       0.001575
     8550.662700       0.001747
     8557.980300       0.001931
     8565.310500       0.002126
     8572.653200       0.002333
     8580.008600       0.002552
     8587.376600       0.002782
     8594.757200       0.003026
     8602.150500       0.003281
     8609.556600       0.003550
     8616.975400       0.003832
     8624.407100       0.004126
     8631.851500       0.004434
     8639.308900       0.004756
     8646.779100       0.005091
     8654.262200       0.005440
     8661.758300       0.005804
     8669.267400       0.006181
     8676.789600       0.006573
     8684.324800       0.006979
     8691.873100       0.007400
     8699.434500       0.007836
     8707.009100       0.008287
     8714.596900       0.008753
     8722.198000       0.009234
     8729.812300       0.009731
     8737.439900       0.010243
     8745.080900       0.010771
     8752.735200       0.011315
     8760.403000       0.011874
     8768.084200       0.012450
     8775.778900       0.013041
     8783.487000       0.013649
     8791.208800       0.014274
     8798.944100       0.014915
     8806.693100       0.015572
     8814.455700       0.016247
     8822.232000       0.016938
     8830.022100       0.017646
     8837.825900       0.018371
     8845.643500       0.019114
     8853.475000       0.019873
     8861.320300       0.020651
     8869.179600       0.021445
     8877.052800       0.022258
     8884.940000       0.023088
     8892.841300       0.023936
     8900.756600       0.024802
     8908.686000       0.025686
     8916.629500       0.026589
     8924.587200       0.027509
     8932.559200       0.028448
     8940.545400       0.029406
     8948.545900       0.030382
     8956.560700       0.031377
     8964.589900       0.032390
     8972.633500       0.033423
     8980.691500       0.034474
     8988.764000       0.035545
     8996.851100       0.036635
     9004.952700       0.037744
     9013.068900       0.038872
     9021.199800       0.040020
     9029.345400       0.041188
     9037.505600       0.042375
     9045.680700       0.043583
     9053.870500       0.044810
     9062.075200       0.046057
     9070.294800       0.047324
     9078.529300       0.048611
     9086.778700       0.049919
     9095.043200       0.051247
     9103.322700       0.052596
     9111.617300       0.053965
     9119.927000       0.055355
     9128.251900       0.056766
     9136.592100       0.058197
     9144.947400       0.059650
     9153.318100       0.061124
     9161.704100       0.062618
     9170.105500       0.064134
     9178.522300       0.065672
     9186.954500       0.067230
     9195.402300       0.068811
     9203.865600       0.070412
     9212.344500       0.072036
     9220.839100       0.073681
     9229.349300       0.075348
     9237.875300       0.077037
     9246.417000       0.078748
     9254.974500       0.080481
     9263.547900       0.082237
     9272.137200       0.084014
     9280.742500       0.085814
     9289.363700       0.087636
     9298.000900       0.089481
     9306.654300       0.091348
     9315.323700       0.093238
     9324.009300       0.095150
     9332.711200       0.097086
     9341.429200       0.099043
     9350.163600       0.101024
     9358.914400       0.103028
     9367.681500       0.105054
     9376.465100       0.107104
     9385.265100       0.109177
     9394.081700       0.111273
     9402.914900       0.113392
     9411.764700       0.115534
     9420.631200       0.117700
     9429.514400       0.119889
     9438.414300       0.122101
     9447.331100       0.124336
     9456.264800       0.126595
     9465.215300       0.128878
     9474.182900       0.131184
     9483.167400       0.133513
     9492.169000       0.135866
     9501.187600       0.138242
     9510.223500       0.140643
     9519.276500       0.143066
     9528.346800       0.145513
     9537.434400       0.147984
     9546.539400       0.150478
     9555.661700       0.152997
     9564.801500       0.155538
     9573.958800       0.158103
     9583.133700       0.160692
     9592.326100       0.163304
     9601.536200       0.165940
     9610.764100       0.168600
     9620.009600       0.171283
     9629.273000       0.173989
     9638.554200       0.176719
     9647.853400       0.179473
     9657.170400       0.182249
     9666.505600       0.185050
     9675.858700       0.187873
     9685.230000       0.190720
     9694.619500       0.193590
     9704.027200       0.196483
     9713.453100       0.199400
     9722.897400       0.202339
     9732.360100       0.205302
     9741.841200       0.208287
     9751.340800       0.211295
     9760.859000       0.214326
     9770.395700       0.217380
     9779.951100       0.220456
     9789.525200       0.223555
     9799.118100       0.226676
     9808.729800       0.229820
     9818.360300       0.232986
     9828.009800       0.236173
     9837.678300       0.239384
     9847.365800       0.242616
     9857.072400       0.245869
     9866.798200       0.249145
     9876.543200       0.252441
     9886.307500       0.255760
     9896.091000       0.259100
     9905.894000       0.262460
     9915.716400       0.265842
     9925.558300       0.269244
     9935.419800       0.272668
     9945.300800       0.276112
     9955.201600       0.279576
     9965.122100       0.283061
     9975.062300       0.286565
     9985.022500       0.290090
     9995.002500       0.293634
    10005.002500       0.297198
    10015.022500       0.300781
    10025.062700       0.304383
    10035.122900       0.308004
    10045.203400       0.311644
    10055.304200       0.315303
    10065.425300       0.318979
    10075.566800       0.322674
    10085.728700       0.326387
    10095.911200       0.330118
    10106.114200       0.333867
    10116.337900       0.337632
    10126.582300       0.341415
    10136.847400       0.345214
    10147.133400       0.349030
    10157.440300       0.352862
    10167.768200       0.356711
    10178.117000       0.360575
    10188.487000       0.364455
    10198.878100       0.368350
    10209.290500       0.372260
    10219.724100       0.376185
    10230.179000       0.380125
    10240.655400       0.384079
    10251.153300       0.388047
    10261.672700       0.392028
    10272.213700       0.396023
    10282.776300       0.400031
    10293.360800       0.404052
    10303.967000       0.408086
    10314.595200       0.412131
    10325.245200       0.416189
    10335.917300       0.420258
    10346.611500       0.424339
    10357.327800       0.428431
    10368.066400       0.432533
    10378.827200       0.436646
    10389.610400       0.440769
    10400.416000       0.444901
    10411.244100       0.449043
    10422.094800       0.453195
    10432.968200       0.457354
    10443.864200       0.461523
    10454.783100       0.465699
    10465.724800       0.469883
    10476.689400       0.474075
    10487.677000       0.478273
    10498.687700       0.482479
    10509.721500       0.486690
    10520.778500       0.490908
    10531.858900       0.495131
    10542.962600       0.499360
    10554.089700       0.503593
    10565.240400       0.507831
    10576.414600       0.512073
    10587.612500       0.516319
    10598.834100       0.520568
    10610.079600       0.524820
    10621.348900       0.529075
    10632.642200       0.533333
    10643.959600       0.537592
    10655.301000       0.541853
    10666.666700       0.546115
    10678.056600       0.550377
    10689.470900       0.554640
    10700.909600       0.558904
    10712.372800       0.563166
    10723.860600       0.567428
    10735.373100       0.571689
    10746.910300       0.575948
    10758.472300       0.580206
    10770.059200       0.584460
    10781.671200       0.588713
    10793.308100       0.592961
    10804.970300       0.597207
    10816.657700       0.601449
    10828.370300       0.605686
    10840.108400       0.609918
    10851.871900       0.614145
    10863.661100       0.618367
    10875.475800       0.622583
    10887.316300       0.626792
    10899.182600       0.630995
    10911.074700       0.635191
    10922.992900       0.639379
    10934.937100       0.643558
    10946.907500       0.647730
    10958.904100       0.651893
    10970.927000       0.656047
    10982.976400       0.660191
    10995.052200       0.664325
    11007.154700       0.668449
    11019.283700       0.672562
    11031.439600       0.676664
    11043.622300       0.680754
    11055.832000       0.684833
    11068.068600       0.688899
    11080.332400       0.692952
    11092.623400       0.696992
    11104.941700       0.701019
    11117.287400       0.705031
    11129.660500       0.709029
    11142.061300       0.713013
    11154.489700       0.716982
    11166.945800       0.720935
    11179.429800       0.724872
    11191.941800       0.728793
    11204.481800       0.732697
    11217.049900       0.736584
    11229.646300       0.740454
    11242.270900       0.744306
    11254.924000       0.748140
    11267.605600       0.751955
    11280.315800       0.755751
    11293.054800       0.759529
    11305.822500       0.763286
    11318.619100       0.767024
    11331.444800       0.770741
    11344.299500       0.774437
    11357.183400       0.778113
    11370.096600       0.781767
    11383.039300       0.785399
    11396.011400       0.789009
    11409.013100       0.792597
    11422.044500       0.796162
    11435.105800       0.799704
    11448.196900       0.803222
    11461.318100       0.806717
    11474.469300       0.810187
    11487.650800       0.813633
    11500.862600       0.817055
    11514.104800       0.820451
    11527.377500       0.823821
    11540.680900       0.827166
    11554.015000       0.830486
    11567.380000       0.833778
    11580.775900       0.837044
    11594.202900       0.840284
    11607.661100       0.843496
    11621.150500       0.846680
    11634.671300       0.849837
    11648.223600       0.852966
    11661.807600       0.856066
    11675.423200       0.859138
    11689.070700       0.862181
    11702.750100       0.865195
    11716.461600       0.868179
    11730.205300       0.871134
    11743.981200       0.874060
    11757.789500       0.876955
    11771.630400       0.879819
    11785.503800       0.882653
    11799.410000       0.885456
    11813.349100       0.888229
    11827.321100       0.890970
    11841.326200       0.893679
    11855.364600       0.896357
    11869.436200       0.899003
    11883.541300       0.901617
    11897.680000       0.904199
    11911.852300       0.906748
    11926.058400       0.909265
    11940.298500       0.911749
    11954.572600       0.914200
    11968.880900       0.916618
    11983.223500       0.919002
    11997.600500       0.921353
    12012.012000       0.923671
    12026.458200       0.925955
    12040.939200       0.928204
    12055.455100       0.930420
    12070.006000       0.932602
    12084.592100       0.934750
    12099.213600       0.936863
    12113.870400       0.938941
    12128.562800       0.940985
    12143.290800       0.942995
    12158.054700       0.944969
    12172.854500       0.946909
    12187.690400       0.948814
    12202.562500       0.950684
    12217.471000       0.952518
    12232.415900       0.954318
    12247.397400       0.956082
    12262.415700       0.957812
    12277.470800       0.959505
    12292.563000       0.961164
    12307.692300       0.962787
    12322.858900       0.964375
    12338.062900       0.965927
    12353.304500       0.967444
    12368.583800       0.968926
    12383.900900       0.970372
    12399.256000       0.971782
    12414.649300       0.973158
    12430.080800       0.974498
    12445.550700       0.975802
    12461.059200       0.977071
    12476.606400       0.978305
    12492.192400       0.979504
    12507.817400       0.980667
    12523.481500       0.981795
    12539.185000       0.982888
    12554.927800       0.983946
    12570.710200       0.984969
    12586.532400       0.985957
    12602.394500       0.986910
    12618.296500       0.987829
    12634.238800       0.988713
    12650.221400       0.989562
    12666.244500       0.990377
    12682.308200       0.991158
    12698.412700       0.991904
    12714.558200       0.992617
    12730.744700       0.993295
    12746.972600       0.993940
    12763.241900       0.994551
    12779.552700       0.995129
    12795.905300       0.995673
    12812.299800       0.996184
    12828.736400       0.996662
    12845.215200       0.997107
    12861.736300       0.997519
    12878.300100       0.997899
    12894.906500       0.998247
    12911.555800       0.998563
    12928.248200       0.998846
    12944.983800       0.999098
    12961.762800       0.999319
    12978.585300       0.999508
    12995.451600       0.999666
    13012.361700       0.999794
    13029.316000       0.999891
    13046.314400       0.999957
    13063.357300       0.999993
    13080.444700       1.000000
    13097.576900       0.999977
    13114.754100       0.999924
    13131.976400       0.999843
    13149.243900       0.999733
    13166.556900       0.999594
    13183.915600       0.999427
    13201.320100       0.999232
    13218.770700       0.999009
    13236.267400       0.998759
    13253.810500       0.998481
    13271.400100       0.998177
    13289.036500       0.997847
    13306.719900       0.997490
    13324.450400       0.997107
    13342.228200       0.996699
    13360.053400       0.996266
    13377.926400       0.995807
    13395.847300       0.995325
    13413.816200       0.994817
    13431.833400       0.994286
    13449.899100       0.993732
    13468.013500       0.993154
    13486.176700       0.992553
    13504.388900       0.991930
    13522.650400       0.991285
    13540.961400       0.990618
    13559.322000       0.989929
    13577.732500       0.989220
    13596.193100       0.988490
    13614.703900       0.987739
    13633.265200       0.986969
    13651.877100       0.986179
    13670.540000       0.985369
    13689.253900       0.984541
    13708.019200       0.983695
    13726.836000       0.982830
    13745.704500       0.981948
    13764.624900       0.981049
    13783.597500       0.980133
    13802.622500       0.979200
    13821.700100       0.978252
    13840.830400       0.977287
    13860.013900       0.976308
    13879.250500       0.975314
    13898.540700       0.974305
    13917.884500       0.973282
    13937.282200       0.972246
    13956.734100       0.971196
    13976.240400       0.970134
    13995.801300       0.969059
    14015.417000       0.967973
    14035.087700       0.966874
    14054.813800       0.965765
    14074.595400       0.964645
    14094.432700       0.963515
    14114.326000       0.962375
    14134.275600       0.961225
    14154.281700       0.960067
    14174.344400       0.958900
    14194.464200       0.957724
    14214.641100       0.956541
    14234.875400       0.955351
    14255.167500       0.954153
    14275.517500       0.952950
    14295.925700       0.951740
    14316.392300       0.950524
    14336.917600       0.949303
    14357.501800       0.948077
    14378.145200       0.946847
    14398.848100       0.945613
    14419.610700       0.944375
    14440.433200       0.943134
    14461.316000       0.941890
    14482.259200       0.940644
    14503.263200       0.939396
    14524.328200       0.938146
    14545.454500       0.936895
    14566.642400       0.935644
    14587.892000       0.934392
    14609.203800       0.933139
    14630.577900       0.931888
    14652.014700       0.930637
    14673.514300       0.929388
    14695.077100       0.928139
    14716.703500       0.926893
    14738.393500       0.925650
    14760.147600       0.924409
    14781.966000       0.923171
    14803.849000       0.921936
    14825.796900       0.920706
    14847.809900       0.919479
    14869.888500       0.918257
    14892.032800       0.917040
    14914.243100       0.915828
    14936.519800       0.914622
    14958.863100       0.913422
    14981.273400       0.912228
    15003.750900       0.911041
    15026.296000       0.909860
    15048.909000       0.908687
    15071.590100       0.907521
    15094.339600       0.906364
    15117.158000       0.905214
    15140.045400       0.904073
    15163.002300       0.902941
    15186.028900       0.901818
    15209.125500       0.900704
    15232.292500       0.899600
    15255.530100       0.898505
    15278.838800       0.897421
    15302.218800       0.896348
    15325.670500       0.895285
    15349.194200       0.894233
    15372.790200       0.893193
    15396.458800       0.892163
    15420.200500       0.891146
    15444.015400       0.890140
    15467.904100       0.889147
    15491.866800       0.888166
    15515.903800       0.887198
    15540.015500       0.886242
    15564.202300       0.885299
    15588.464500       0.884369
    15612.802500       0.883453
    15637.216600       0.882550
    15661.707100       0.881661
    15686.274500       0.880785
    15710.919100       0.879924
    15735.641200       0.879076
    15760.441300       0.878243
    15785.319700       0.877424
    15810.276700       0.876620
    15835.312700       0.875830
    15860.428200       0.875055
    15885.623500       0.874294
    15910.899000       0.873548
    15936.255000       0.872817
    15961.691900       0.872101
    15987.210200       0.871400
    16012.810200       0.870715
    16038.492400       0.870044
    16064.257000       0.869388
    16090.104600       0.868748
    16116.035500       0.868122
    16142.050000       0.867512
    16168.148700       0.866917
    16194.332000       0.866337
    16220.600200       0.865772
    16246.953700       0.865222
    16273.393000       0.864687
    16299.918500       0.864167
    16326.530600       0.863662
    16353.229800       0.863171
    16380.016400       0.862696
    16406.890900       0.862235
    16433.853700       0.861788
    16460.905300       0.861356
    16488.046200       0.860938
    16515.276600       0.860535
    16542.597200       0.860145
    16570.008300       0.859769
    16597.510400       0.859407
    16625.103900       0.859058
    16652.789300       0.858722
    16680.567100       0.858400
    16708.437800       0.858091
    16736.401700       0.857794
    16764.459300       0.857509
    16792.611300       0.857237
    16820.857900       0.856977
    16849.199700       0.856729
    16877.637100       0.856491
    16906.170800       0.856265
    16934.801000       0.856050
    16963.528400       0.855846
    16992.353400       0.855652
    17021.276600       0.855467
    17050.298400       0.855292
    17079.419300       0.855127
    17108.639900       0.854970
    17137.960600       0.854822
    17167.382000       0.854682
    17196.904600       0.854549
    17226.528900       0.854424
    17256.255400       0.854306
    17286.084700       0.854195
