9, channel 9 SRF extracted from AHI-8_SpectralResponsivity_Data.xlsx (release Sept 2013)
Number of data points:
2001
Wavenumber (cm-1)   Filter response
     1345.000000       0.000839
     1345.100000       0.000855
     1345.200000       0.000872
     1345.300000       0.000890
     1345.400000       0.000905
     1345.500000       0.000920
     1345.600000       0.000930
     1345.700000       0.000938
     1345.800000       0.000939
     1345.900000       0.000939
     1346.000000       0.000934
     1346.100000       0.000927
     1346.200000       0.000917
     1346.300000       0.000907
     1346.400000       0.000897
     1346.500000       0.000888
     1346.600000       0.000881
     1346.700000       0.000877
     1346.800000       0.000876
     1346.900000       0.000880
     1347.000000       0.000887
     1347.100000       0.000899
     1347.200000       0.000913
     1347.300000       0.000931
     1347.400000       0.000949
     1347.500000       0.000968
     1347.600000       0.000987
     1347.700000       0.001004
     1347.800000       0.001019
     1347.900000       0.001032
     1348.000000       0.001042
     1348.100000       0.001049
     1348.200000       0.001053
     1348.300000       0.001053
     1348.400000       0.001052
     1348.500000       0.001051
     1348.600000       0.001049
     1348.700000       0.001049
     1348.800000       0.001049
     1348.900000       0.001053
     1349.000000       0.001059
     1349.100000       0.001069
     1349.200000       0.001075
     1349.300000       0.001077
     1349.400000       0.001134
     1349.500000       0.001324
     1349.600000       0.001373
     1349.700000       0.001394
     1349.800000       0.001414
     1349.900000       0.001430
     1350.000000       0.001444
     1350.100000       0.001453
     1350.200000       0.001459
     1350.300000       0.001459
     1350.400000       0.001457
     1350.500000       0.001451
     1350.600000       0.001441
     1350.700000       0.001430
     1350.800000       0.001418
     1350.900000       0.001406
     1351.000000       0.001396
     1351.100000       0.001387
     1351.200000       0.001384
     1351.300000       0.001384
     1351.400000       0.001385
     1351.500000       0.001392
     1351.600000       0.001402
     1351.700000       0.001414
     1351.800000       0.001428
     1351.900000       0.001443
     1352.000000       0.001457
     1352.100000       0.001471
     1352.200000       0.001482
     1352.300000       0.001489
     1352.400000       0.001493
     1352.500000       0.001493
     1352.600000       0.001490
     1352.700000       0.001484
     1352.800000       0.001474
     1352.900000       0.001464
     1353.000000       0.001454
     1353.100000       0.001445
     1353.200000       0.001438
     1353.300000       0.001435
     1353.400000       0.001435
     1353.500000       0.001441
     1353.600000       0.001452
     1353.700000       0.001471
     1353.800000       0.001493
     1353.900000       0.001521
     1354.000000       0.001552
     1354.100000       0.001586
     1354.200000       0.001620
     1354.300000       0.001653
     1354.400000       0.001684
     1354.500000       0.001712
     1354.600000       0.001736
     1354.700000       0.001755
     1354.800000       0.001769
     1354.900000       0.001773
     1355.000000       0.001775
     1355.100000       0.001771
     1355.200000       0.001764
     1355.300000       0.001756
     1355.400000       0.001746
     1355.500000       0.001738
     1355.600000       0.001732
     1355.700000       0.001730
     1355.800000       0.001731
     1355.900000       0.001737
     1356.000000       0.001747
     1356.100000       0.001763
     1356.200000       0.001783
     1356.300000       0.001807
     1356.400000       0.001833
     1356.500000       0.001859
     1356.600000       0.001885
     1356.700000       0.001908
     1356.800000       0.001928
     1356.900000       0.001944
     1357.000000       0.001955
     1357.100000       0.001960
     1357.200000       0.001962
     1357.300000       0.001959
     1357.400000       0.001951
     1357.500000       0.001942
     1357.600000       0.001931
     1357.700000       0.001921
     1357.800000       0.001913
     1357.900000       0.001909
     1358.000000       0.001909
     1358.100000       0.001917
     1358.200000       0.001929
     1358.300000       0.001950
     1358.400000       0.001975
     1358.500000       0.002006
     1358.600000       0.002042
     1358.700000       0.002081
     1358.800000       0.002122
     1358.900000       0.002163
     1359.000000       0.002203
     1359.100000       0.002240
     1359.200000       0.002274
     1359.300000       0.002301
     1359.400000       0.002322
     1359.500000       0.002338
     1359.600000       0.002348
     1359.700000       0.002354
     1359.800000       0.002358
     1359.900000       0.002358
     1360.000000       0.002358
     1360.100000       0.002359
     1360.200000       0.002362
     1360.300000       0.002369
     1360.400000       0.002379
     1360.500000       0.002396
     1360.600000       0.002417
     1360.700000       0.002446
     1360.800000       0.002478
     1360.900000       0.002513
     1361.000000       0.002551
     1361.100000       0.002590
     1361.200000       0.002629
     1361.300000       0.002666
     1361.400000       0.002700
     1361.500000       0.002730
     1361.600000       0.002756
     1361.700000       0.002776
     1361.800000       0.002792
     1361.900000       0.002801
     1362.000000       0.002808
     1362.100000       0.002811
     1362.200000       0.002814
     1362.300000       0.002817
     1362.400000       0.002820
     1362.500000       0.002827
     1362.600000       0.002838
     1362.700000       0.002854
     1362.800000       0.002875
     1362.900000       0.002901
     1363.000000       0.002932
     1363.100000       0.002969
     1363.200000       0.003008
     1363.300000       0.003051
     1363.400000       0.003095
     1363.500000       0.003138
     1363.600000       0.003180
     1363.700000       0.003219
     1363.800000       0.003254
     1363.900000       0.003283
     1364.000000       0.003308
     1364.100000       0.003328
     1364.200000       0.003343
     1364.300000       0.003355
     1364.400000       0.003364
     1364.500000       0.003373
     1364.600000       0.003381
     1364.700000       0.003391
     1364.800000       0.003404
     1364.900000       0.003421
     1365.000000       0.003443
     1365.100000       0.003471
     1365.200000       0.003505
     1365.300000       0.003546
     1365.400000       0.003591
     1365.500000       0.003639
     1365.600000       0.003690
     1365.700000       0.003742
     1365.800000       0.003794
     1365.900000       0.003846
     1366.000000       0.003894
     1366.100000       0.003939
     1366.200000       0.003981
     1366.300000       0.004019
     1366.400000       0.004053
     1366.500000       0.004083
     1366.600000       0.004109
     1366.700000       0.004135
     1366.800000       0.004159
     1366.900000       0.004185
     1367.000000       0.004213
     1367.100000       0.004244
     1367.200000       0.004280
     1367.300000       0.004320
     1367.400000       0.004366
     1367.500000       0.004416
     1367.600000       0.004471
     1367.700000       0.004530
     1367.800000       0.004593
     1367.900000       0.004657
     1368.000000       0.004722
     1368.100000       0.004787
     1368.200000       0.004849
     1368.300000       0.004910
     1368.400000       0.004966
     1368.500000       0.005018
     1368.600000       0.005066
     1368.700000       0.005111
     1368.800000       0.005152
     1368.900000       0.005192
     1369.000000       0.005231
     1369.100000       0.005269
     1369.200000       0.005309
     1369.300000       0.005351
     1369.400000       0.005398
     1369.500000       0.005447
     1369.600000       0.005502
     1369.700000       0.005561
     1369.800000       0.005625
     1369.900000       0.005693
     1370.000000       0.005765
     1370.100000       0.005837
     1370.200000       0.005911
     1370.300000       0.005984
     1370.400000       0.006055
     1370.500000       0.006123
     1370.600000       0.006187
     1370.700000       0.006247
     1370.800000       0.006303
     1370.900000       0.006356
     1371.000000       0.006407
     1371.100000       0.006455
     1371.200000       0.006502
     1371.300000       0.006550
     1371.400000       0.006601
     1371.500000       0.006656
     1371.600000       0.006715
     1371.700000       0.006781
     1371.800000       0.006854
     1371.900000       0.006935
     1372.000000       0.007023
     1372.100000       0.007118
     1372.200000       0.007219
     1372.300000       0.007324
     1372.400000       0.007432
     1372.500000       0.007543
     1372.600000       0.007654
     1372.700000       0.007763
     1372.800000       0.007870
     1372.900000       0.007973
     1373.000000       0.008073
     1373.100000       0.008168
     1373.200000       0.008258
     1373.300000       0.008344
     1373.400000       0.008426
     1373.500000       0.008508
     1373.600000       0.008590
     1373.700000       0.008673
     1373.800000       0.008758
     1373.900000       0.008848
     1374.000000       0.008944
     1374.100000       0.009046
     1374.200000       0.009154
     1374.300000       0.009268
     1374.400000       0.009388
     1374.500000       0.009515
     1374.600000       0.009646
     1374.700000       0.009781
     1374.800000       0.009917
     1374.900000       0.010054
     1375.000000       0.010190
     1375.100000       0.010325
     1375.200000       0.010458
     1375.300000       0.010588
     1375.400000       0.010713
     1375.500000       0.010834
     1375.600000       0.010955
     1375.700000       0.011075
     1375.800000       0.011196
     1375.900000       0.011319
     1376.000000       0.011446
     1376.100000       0.011578
     1376.200000       0.011717
     1376.300000       0.011861
     1376.400000       0.012013
     1376.500000       0.012171
     1376.600000       0.012337
     1376.700000       0.012509
     1376.800000       0.012688
     1376.900000       0.012871
     1377.000000       0.013058
     1377.100000       0.013248
     1377.200000       0.013439
     1377.300000       0.013630
     1377.400000       0.013821
     1377.500000       0.014008
     1377.600000       0.014194
     1377.700000       0.014377
     1377.800000       0.014557
     1377.900000       0.014736
     1378.000000       0.014913
     1378.100000       0.015090
     1378.200000       0.015268
     1378.300000       0.015447
     1378.400000       0.015631
     1378.500000       0.015819
     1378.600000       0.016013
     1378.700000       0.016215
     1378.800000       0.016424
     1378.900000       0.016641
     1379.000000       0.016867
     1379.100000       0.017100
     1379.200000       0.017339
     1379.300000       0.017583
     1379.400000       0.017833
     1379.500000       0.018087
     1379.600000       0.018343
     1379.700000       0.018601
     1379.800000       0.018859
     1379.900000       0.019116
     1380.000000       0.019374
     1380.100000       0.019630
     1380.200000       0.019886
     1380.300000       0.020141
     1380.400000       0.020396
     1380.500000       0.020651
     1380.600000       0.020908
     1380.700000       0.021173
     1380.800000       0.021447
     1380.900000       0.021732
     1381.000000       0.022026
     1381.100000       0.022329
     1381.200000       0.022644
     1381.300000       0.022972
     1381.400000       0.023309
     1381.500000       0.023660
     1381.600000       0.024018
     1381.700000       0.024388
     1381.800000       0.024765
     1381.900000       0.025150
     1382.000000       0.025540
     1382.100000       0.025936
     1382.200000       0.026333
     1382.300000       0.026733
     1382.400000       0.027134
     1382.500000       0.027536
     1382.600000       0.027937
     1382.700000       0.028338
     1382.800000       0.028739
     1382.900000       0.029140
     1383.000000       0.029544
     1383.100000       0.029951
     1383.200000       0.030364
     1383.300000       0.030782
     1383.400000       0.031209
     1383.500000       0.031644
     1383.600000       0.032099
     1383.700000       0.032570
     1383.800000       0.033058
     1383.900000       0.033557
     1384.000000       0.034070
     1384.100000       0.034595
     1384.200000       0.035131
     1384.300000       0.035677
     1384.400000       0.036234
     1384.500000       0.036799
     1384.600000       0.037372
     1384.700000       0.037951
     1384.800000       0.038536
     1384.900000       0.039125
     1385.000000       0.039719
     1385.100000       0.040315
     1385.200000       0.040914
     1385.300000       0.041519
     1385.400000       0.042132
     1385.500000       0.042773
     1385.600000       0.043435
     1385.700000       0.044107
     1385.800000       0.044790
     1385.900000       0.045492
     1386.000000       0.046211
     1386.100000       0.046951
     1386.200000       0.047711
     1386.300000       0.048492
     1386.400000       0.049292
     1386.500000       0.050114
     1386.600000       0.050954
     1386.700000       0.051812
     1386.800000       0.052680
     1386.900000       0.053560
     1387.000000       0.054450
     1387.100000       0.055351
     1387.200000       0.056263
     1387.300000       0.057187
     1387.400000       0.058121
     1387.500000       0.059066
     1387.600000       0.060020
     1387.700000       0.060984
     1387.800000       0.061966
     1387.900000       0.062967
     1388.000000       0.064018
     1388.100000       0.065105
     1388.200000       0.066211
     1388.300000       0.067337
     1388.400000       0.068495
     1388.500000       0.069677
     1388.600000       0.070890
     1388.700000       0.072124
     1388.800000       0.073371
     1388.900000       0.074631
     1389.000000       0.075901
     1389.100000       0.077193
     1389.200000       0.078515
     1389.300000       0.079859
     1389.400000       0.081221
     1389.500000       0.082617
     1389.600000       0.084053
     1389.700000       0.085519
     1389.800000       0.087019
     1389.900000       0.088538
     1390.000000       0.090080
     1390.100000       0.091650
     1390.200000       0.093249
     1390.300000       0.094885
     1390.400000       0.096563
     1390.500000       0.098280
     1390.600000       0.100034
     1390.700000       0.101821
     1390.800000       0.103639
     1390.900000       0.105488
     1391.000000       0.107370
     1391.100000       0.109288
     1391.200000       0.111241
     1391.300000       0.113230
     1391.400000       0.115251
     1391.500000       0.117298
     1391.600000       0.119376
     1391.700000       0.121488
     1391.800000       0.123635
     1391.900000       0.125820
     1392.000000       0.128038
     1392.100000       0.130293
     1392.200000       0.132583
     1392.300000       0.134907
     1392.400000       0.137266
     1392.500000       0.139669
     1392.600000       0.142105
     1392.700000       0.144585
     1392.800000       0.147113
     1392.900000       0.149689
     1393.000000       0.152312
     1393.100000       0.154982
     1393.200000       0.157706
     1393.300000       0.160485
     1393.400000       0.163313
     1393.500000       0.166191
     1393.600000       0.169121
     1393.700000       0.172105
     1393.800000       0.175145
     1393.900000       0.178241
     1394.000000       0.181392
     1394.100000       0.184595
     1394.200000       0.187854
     1394.300000       0.191154
     1394.400000       0.194503
     1394.500000       0.197887
     1394.600000       0.201311
     1394.700000       0.204775
     1394.800000       0.208285
     1394.900000       0.211844
     1395.000000       0.215465
     1395.100000       0.219133
     1395.200000       0.222857
     1395.300000       0.226635
     1395.400000       0.230466
     1395.500000       0.234359
     1395.600000       0.238316
     1395.700000       0.242346
     1395.800000       0.246454
     1395.900000       0.250648
     1396.000000       0.254935
     1396.100000       0.259294
     1396.200000       0.263731
     1396.300000       0.268236
     1396.400000       0.272806
     1396.500000       0.277429
     1396.600000       0.282121
     1396.700000       0.286872
     1396.800000       0.291680
     1396.900000       0.296546
     1397.000000       0.301468
     1397.100000       0.306432
     1397.200000       0.311438
     1397.300000       0.316481
     1397.400000       0.321556
     1397.500000       0.326677
     1397.600000       0.331841
     1397.700000       0.337050
     1397.800000       0.342305
     1397.900000       0.347611
     1398.000000       0.352965
     1398.100000       0.358365
     1398.200000       0.363815
     1398.300000       0.369324
     1398.400000       0.374883
     1398.500000       0.380506
     1398.600000       0.386184
     1398.700000       0.391922
     1398.800000       0.397717
     1398.900000       0.403559
     1399.000000       0.409442
     1399.100000       0.415376
     1399.200000       0.421350
     1399.300000       0.427385
     1399.400000       0.433469
     1399.500000       0.439613
     1399.600000       0.445783
     1399.700000       0.451981
     1399.800000       0.458200
     1399.900000       0.464438
     1400.000000       0.470696
     1400.100000       0.476983
     1400.200000       0.483302
     1400.300000       0.489656
     1400.400000       0.496038
     1400.500000       0.502449
     1400.600000       0.508881
     1400.700000       0.515332
     1400.800000       0.521797
     1400.900000       0.528273
     1401.000000       0.534748
     1401.100000       0.541220
     1401.200000       0.547689
     1401.300000       0.554155
     1401.400000       0.560617
     1401.500000       0.567066
     1401.600000       0.573482
     1401.700000       0.579851
     1401.800000       0.586165
     1401.900000       0.592434
     1402.000000       0.598662
     1402.100000       0.604850
     1402.200000       0.611002
     1402.300000       0.617123
     1402.400000       0.623212
     1402.500000       0.629268
     1402.600000       0.635271
     1402.700000       0.641232
     1402.800000       0.647168
     1402.900000       0.653081
     1403.000000       0.658990
     1403.100000       0.664894
     1403.200000       0.670794
     1403.300000       0.676682
     1403.400000       0.682547
     1403.500000       0.688390
     1403.600000       0.694204
     1403.700000       0.699988
     1403.800000       0.705732
     1403.900000       0.711447
     1404.000000       0.717130
     1404.100000       0.722785
     1404.200000       0.728389
     1404.300000       0.733941
     1404.400000       0.739434
     1404.500000       0.744861
     1404.600000       0.750215
     1404.700000       0.755494
     1404.800000       0.760698
     1404.900000       0.765828
     1405.000000       0.770890
     1405.100000       0.775877
     1405.200000       0.780780
     1405.300000       0.785626
     1405.400000       0.790389
     1405.500000       0.795090
     1405.600000       0.799719
     1405.700000       0.804315
     1405.800000       0.808888
     1405.900000       0.813460
     1406.000000       0.818023
     1406.100000       0.822577
     1406.200000       0.827116
     1406.300000       0.831627
     1406.400000       0.836104
     1406.500000       0.840510
     1406.600000       0.844835
     1406.700000       0.849097
     1406.800000       0.853302
     1406.900000       0.857426
