12,   12, MVIRI VIS channel from srf_MET5_1992258_1992259_1801-Release_S10EL_10.dat
Number of data points:
806
Wavenumber (cm-1)   Filter response
     8350.730700       0.000000
     8357.710000       0.000000
     8364.701000       0.000000
     8371.703600       0.000001
     8378.718100       0.000004
     8385.744200       0.000009
     8392.782200       0.000016
     8399.832000       0.000026
     8406.893700       0.000040
     8413.967200       0.000058
     8421.052600       0.000080
     8428.150000       0.000108
     8435.259400       0.000140
     8442.380800       0.000179
     8449.514200       0.000224
     8456.659600       0.000276
     8463.817200       0.000334
     8470.986900       0.000400
     8478.168700       0.000474
     8485.362700       0.000556
     8492.569000       0.000646
     8499.787500       0.000745
     8507.018300       0.000854
     8514.261400       0.000971
     8521.516800       0.001098
     8528.784600       0.001236
     8536.064900       0.001383
     8543.357500       0.001541
     8550.662700       0.001710
     8557.980300       0.001889
     8565.310500       0.002080
     8572.653200       0.002283
     8580.008600       0.002497
     8587.376600       0.002723
     8594.757200       0.002961
     8602.150500       0.003211
     8609.556600       0.003474
     8616.975400       0.003750
     8624.407100       0.004038
     8631.851500       0.004340
     8639.308900       0.004655
     8646.779100       0.004983
     8654.262200       0.005325
     8661.758300       0.005681
     8669.267400       0.006051
     8676.789600       0.006435
     8684.324800       0.006833
     8691.873100       0.007245
     8699.434500       0.007672
     8707.009100       0.008114
     8714.596900       0.008570
     8722.198000       0.009042
     8729.812300       0.009529
     8737.439900       0.010030
     8745.080900       0.010548
     8752.735200       0.011080
     8760.403000       0.011629
     8768.084200       0.012193
     8775.778900       0.012773
     8783.487000       0.013369
     8791.208800       0.013981
     8798.944100       0.014609
     8806.693100       0.015254
     8814.455700       0.015915
     8822.232000       0.016593
     8830.022100       0.017287
     8837.825900       0.017998
     8845.643500       0.018727
     8853.475000       0.019472
     8861.320300       0.020234
     8869.179600       0.021014
     8877.052800       0.021811
     8884.940000       0.022625
     8892.841300       0.023457
     8900.756600       0.024306
     8908.686000       0.025174
     8916.629500       0.026059
     8924.587200       0.026963
     8932.559200       0.027884
     8940.545400       0.028823
     8948.545900       0.029781
     8956.560700       0.030758
     8964.589900       0.031753
     8972.633500       0.032766
     8980.691500       0.033798
     8988.764000       0.034849
     8996.851100       0.035919
     9004.952700       0.037008
     9013.068900       0.038116
     9021.199800       0.039243
     9029.345400       0.040390
     9037.505600       0.041556
     9045.680700       0.042742
     9053.870500       0.043947
     9062.075200       0.045172
     9070.294800       0.046416
     9078.529300       0.047681
     9086.778700       0.048966
     9095.043200       0.050271
     9103.322700       0.051596
     9111.617300       0.052941
     9119.927000       0.054307
     9128.251900       0.055693
     9136.592100       0.057100
     9144.947400       0.058528
     9153.318100       0.059976
     9161.704100       0.061445
     9170.105500       0.062935
     9178.522300       0.064447
     9186.954500       0.065979
     9195.402300       0.067532
     9203.865600       0.069107
     9212.344500       0.070704
     9220.839100       0.072322
     9229.349300       0.073961
     9237.875300       0.075622
     9246.417000       0.077305
     9254.974500       0.079010
     9263.547900       0.080736
     9272.137200       0.082485
     9280.742500       0.084255
     9289.363700       0.086048
     9298.000900       0.087863
     9306.654300       0.089700
     9315.323700       0.091560
     9324.009300       0.093442
     9332.711200       0.095347
     9341.429200       0.097273
     9350.163600       0.099223
     9358.914400       0.101195
     9367.681500       0.103191
     9376.465100       0.105209
     9385.265100       0.107249
     9394.081700       0.109313
     9402.914900       0.111399
     9411.764700       0.113509
     9420.631200       0.115642
     9429.514400       0.117797
     9438.414300       0.119976
     9447.331100       0.122178
     9456.264800       0.124404
     9465.215300       0.126652
     9474.182900       0.128924
     9483.167400       0.131219
     9492.169000       0.133537
     9501.187600       0.135879
     9510.223500       0.138244
     9519.276500       0.140633
     9528.346800       0.143045
     9537.434400       0.145480
     9546.539400       0.147939
     9555.661700       0.150421
     9564.801500       0.152927
     9573.958800       0.155456
     9583.133700       0.158009
     9592.326100       0.160585
     9601.536200       0.163184
     9610.764100       0.165807
     9620.009600       0.168453
     9629.273000       0.171123
     9638.554200       0.173816
     9647.853400       0.176532
     9657.170400       0.179272
     9666.505600       0.182035
     9675.858700       0.184821
     9685.230000       0.187630
     9694.619500       0.190462
     9704.027200       0.193317
     9713.453100       0.196196
     9722.897400       0.199098
     9732.360100       0.202022
     9741.841200       0.204969
     9751.340800       0.207939
     9760.859000       0.210932
     9770.395700       0.213947
     9779.951100       0.216985
     9789.525200       0.220046
     9799.118100       0.223129
     9808.729800       0.226234
     9818.360300       0.229361
     9828.009800       0.232510
     9837.678300       0.235682
     9847.365800       0.238875
     9857.072400       0.242090
     9866.798200       0.245327
     9876.543200       0.248585
     9886.307500       0.251865
     9896.091000       0.255166
     9905.894000       0.258488
     9915.716400       0.261832
     9925.558300       0.265196
     9935.419800       0.268581
     9945.300800       0.271986
     9955.201600       0.275412
     9965.122100       0.278859
     9975.062300       0.282325
     9985.022500       0.285811
     9995.002500       0.289317
    10005.002500       0.292843
    10015.022500       0.296388
    10025.062700       0.299953
    10035.122900       0.303536
    10045.203400       0.307139
    10055.304200       0.310760
    10065.425300       0.314399
    10075.566800       0.318057
    10085.728700       0.321733
    10095.911200       0.325427
    10106.114200       0.329139
    10116.337900       0.332868
    10126.582300       0.336614
    10136.847400       0.340377
    10147.133400       0.344157
    10157.440300       0.347953
    10167.768200       0.351766
    10178.117000       0.355595
    10188.487000       0.359439
    10198.878100       0.363300
    10209.290500       0.367175
    10219.724100       0.371066
    10230.179000       0.374971
    10240.655400       0.378891
    10251.153300       0.382825
    10261.672700       0.386772
    10272.213700       0.390734
    10282.776300       0.394709
    10293.360800       0.398697
    10303.967000       0.402698
    10314.595200       0.406712
    10325.245200       0.410738
    10335.917300       0.414776
    10346.611500       0.418825
    10357.327800       0.422886
    10368.066400       0.426958
    10378.827200       0.431040
    10389.610400       0.435133
    10400.416000       0.439236
    10411.244100       0.443349
    10422.094800       0.447471
    10432.968200       0.451603
    10443.864200       0.455743
    10454.783100       0.459892
    10465.724800       0.464049
    10476.689400       0.468213
    10487.677000       0.472385
    10498.687700       0.476565
    10509.721500       0.480751
    10520.778500       0.484943
    10531.858900       0.489141
    10542.962600       0.493346
    10554.089700       0.497555
    10565.240400       0.501769
    10576.414600       0.505988
    10587.612500       0.510212
    10598.834100       0.514439
    10610.079600       0.518670
    10621.348900       0.522904
    10632.642200       0.527141
    10643.959600       0.531380
    10655.301000       0.535621
    10666.666700       0.539864
    10678.056600       0.544108
    10689.470900       0.548354
    10700.909600       0.552599
    10712.372800       0.556845
    10723.860600       0.561091
    10735.373100       0.565336
    10746.910300       0.569580
    10758.472300       0.573822
    10770.059200       0.578063
    10781.671200       0.582301
    10793.308100       0.586537
    10804.970300       0.590771
    10816.657700       0.595000
    10828.370300       0.599226
    10840.108400       0.603448
    10851.871900       0.607665
    10863.661100       0.611878
    10875.475800       0.616085
    10887.316300       0.620286
    10899.182600       0.624481
    10911.074700       0.628670
    10922.992900       0.632851
    10934.937100       0.637025
    10946.907500       0.641192
    10958.904100       0.645350
    10970.927000       0.649501
    10982.976400       0.653642
    10995.052200       0.657773
    11007.154700       0.661895
    11019.283700       0.666007
    11031.439600       0.670109
    11043.622300       0.674199
    11055.832000       0.678279
    11068.068600       0.682346
    11080.332400       0.686402
    11092.623400       0.690445
    11104.941700       0.694475
    11117.287400       0.698492
    11129.660500       0.702495
    11142.061300       0.706485
    11154.489700       0.710460
    11166.945800       0.714420
    11179.429800       0.718364
    11191.941800       0.722294
    11204.481800       0.726207
    11217.049900       0.730104
    11229.646300       0.733985
    11242.270900       0.737848
    11254.924000       0.741694
    11267.605600       0.745522
    11280.315800       0.749332
    11293.054800       0.753123
    11305.822500       0.756896
    11318.619100       0.760649
    11331.444800       0.764383
    11344.299500       0.768096
    11357.183400       0.771790
    11370.096600       0.775462
    11383.039300       0.779114
    11396.011400       0.782744
    11409.013100       0.786352
    11422.044500       0.789939
    11435.105800       0.793503
    11448.196900       0.797044
    11461.318100       0.800562
    11474.469300       0.804057
    11487.650800       0.807528
    11500.862600       0.810975
    11514.104800       0.814397
    11527.377500       0.817795
    11540.680900       0.821168
    11554.015000       0.824516
    11567.380000       0.827838
    11580.775900       0.831134
    11594.202900       0.834404
    11607.661100       0.837647
    11621.150500       0.840864
    11634.671300       0.844054
    11648.223600       0.847216
    11661.807600       0.850351
    11675.423200       0.853457
    11689.070700       0.856536
    11702.750100       0.859586
    11716.461600       0.862608
    11730.205300       0.865601
    11743.981200       0.868564
    11757.789500       0.871498
    11771.630400       0.874403
    11785.503800       0.877277
    11799.410000       0.880122
    11813.349100       0.882936
    11827.321100       0.885719
    11841.326200       0.888472
    11855.364600       0.891194
    11869.436200       0.893884
    11883.541300       0.896543
    11897.680000       0.899171
    11911.852300       0.901767
    11926.058400       0.904330
    11940.298500       0.906862
    11954.572600       0.909361
    11968.880900       0.911828
    11983.223500       0.914262
    11997.600500       0.916663
    12012.012000       0.919032
    12026.458200       0.921367
    12040.939200       0.923669
    12055.455100       0.925937
    12070.006000       0.928172
    12084.592100       0.930373
    12099.213600       0.932541
    12113.870400       0.934674
    12128.562800       0.936774
    12143.290800       0.938839
    12158.054700       0.940871
    12172.854500       0.942867
    12187.690400       0.944830
    12202.562500       0.946758
    12217.471000       0.948652
    12232.415900       0.950511
    12247.397400       0.952335
    12262.415700       0.954124
    12277.470800       0.955879
    12292.563000       0.957599
    12307.692300       0.959284
    12322.858900       0.960934
    12338.062900       0.962549
    12353.304500       0.964130
    12368.583800       0.965675
    12383.900900       0.967185
    12399.256000       0.968661
    12414.649300       0.970101
    12430.080800       0.971507
    12445.550700       0.972877
    12461.059200       0.974213
    12476.606400       0.975514
    12492.192400       0.976780
    12507.817400       0.978011
    12523.481500       0.979207
    12539.185000       0.980369
    12554.927800       0.981496
    12570.710200       0.982588
    12586.532400       0.983646
    12602.394500       0.984669
    12618.296500       0.985658
    12634.238800       0.986613
    12650.221400       0.987533
    12666.244500       0.988420
    12682.308200       0.989272
    12698.412700       0.990091
    12714.558200       0.990876
    12730.744700       0.991627
    12746.972600       0.992345
    12763.241900       0.993029
    12779.552700       0.993681
    12795.905300       0.994299
    12812.299800       0.994884
    12828.736400       0.995436
    12845.215200       0.995956
    12861.736300       0.996444
    12878.300100       0.996899
    12894.906500       0.997322
    12911.555800       0.997714
    12928.248200       0.998073
    12944.983800       0.998402
    12961.762800       0.998699
    12978.585300       0.998964
    12995.451600       0.999199
    13012.361700       0.999404
    13029.316000       0.999578
    13046.314400       0.999722
    13063.357300       0.999835
    13080.444700       0.999920
    13097.576900       0.999974
    13114.754100       1.000000
    13131.976400       0.999997
    13149.243900       0.999965
    13166.556900       0.999904
    13183.915600       0.999816
    13201.320100       0.999699
    13218.770700       0.999555
    13236.267400       0.999384
    13253.810500       0.999186
    13271.400100       0.998961
    13289.036500       0.998709
    13306.719900       0.998432
    13324.450400       0.998128
    13342.228200       0.997800
    13360.053400       0.997446
    13377.926400       0.997067
    13395.847300       0.996664
    13413.816200       0.996236
    13431.833400       0.995785
    13449.899100       0.995310
    13468.013500       0.994812
    13486.176700       0.994291
    13504.388900       0.993748
    13522.650400       0.993182
    13540.961400       0.992595
    13559.322000       0.991986
    13577.732500       0.991357
    13596.193100       0.990706
    13614.703900       0.990036
    13633.265200       0.989345
    13651.877100       0.988635
    13670.540000       0.987905
    13689.253900       0.987157
    13708.019200       0.986390
    13726.836000       0.985606
    13745.704500       0.984803
    13764.624900       0.983984
    13783.597500       0.983147
    13802.622500       0.982294
    13821.700100       0.981425
    13840.830400       0.980540
    13860.013900       0.979640
    13879.250500       0.978725
    13898.540700       0.977796
    13917.884500       0.976853
    13937.282200       0.975896
    13956.734100       0.974925
    13976.240400       0.973942
    13995.801300       0.972946
    14015.417000       0.971939
    14035.087700       0.970920
    14054.813800       0.969889
    14074.595400       0.968848
    14094.432700       0.967797
    14114.326000       0.966735
    14134.275600       0.965664
    14154.281700       0.964584
    14174.344400       0.963495
    14194.464200       0.962398
    14214.641100       0.961294
    14234.875400       0.960181
    14255.167500       0.959062
    14275.517500       0.957936
    14295.925700       0.956804
    14316.392300       0.955667
    14336.917600       0.954524
    14357.501800       0.953376
    14378.145200       0.952223
    14398.848100       0.951067
    14419.610700       0.949906
    14440.433200       0.948743
    14461.316000       0.947576
    14482.259200       0.946408
    14503.263200       0.945237
    14524.328200       0.944064
    14545.454500       0.942890
    14566.642400       0.941716
    14587.892000       0.940541
    14609.203800       0.939366
    14630.577900       0.938191
    14652.014700       0.937017
    14673.514300       0.935845
    14695.077100       0.934673
    14716.703500       0.933504
    14738.393500       0.932337
    14760.147600       0.931173
    14781.966000       0.930011
    14803.849000       0.928854
    14825.796900       0.927700
    14847.809900       0.926550
    14869.888500       0.925404
    14892.032800       0.924264
    14914.243100       0.923129
    14936.519800       0.921999
    14958.863100       0.920875
    14981.273400       0.919758
    15003.750900       0.918647
    15026.296000       0.917543
    15048.909000       0.916446
    15071.590100       0.915357
    15094.339600       0.914276
    15117.158000       0.913203
    15140.045400       0.912139
    15163.002300       0.911083
    15186.028900       0.910036
    15209.125500       0.908999
    15232.292500       0.907972
    15255.530100       0.906955
    15278.838800       0.905948
    15302.218800       0.904951
    15325.670500       0.903965
    15349.194200       0.902991
    15372.790200       0.902027
    15396.458800       0.901076
    15420.200500       0.900136
    15444.015400       0.899207
    15467.904100       0.898292
    15491.866800       0.897388
    15515.903800       0.896498
    15540.015500       0.895620
    15564.202300       0.894755
    15588.464500       0.893904
    15612.802500       0.893066
    15637.216600       0.892242
    15661.707100       0.891431
    15686.274500       0.890634
    15710.919100       0.889852
    15735.641200       0.889083
    15760.441300       0.888330
    15785.319700       0.887590
    15810.276700       0.886865
    15835.312700       0.886155
    15860.428200       0.885460
    15885.623500       0.884780
    15910.899000       0.884114
    15936.255000       0.883464
    15961.691900       0.882829
    15987.210200       0.882209
    16012.810200       0.881605
    16038.492400       0.881016
    16064.257000       0.880442
    16090.104600       0.879883
    16116.035500       0.879340
    16142.050000       0.878812
    16168.148700       0.878300
    16194.332000       0.877803
    16220.600200       0.877322
    16246.953700       0.876855
    16273.393000       0.876404
    16299.918500       0.875968
    16326.530600       0.875548
    16353.229800       0.875142
    16380.016400       0.874751
    16406.890900       0.874376
    16433.853700       0.874015
    16460.905300       0.873669
    16488.046200       0.873337
    16515.276600       0.873020
    16542.597200       0.872717
    16570.008300       0.872428
    16597.510400       0.872153
    16625.103900       0.871892
    16652.789300       0.871645
    16680.567100       0.871411
    16708.437800       0.871190
    16736.401700       0.870982
    16764.459300       0.870787
    16792.611300       0.870605
    16820.857900       0.870435
    16849.199700       0.870276
    16877.637100       0.870130
    16906.170800       0.869995
    16934.801000       0.869871
    16963.528400       0.869758
    16992.353400       0.869656
    17021.276600       0.869564
    17050.298400       0.869481
    17079.419300       0.869408
    17108.639900       0.869345
    17137.960600       0.869290
    17167.382000       0.869244
    17196.904600       0.869205
    17226.528900       0.869175
    17256.255400       0.869151
    17286.084700       0.869135
