 1    ,AATSR Flight Model FPA #2 12um channel (AuSpace measuremets).
Number of data points:
255
Wavenumber (cm-1)   Filter response
      746.662200       0.004510
      747.182500       0.004020
      747.703600       0.004560
      748.225400       0.004900
      748.747900       0.004890
      749.271200       0.005100
      749.795200       0.004830
      750.319900       0.005380
      750.845300       0.005620
      751.371600       0.005310
      751.898500       0.005430
      752.426200       0.005820
      752.954600       0.005610
      753.483800       0.006190
      754.013700       0.006860
      754.544300       0.005890
      755.075700       0.006880
      755.607900       0.006630
      756.140800       0.006740
      756.674500       0.007710
      757.208900       0.008150
      757.744000       0.008910
      758.279900       0.009210
      758.816600       0.009250
      759.354000       0.008910
      759.892200       0.010790
      760.431200       0.010560
      760.970900       0.009960
      761.511400       0.010510
      762.052700       0.011990
      762.594700       0.011980
      763.137500       0.011570
      763.681100       0.013230
      764.225400       0.014610
      764.770600       0.014610
      765.316500       0.014570
      765.863200       0.015960
      766.410600       0.016340
      766.958900       0.016510
      767.508000       0.017230
      768.057800       0.017760
      768.608400       0.018940
      769.159800       0.020580
      769.712000       0.022760
      770.264900       0.022320
      770.818700       0.022830
      771.373300       0.026180
      771.928700       0.025960
      772.484800       0.028770
      773.041900       0.031670
      773.599600       0.031570
      774.158200       0.035060
      774.717600       0.036770
      775.277800       0.037440
      775.838800       0.042920
      776.400700       0.045110
      776.963300       0.044340
      777.526700       0.049840
      778.091000       0.051500
      778.656200       0.055180
      779.222100       0.063680
      779.788800       0.063130
      780.356400       0.064160
      780.924800       0.071200
      781.494000       0.079760
      782.064000       0.083180
      782.634900       0.087370
      783.206600       0.090480
      783.779200       0.096240
      784.352600       0.106730
      784.926800       0.108190
      785.501900       0.116150
      786.077800       0.132360
      786.654600       0.135860
      787.232200       0.147930
      787.810600       0.152470
      788.389900       0.159450
      788.970100       0.163770
      789.551100       0.172990
      790.133000       0.185890
      790.715700       0.195980
      791.299300       0.222980
      791.883800       0.229050
      792.469100       0.239640
      793.055200       0.262660
      793.642300       0.247500
      794.230200       0.291490
      794.819000       0.298930
      795.408600       0.308190
      795.999200       0.331020
      796.590700       0.360050
      797.182900       0.377030
      797.776100       0.418500
      798.370200       0.425280
      798.965100       0.423800
      799.560900       0.470150
      800.157700       0.505690
      800.755300       0.476890
      801.353800       0.541500
      801.953200       0.560370
      802.553500       0.575840
      803.154700       0.607680
      803.756800       0.662590
      804.359800       0.671300
      804.963700       0.710440
      805.568500       0.746970
      806.174300       0.718620
      806.780900       0.774620
      807.388400       0.802690
      807.997000       0.837850
      808.606400       0.822200
      809.216700       0.864450
      809.827900       0.868700
      810.440000       0.877600
      811.053100       0.903720
      811.667100       0.918130
      812.282000       0.899990
      812.897900       0.862440
      813.514700       0.986030
      814.132500       0.881510
      814.751200       0.994680
      815.370800       0.953880
      815.991300       0.952910
      816.612800       0.931720
      817.235300       0.949000
      817.858700       0.915570
      818.483000       1.000000
      819.108400       0.864230
      819.734600       0.964350
      820.361900       0.999410
      820.990100       0.956900
      821.619200       0.873990
      822.249300       0.899680
      822.880400       0.938490
      823.512500       0.896700
      824.145500       0.931180
      824.779500       0.914740
      825.414400       0.915400
      826.050400       0.880670
      826.687400       0.868650
      827.325300       0.895690
      827.964200       0.925700
      828.604100       0.839270
      829.244900       0.884520
      829.886800       0.894150
      830.529700       0.900340
      831.173500       0.907280
      831.818400       0.898510
      832.464200       0.897320
      833.111200       0.878240
      833.759000       0.900690
      834.407900       0.877660
      835.057800       0.911930
      835.708700       0.893880
      836.360600       0.907380
      837.013500       0.908990
      837.667500       0.919380
      838.322500       0.900530
      838.978500       0.897270
      839.635600       0.914280
      840.293600       0.923980
      840.952700       0.892470
      841.612800       0.903220
      842.274000       0.949520
      842.936200       0.948530
      843.599400       0.930470
      844.263700       0.899690
      844.929100       0.943660
      845.595500       0.954930
      846.263000       0.935410
      846.931500       0.931800
      847.601000       0.937410
      848.271600       0.985770
      848.943300       0.998630
      849.616000       0.943400
      850.289800       0.956610
      850.964700       0.929160
      851.640600       0.908840
      852.317600       0.905250
      852.995800       0.902280
      853.675000       0.857010
      854.355200       0.873900
      855.036600       0.853020
      855.719000       0.803430
      856.402500       0.847750
      857.087100       0.845520
      857.772900       0.756270
      858.459700       0.707060
      859.147600       0.696440
      859.836700       0.664330
      860.526800       0.644700
      861.218000       0.605370
      861.910300       0.575320
      862.603800       0.550120
      863.298300       0.527450
      863.994000       0.496390
      864.690800       0.472960
      865.388800       0.435520
      866.087800       0.397270
      866.788100       0.385240
      867.489400       0.363510
      868.191900       0.340100
      868.895500       0.312680
      869.600200       0.290870
      870.306100       0.273940
      871.013100       0.259400
      871.721300       0.240270
      872.430700       0.217450
      873.141100       0.204830
      873.852900       0.191860
      874.565700       0.173950
      875.279700       0.162080
      875.994800       0.151770
      876.711100       0.141150
      877.428600       0.127280
      878.147200       0.119010
      878.867100       0.108080
      879.588100       0.099810
      880.310300       0.091320
      881.033700       0.083410
      881.758300       0.076900
      882.484100       0.070840
      883.211100       0.063240
      883.939200       0.058170
      884.668600       0.053370
      885.399200       0.047830
      886.130900       0.042120
      886.863900       0.037030
      887.598100       0.033590
      888.333600       0.029770
      889.070300       0.025710
      889.808100       0.023170
      890.547200       0.019290
      891.287500       0.016160
      892.029100       0.014210
      892.771900       0.011670
      893.515900       0.009360
      894.261100       0.007720
      895.007600       0.006040
      895.755500       0.004790
      896.504500       0.003830
      897.254700       0.003060
      898.006200       0.002180
      898.759000       0.001570
      899.513100       0.001170
      900.268400       0.000830
      901.024900       0.000580
      901.782800       0.000440
      902.541900       0.000230
      903.302400       0.000110
      904.064100       0.000150
      904.827000       0.000130
      905.591300       0.000100
      906.356800       0.000050
      907.123700       0.000000
