7,   channel 7 SRF from file SRF_SSH-1_Delivery_220520/SRF_DMSP-F2_SSH_Chan07.asc received June 2022 from SPASCIA
Number of data points:
1291
Wavenumber (cm-1)   Filter response
      371.000000       0.001800
      371.100000       0.001800
      371.200000       0.001800
      371.300000       0.001800
      371.400000       0.001800
      371.500000       0.001800
      371.600000       0.001800
      371.700000       0.001800
      371.800000       0.001800
      371.900000       0.001800
      372.000000       0.001800
      372.100000       0.001900
      372.200000       0.001900
      372.300000       0.001900
      372.400000       0.002000
      372.500000       0.002000
      372.600000       0.002000
      372.700000       0.002000
      372.800000       0.002000
      372.900000       0.002000
      373.000000       0.002000
      373.100000       0.002000
      373.200000       0.002000
      373.300000       0.002000
      373.400000       0.002000
      373.500000       0.002000
      373.600000       0.002000
      373.700000       0.002000
      373.800000       0.002000
      373.900000       0.002000
      374.000000       0.002000
      374.100000       0.002000
      374.200000       0.002100
      374.300000       0.002100
      374.400000       0.002100
      374.500000       0.002200
      374.600000       0.002200
      374.700000       0.002200
      374.800000       0.002200
      374.900000       0.002200
      375.000000       0.002200
      375.100000       0.002200
      375.200000       0.002200
      375.300000       0.002200
      375.400000       0.002200
      375.500000       0.002200
      375.600000       0.002200
      375.700000       0.002200
      375.800000       0.002200
      375.900000       0.002200
      376.000000       0.002200
      376.100000       0.002200
      376.200000       0.002200
      376.300000       0.002200
      376.400000       0.002200
      376.500000       0.002200
      376.600000       0.002200
      376.700000       0.002300
      376.800000       0.002300
      376.900000       0.002300
      377.000000       0.002400
      377.100000       0.002400
      377.200000       0.002400
      377.300000       0.002400
      377.400000       0.002400
      377.500000       0.002400
      377.600000       0.002400
      377.700000       0.002400
      377.800000       0.002400
      377.900000       0.002400
      378.000000       0.002400
      378.100000       0.002400
      378.200000       0.002400
      378.300000       0.002500
      378.400000       0.002500
      378.500000       0.002500
      378.600000       0.002500
      378.700000       0.002500
      378.800000       0.002500
      378.900000       0.002500
      379.000000       0.002500
      379.100000       0.002600
      379.200000       0.002600
      379.300000       0.002700
      379.400000       0.002700
      379.500000       0.002700
      379.600000       0.002700
      379.700000       0.002700
      379.800000       0.002700
      379.900000       0.002700
      380.000000       0.002700
      380.100000       0.002700
      380.200000       0.002700
      380.300000       0.002700
      380.400000       0.002700
      380.500000       0.002700
      380.600000       0.002700
      380.700000       0.002700
      380.800000       0.002700
      380.900000       0.002700
      381.000000       0.002700
      381.100000       0.002700
      381.200000       0.002700
      381.300000       0.002700
      381.400000       0.002700
      381.500000       0.002700
      381.600000       0.002700
      381.700000       0.002700
      381.800000       0.002700
      381.900000       0.002700
      382.000000       0.002700
      382.100000       0.002700
      382.200000       0.002700
      382.300000       0.002700
      382.400000       0.002700
      382.500000       0.002700
      382.600000       0.002700
      382.700000       0.002700
      382.800000       0.002700
      382.900000       0.002700
      383.000000       0.002700
      383.100000       0.002800
      383.200000       0.002800
      383.300000       0.002800
      383.400000       0.002900
      383.500000       0.002900
      383.600000       0.002900
      383.700000       0.003000
      383.800000       0.003000
      383.900000       0.003100
      384.000000       0.003100
      384.100000       0.003100
      384.200000       0.003100
      384.300000       0.003100
      384.400000       0.003100
      384.500000       0.003100
      384.600000       0.003100
      384.700000       0.003100
      384.800000       0.003100
      384.900000       0.003100
      385.000000       0.003100
      385.100000       0.003100
      385.200000       0.003200
      385.300000       0.003200
      385.400000       0.003200
      385.500000       0.003300
      385.600000       0.003300
      385.700000       0.003300
      385.800000       0.003300
      385.900000       0.003300
      386.000000       0.003300
      386.100000       0.003300
      386.200000       0.003300
      386.300000       0.003300
      386.400000       0.003300
      386.500000       0.003300
      386.600000       0.003300
      386.700000       0.003300
      386.800000       0.003400
      386.900000       0.003400
      387.000000       0.003500
      387.100000       0.003500
      387.200000       0.003500
      387.300000       0.003500
      387.400000       0.003500
      387.500000       0.003500
      387.600000       0.003500
      387.700000       0.003500
      387.800000       0.003600
      387.900000       0.003600
      388.000000       0.003600
      388.100000       0.003600
      388.200000       0.003600
      388.300000       0.003600
      388.400000       0.003600
      388.500000       0.003600
      388.600000       0.003700
      388.700000       0.003700
      388.800000       0.003700
      388.900000       0.003800
      389.000000       0.003800
      389.100000       0.003800
      389.200000       0.003800
      389.300000       0.003800
      389.400000       0.003800
      389.500000       0.003800
      389.600000       0.003900
      389.700000       0.003900
      389.800000       0.003900
      389.900000       0.004000
      390.000000       0.004000
      390.100000       0.004000
      390.200000       0.004100
      390.300000       0.004100
      390.400000       0.004100
      390.500000       0.004200
      390.600000       0.004200
      390.700000       0.004200
      390.800000       0.004200
      390.900000       0.004200
      391.000000       0.004200
      391.100000       0.004200
      391.200000       0.004300
      391.300000       0.004300
      391.400000       0.004300
      391.500000       0.004400
      391.600000       0.004400
      391.700000       0.004400
      391.800000       0.004400
      391.900000       0.004400
      392.000000       0.004400
      392.100000       0.004400
      392.200000       0.004400
      392.300000       0.004400
      392.400000       0.004400
      392.500000       0.004400
      392.600000       0.004400
      392.700000       0.004400
      392.800000       0.004500
      392.900000       0.004500
      393.000000       0.004500
      393.100000       0.004500
      393.200000       0.004500
      393.300000       0.004500
      393.400000       0.004500
      393.500000       0.004500
      393.600000       0.004600
      393.700000       0.004600
      393.800000       0.004700
      393.900000       0.004700
      394.000000       0.004700
      394.100000       0.004700
      394.200000       0.004700
      394.300000       0.004700
      394.400000       0.004700
      394.500000       0.004700
      394.600000       0.004800
      394.700000       0.004800
      394.800000       0.004800
      394.900000       0.004900
      395.000000       0.004900
      395.100000       0.004900
      395.200000       0.004900
      395.300000       0.004900
      395.400000       0.004900
      395.500000       0.004900
      395.600000       0.004900
      395.700000       0.005000
      395.800000       0.005000
      395.900000       0.005100
      396.000000       0.005100
      396.100000       0.005100
      396.200000       0.005200
      396.300000       0.005200
      396.400000       0.005200
      396.500000       0.005300
      396.600000       0.005300
      396.700000       0.005300
      396.800000       0.005400
      396.900000       0.005400
      397.000000       0.005500
      397.100000       0.005500
      397.200000       0.005500
      397.300000       0.005600
      397.400000       0.005600
      397.500000       0.005600
      397.600000       0.005700
      397.700000       0.005700
      397.800000       0.005700
      397.900000       0.005800
      398.000000       0.005800
      398.100000       0.005900
      398.200000       0.005900
      398.300000       0.005900
      398.400000       0.006000
      398.500000       0.006000
      398.600000       0.006000
      398.700000       0.006100
      398.800000       0.006100
      398.900000       0.006100
      399.000000       0.006200
      399.100000       0.006300
      399.200000       0.006300
      399.300000       0.006400
      399.400000       0.006500
      399.500000       0.006500
      399.600000       0.006600
      399.700000       0.006600
      399.800000       0.006700
      399.900000       0.006700
      400.000000       0.006700
      400.100000       0.006800
      400.200000       0.006800
      400.300000       0.006800
      400.400000       0.006900
      400.500000       0.006900
      400.600000       0.006900
      400.700000       0.007000
      400.800000       0.007000
      400.900000       0.007100
      401.000000       0.007100
      401.100000       0.007200
      401.200000       0.007200
      401.300000       0.007300
      401.400000       0.007400
      401.500000       0.007500
      401.600000       0.007500
      401.700000       0.007500
      401.800000       0.007600
      401.900000       0.007600
      402.000000       0.007600
      402.100000       0.007700
      402.200000       0.007700
      402.300000       0.007700
      402.400000       0.007800
      402.500000       0.007800
      402.600000       0.007900
      402.700000       0.007900
      402.800000       0.007900
      402.900000       0.008000
      403.000000       0.008000
      403.100000       0.008000
      403.200000       0.008100
      403.300000       0.008100
      403.400000       0.008100
      403.500000       0.008200
      403.600000       0.008200
      403.700000       0.008300
      403.800000       0.008300
      403.900000       0.008300
      404.000000       0.008400
      404.100000       0.008400
      404.200000       0.008400
      404.300000       0.008500
      404.400000       0.008500
      404.500000       0.008500
      404.600000       0.008600
      404.700000       0.008600
      404.800000       0.008700
      404.900000       0.008700
      405.000000       0.008700
      405.100000       0.008800
      405.200000       0.008900
      405.300000       0.008900
      405.400000       0.009000
      405.500000       0.009100
      405.600000       0.009200
      405.700000       0.009200
      405.800000       0.009300
      405.900000       0.009400
      406.000000       0.009500
      406.100000       0.009500
      406.200000       0.009600
      406.300000       0.009700
      406.400000       0.009700
      406.500000       0.009800
      406.600000       0.009900
      406.700000       0.009900
      406.800000       0.009900
      406.900000       0.010000
      407.000000       0.010000
      407.100000       0.010000
      407.200000       0.010100
      407.300000       0.010100
      407.400000       0.010100
      407.500000       0.010200
      407.600000       0.010300
      407.700000       0.010300
      407.800000       0.010400
      407.900000       0.010500
      408.000000       0.010500
      408.100000       0.010700
      408.200000       0.010800
      408.300000       0.011000
      408.400000       0.011100
      408.500000       0.011300
      408.600000       0.011300
      408.700000       0.011400
      408.800000       0.011500
      408.900000       0.011600
      409.000000       0.011600
      409.100000       0.011700
      409.200000       0.011800
      409.300000       0.011900
      409.400000       0.011900
      409.500000       0.012000
      409.600000       0.012100
      409.700000       0.012300
      409.800000       0.012400
      409.900000       0.012600
      410.000000       0.012700
      410.100000       0.012800
      410.200000       0.012900
      410.300000       0.013100
      410.400000       0.013200
      410.500000       0.013300
      410.600000       0.013400
      410.700000       0.013500
      410.800000       0.013600
      410.900000       0.013700
      411.000000       0.013800
      411.100000       0.014000
      411.200000       0.014300
      411.300000       0.014500
      411.400000       0.014700
      411.500000       0.014900
      411.600000       0.015100
      411.700000       0.015300
      411.800000       0.015600
      411.900000       0.015800
      412.000000       0.016000
      412.100000       0.016200
      412.200000       0.016400
      412.300000       0.016700
      412.400000       0.016900
      412.500000       0.017100
      412.600000       0.017300
      412.700000       0.017500
      412.800000       0.017700
      412.900000       0.018000
      413.000000       0.018200
      413.100000       0.018500
      413.200000       0.018900
      413.300000       0.019300
      413.400000       0.019600
      413.500000       0.020000
      413.600000       0.020200
      413.700000       0.020400
      413.800000       0.020500
      413.900000       0.020700
      414.000000       0.020900
      414.100000       0.021200
      414.200000       0.021400
      414.300000       0.021700
      414.400000       0.021900
      414.500000       0.022200
      414.600000       0.022500
      414.700000       0.022800
      414.800000       0.023100
      414.900000       0.023300
      415.000000       0.023600
      415.100000       0.024400
      415.200000       0.025100
      415.300000       0.025800
      415.400000       0.026500
      415.500000       0.027300
      415.600000       0.027600
      415.700000       0.028000
      415.800000       0.028400
      415.900000       0.028700
      416.000000       0.029100
      416.100000       0.029500
      416.200000       0.029800
      416.300000       0.030200
      416.400000       0.030500
      416.500000       0.030900
      416.600000       0.031300
      416.700000       0.031600
      416.800000       0.032000
      416.900000       0.032400
      417.000000       0.032700
      417.100000       0.033500
      417.200000       0.034200
      417.300000       0.034900
      417.400000       0.035600
      417.500000       0.036400
      417.600000       0.037100
      417.700000       0.037800
      417.800000       0.038500
      417.900000       0.039300
      418.000000       0.040000
      418.100000       0.040400
      418.200000       0.040700
      418.300000       0.041100
      418.400000       0.041500
      418.500000       0.041800
      418.600000       0.042500
      418.700000       0.043300
      418.800000       0.044000
      418.900000       0.044700
      419.000000       0.045500
      419.100000       0.046500
      419.200000       0.047600
      419.300000       0.048700
      419.400000       0.049800
      419.500000       0.050900
      419.600000       0.052000
      419.700000       0.053100
      419.800000       0.054200
      419.900000       0.055300
      420.000000       0.056400
      420.100000       0.057100
      420.200000       0.057800
      420.300000       0.058500
      420.400000       0.059300
      420.500000       0.060000
      420.600000       0.061100
      420.700000       0.062200
      420.800000       0.063300
      420.900000       0.064400
      421.000000       0.065500
      421.100000       0.067300
      421.200000       0.069100
      421.300000       0.070900
      421.400000       0.072700
      421.500000       0.074500
      421.600000       0.075600
      421.700000       0.076700
      421.800000       0.077800
      421.900000       0.078900
      422.000000       0.080000
      422.100000       0.081100
      422.200000       0.082200
      422.300000       0.083300
      422.400000       0.084400
      422.500000       0.085500
      422.600000       0.086500
      422.700000       0.087600
      422.800000       0.088700
      422.900000       0.089800
      423.000000       0.090900
      423.100000       0.092700
      423.200000       0.094500
      423.300000       0.096400
      423.400000       0.098200
      423.500000       0.100000
      423.600000       0.102500
      423.700000       0.105100
      423.800000       0.107600
      423.900000       0.110200
      424.000000       0.112700
      424.100000       0.114900
      424.200000       0.117100
      424.300000       0.119300
      424.400000       0.121500
      424.500000       0.123600
      424.600000       0.126200
      424.700000       0.128700
      424.800000       0.131300
      424.900000       0.133800
      425.000000       0.136400
      425.100000       0.140000
      425.200000       0.143600
      425.300000       0.147300
      425.400000       0.150900
      425.500000       0.154500
      425.600000       0.157800
      425.700000       0.161100
      425.800000       0.164400
      425.900000       0.167600
      426.000000       0.170900
      426.100000       0.174200
      426.200000       0.177500
      426.300000       0.180700
      426.400000       0.184000
      426.500000       0.187300
      426.600000       0.190900
      426.700000       0.194500
      426.800000       0.198200
      426.900000       0.201800
      427.000000       0.205500
      427.100000       0.209500
      427.200000       0.213500
      427.300000       0.217500
      427.400000       0.221500
      427.500000       0.225500
      427.600000       0.229500
      427.700000       0.233500
      427.800000       0.237500
      427.900000       0.241500
      428.000000       0.245500
      428.100000       0.247300
      428.200000       0.249100
      428.300000       0.250900
      428.400000       0.252700
      428.500000       0.254500
      428.600000       0.262500
      428.700000       0.270500
      428.800000       0.278500
      428.900000       0.286500
      429.000000       0.294500
      429.100000       0.299300
      429.200000       0.304000
      429.300000       0.308700
      429.400000       0.313500
      429.500000       0.318200
      429.600000       0.324400
      429.700000       0.330500
      429.800000       0.336700
      429.900000       0.342900
      430.000000       0.349100
      430.100000       0.356400
      430.200000       0.363600
      430.300000       0.370900
      430.400000       0.378200
      430.500000       0.385500
      430.600000       0.392700
      430.700000       0.400000
      430.800000       0.407300
      430.900000       0.414500
      431.000000       0.421800
      431.100000       0.428700
      431.200000       0.435600
      431.300000       0.442500
      431.400000       0.449500
      431.500000       0.456400
      431.600000       0.465500
      431.700000       0.474500
      431.800000       0.483600
      431.900000       0.492700
      432.000000       0.501800
      432.100000       0.511600
      432.200000       0.521500
      432.300000       0.531300
      432.400000       0.541100
      432.500000       0.550900
      432.600000       0.558900
      432.700000       0.566900
      432.800000       0.574900
