65,   65, MVIRI VIS channel from srf_MET5_1999123_1999124_1801-Release_S10EL_10.dat
Number of data points:
806
Wavenumber (cm-1)   Filter response
     8350.730700       0.000000
     8357.710000       0.000000
     8364.701000       0.000000
     8371.703600       0.000002
     8378.718100       0.000004
     8385.744200       0.000009
     8392.782200       0.000016
     8399.832000       0.000027
     8406.893700       0.000041
     8413.967200       0.000060
     8421.052600       0.000083
     8428.150000       0.000111
     8435.259400       0.000145
     8442.380800       0.000185
     8449.514200       0.000232
     8456.659600       0.000285
     8463.817200       0.000346
     8470.986900       0.000414
     8478.168700       0.000490
     8485.362700       0.000575
     8492.569000       0.000668
     8499.787500       0.000771
     8507.018300       0.000883
     8514.261400       0.001004
     8521.516800       0.001136
     8528.784600       0.001277
     8536.064900       0.001430
     8543.357500       0.001593
     8550.662700       0.001767
     8557.980300       0.001953
     8565.310500       0.002150
     8572.653200       0.002359
     8580.008600       0.002580
     8587.376600       0.002813
     8594.757200       0.003059
     8602.150500       0.003318
     8609.556600       0.003589
     8616.975400       0.003874
     8624.407100       0.004172
     8631.851500       0.004483
     8639.308900       0.004808
     8646.779100       0.005147
     8654.262200       0.005500
     8661.758300       0.005867
     8669.267400       0.006249
     8676.789600       0.006645
     8684.324800       0.007055
     8691.873100       0.007481
     8699.434500       0.007921
     8707.009100       0.008377
     8714.596900       0.008848
     8722.198000       0.009334
     8729.812300       0.009836
     8737.439900       0.010353
     8745.080900       0.010886
     8752.735200       0.011435
     8760.403000       0.012001
     8768.084200       0.012582
     8775.778900       0.013180
     8783.487000       0.013794
     8791.208800       0.014425
     8798.944100       0.015072
     8806.693100       0.015737
     8814.455700       0.016418
     8822.232000       0.017116
     8830.022100       0.017831
     8837.825900       0.018564
     8845.643500       0.019314
     8853.475000       0.020081
     8861.320300       0.020866
     8869.179600       0.021668
     8877.052800       0.022489
     8884.940000       0.023327
     8892.841300       0.024184
     8900.756600       0.025058
     8908.686000       0.025951
     8916.629500       0.026862
     8924.587200       0.027791
     8932.559200       0.028739
     8940.545400       0.029706
     8948.545900       0.030691
     8956.560700       0.031696
     8964.589900       0.032719
     8972.633500       0.033761
     8980.691500       0.034823
     8988.764000       0.035903
     8996.851100       0.037003
     9004.952700       0.038123
     9013.068900       0.039262
     9021.199800       0.040421
     9029.345400       0.041599
     9037.505600       0.042798
     9045.680700       0.044016
     9053.870500       0.045254
     9062.075200       0.046513
     9070.294800       0.047792
     9078.529300       0.049091
     9086.778700       0.050410
     9095.043200       0.051751
     9103.322700       0.053111
     9111.617300       0.054493
     9119.927000       0.055895
     9128.251900       0.057319
     9136.592100       0.058763
     9144.947400       0.060228
     9153.318100       0.061715
     9161.704100       0.063223
     9170.105500       0.064752
     9178.522300       0.066303
     9186.954500       0.067875
     9195.402300       0.069469
     9203.865600       0.071084
     9212.344500       0.072722
     9220.839100       0.074381
     9229.349300       0.076062
     9237.875300       0.077766
     9246.417000       0.079491
     9254.974500       0.081239
     9263.547900       0.083009
     9272.137200       0.084801
     9280.742500       0.086616
     9289.363700       0.088453
     9298.000900       0.090313
     9306.654300       0.092196
     9315.323700       0.094101
     9324.009300       0.096029
     9332.711200       0.097980
     9341.429200       0.099954
     9350.163600       0.101951
     9358.914400       0.103970
     9367.681500       0.106013
     9376.465100       0.108079
     9385.265100       0.110168
     9394.081700       0.112281
     9402.914900       0.114417
     9411.764700       0.116576
     9420.631200       0.118758
     9429.514400       0.120964
     9438.414300       0.123193
     9447.331100       0.125446
     9456.264800       0.127722
     9465.215300       0.130022
     9474.182900       0.132345
     9483.167400       0.134692
     9492.169000       0.137063
     9501.187600       0.139457
     9510.223500       0.141875
     9519.276500       0.144317
     9528.346800       0.146782
     9537.434400       0.149271
     9546.539400       0.151783
     9555.661700       0.154320
     9564.801500       0.156879
     9573.958800       0.159463
     9583.133700       0.162071
     9592.326100       0.164701
     9601.536200       0.167356
     9610.764100       0.170034
     9620.009600       0.172736
     9629.273000       0.175462
     9638.554200       0.178210
     9647.853400       0.180983
     9657.170400       0.183778
     9666.505600       0.186598
     9675.858700       0.189441
     9685.230000       0.192307
     9694.619500       0.195196
     9704.027200       0.198108
     9713.453100       0.201044
     9722.897400       0.204003
     9732.360100       0.206985
     9741.841200       0.209990
     9751.340800       0.213017
     9760.859000       0.216068
     9770.395700       0.219141
     9779.951100       0.222237
     9789.525200       0.225355
     9799.118100       0.228496
     9808.729800       0.231659
     9818.360300       0.234845
     9828.009800       0.238052
     9837.678300       0.241282
     9847.365800       0.244534
     9857.072400       0.247807
     9866.798200       0.251102
     9876.543200       0.254418
     9886.307500       0.257757
     9896.091000       0.261116
     9905.894000       0.264496
     9915.716400       0.267898
     9925.558300       0.271320
     9935.419800       0.274763
     9945.300800       0.278226
     9955.201600       0.281710
     9965.122100       0.285214
     9975.062300       0.288737
     9985.022500       0.292281
     9995.002500       0.295845
    10005.002500       0.299428
    10015.022500       0.303030
    10025.062700       0.306652
    10035.122900       0.310292
    10045.203400       0.313951
    10055.304200       0.317629
    10065.425300       0.321325
    10075.566800       0.325038
    10085.728700       0.328770
    10095.911200       0.332520
    10106.114200       0.336287
    10116.337900       0.340071
    10126.582300       0.343872
    10136.847400       0.347689
    10147.133400       0.351524
    10157.440300       0.355374
    10167.768200       0.359241
    10178.117000       0.363123
    10188.487000       0.367020
    10198.878100       0.370933
    10209.290500       0.374861
    10219.724100       0.378804
    10230.179000       0.382760
    10240.655400       0.386732
    10251.153300       0.390717
    10261.672700       0.394715
    10272.213700       0.398727
    10282.776300       0.402751
    10293.360800       0.406789
    10303.967000       0.410839
    10314.595200       0.414901
    10325.245200       0.418975
    10335.917300       0.423060
    10346.611500       0.427156
    10357.327800       0.431263
    10368.066400       0.435381
    10378.827200       0.439509
    10389.610400       0.443647
    10400.416000       0.447795
    10411.244100       0.451951
    10422.094800       0.456117
    10432.968200       0.460291
    10443.864200       0.464473
    10454.783100       0.468664
    10465.724800       0.472861
    10476.689400       0.477066
    10487.677000       0.481278
    10498.687700       0.485496
    10509.721500       0.489721
    10520.778500       0.493951
    10531.858900       0.498186
    10542.962600       0.502427
    10554.089700       0.506672
    10565.240400       0.510922
    10576.414600       0.515175
    10587.612500       0.519432
    10598.834100       0.523693
    10610.079600       0.527955
    10621.348900       0.532221
    10632.642200       0.536488
    10643.959600       0.540758
    10655.301000       0.545028
    10666.666700       0.549299
    10678.056600       0.553571
    10689.470900       0.557843
    10700.909600       0.562115
    10712.372800       0.566386
    10723.860600       0.570656
    10735.373100       0.574924
    10746.910300       0.579191
    10758.472300       0.583455
    10770.059200       0.587717
    10781.671200       0.591975
    10793.308100       0.596231
    10804.970300       0.600482
    10816.657700       0.604729
    10828.370300       0.608972
    10840.108400       0.613209
    10851.871900       0.617441
    10863.661100       0.621667
    10875.475800       0.625887
    10887.316300       0.630100
    10899.182600       0.634306
    10911.074700       0.638505
    10922.992900       0.642696
    10934.937100       0.646878
    10946.907500       0.651052
    10958.904100       0.655216
    10970.927000       0.659372
    10982.976400       0.663517
    10995.052200       0.667652
    11007.154700       0.671776
    11019.283700       0.675889
    11031.439600       0.679991
    11043.622300       0.684081
    11055.832000       0.688158
    11068.068600       0.692223
    11080.332400       0.696275
    11092.623400       0.700313
    11104.941700       0.704337
    11117.287400       0.708347
    11129.660500       0.712342
    11142.061300       0.716322
    11154.489700       0.720287
    11166.945800       0.724236
    11179.429800       0.728169
    11191.941800       0.732085
    11204.481800       0.735984
    11217.049900       0.739865
    11229.646300       0.743729
    11242.270900       0.747575
    11254.924000       0.751402
    11267.605600       0.755210
    11280.315800       0.758999
    11293.054800       0.762769
    11305.822500       0.766518
    11318.619100       0.770247
    11331.444800       0.773956
    11344.299500       0.777643
    11357.183400       0.781309
    11370.096600       0.784953
    11383.039300       0.788575
    11396.011400       0.792174
    11409.013100       0.795751
    11422.044500       0.799304
    11435.105800       0.802835
    11448.196900       0.806341
    11461.318100       0.809823
    11474.469300       0.813280
    11487.650800       0.816713
    11500.862600       0.820121
    11514.104800       0.823503
    11527.377500       0.826859
    11540.680900       0.830189
    11554.015000       0.833493
    11567.380000       0.836770
    11580.775900       0.840021
    11594.202900       0.843244
    11607.661100       0.846439
    11621.150500       0.849607
    11634.671300       0.852746
    11648.223600       0.855857
    11661.807600       0.858940
    11675.423200       0.861993
    11689.070700       0.865018
    11702.750100       0.868012
    11716.461600       0.870977
    11730.205300       0.873913
    11743.981200       0.876818
    11757.789500       0.879692
    11771.630400       0.882536
    11785.503800       0.885349
    11799.410000       0.888130
    11813.349100       0.890881
    11827.321100       0.893600
    11841.326200       0.896287
    11855.364600       0.898942
    11869.436200       0.901565
    11883.541300       0.904155
    11897.680000       0.906713
    11911.852300       0.909238
    11926.058400       0.911730
    11940.298500       0.914190
    11954.572600       0.916615
    11968.880900       0.919008
    11983.223500       0.921366
    11997.600500       0.923691
    12012.012000       0.925983
    12026.458200       0.928240
    12040.939200       0.930462
    12055.455100       0.932651
    12070.006000       0.934805
    12084.592100       0.936925
    12099.213600       0.939010
    12113.870400       0.941060
    12128.562800       0.943075
    12143.290800       0.945055
    12158.054700       0.947001
    12172.854500       0.948911
    12187.690400       0.950786
    12202.562500       0.952625
    12217.471000       0.954430
    12232.415900       0.956199
    12247.397400       0.957932
    12262.415700       0.959630
    12277.470800       0.961292
    12292.563000       0.962919
    12307.692300       0.964510
    12322.858900       0.966066
    12338.062900       0.967586
    12353.304500       0.969070
    12368.583800       0.970518
    12383.900900       0.971931
    12399.256000       0.973309
    12414.649300       0.974650
    12430.080800       0.975956
    12445.550700       0.977227
    12461.059200       0.978461
    12476.606400       0.979661
    12492.192400       0.980825
    12507.817400       0.981953
    12523.481500       0.983046
    12539.185000       0.984104
    12554.927800       0.985126
    12570.710200       0.986113
    12586.532400       0.987066
    12602.394500       0.987983
    12618.296500       0.988865
    12634.238800       0.989713
    12650.221400       0.990525
    12666.244500       0.991304
    12682.308200       0.992047
    12698.412700       0.992757
    12714.558200       0.993432
    12730.744700       0.994073
    12746.972600       0.994680
    12763.241900       0.995253
    12779.552700       0.995793
    12795.905300       0.996299
    12812.299800       0.996772
    12828.736400       0.997212
    12845.215200       0.997619
    12861.736300       0.997993
    12878.300100       0.998334
    12894.906500       0.998643
    12911.555800       0.998920
    12928.248200       0.999165
    12944.983800       0.999378
    12961.762800       0.999559
    12978.585300       0.999709
    12995.451600       0.999828
    13012.361700       0.999916
    13029.316000       0.999973
    13046.314400       1.000000
    13063.357300       0.999997
    13080.444700       0.999963
    13097.576900       0.999900
    13114.754100       0.999808
    13131.976400       0.999687
    13149.243900       0.999536
    13166.556900       0.999357
    13183.915600       0.999150
    13201.320100       0.998915
    13218.770700       0.998652
    13236.267400       0.998361
    13253.810500       0.998043
    13271.400100       0.997699
    13289.036500       0.997328
    13306.719900       0.996931
    13324.450400       0.996508
    13342.228200       0.996059
    13360.053400       0.995585
    13377.926400       0.995086
    13395.847300       0.994563
    13413.816200       0.994015
    13431.833400       0.993443
    13449.899100       0.992848
    13468.013500       0.992230
    13486.176700       0.991588
    13504.388900       0.990924
    13522.650400       0.990238
    13540.961400       0.989531
    13559.322000       0.988802
    13577.732500       0.988051
    13596.193100       0.987280
    13614.703900       0.986489
    13633.265200       0.985678
    13651.877100       0.984847
    13670.540000       0.983997
    13689.253900       0.983129
    13708.019200       0.982242
    13726.836000       0.981337
    13745.704500       0.980414
    13764.624900       0.979474
    13783.597500       0.978518
    13802.622500       0.977545
    13821.700100       0.976555
    13840.830400       0.975551
    13860.013900       0.974531
    13879.250500       0.973496
    13898.540700       0.972447
    13917.884500       0.971384
    13937.282200       0.970307
    13956.734100       0.969218
    13976.240400       0.968115
    13995.801300       0.967000
    14015.417000       0.965874
    14035.087700       0.964736
    14054.813800       0.963586
    14074.595400       0.962426
    14094.432700       0.961256
    14114.326000       0.960076
    14134.275600       0.958887
    14154.281700       0.957688
    14174.344400       0.956481
    14194.464200       0.955266
    14214.641100       0.954044
    14234.875400       0.952814
    14255.167500       0.951577
    14275.517500       0.950333
    14295.925700       0.949084
    14316.392300       0.947829
    14336.917600       0.946568
    14357.501800       0.945303
    14378.145200       0.944034
    14398.848100       0.942760
    14419.610700       0.941483
    14440.433200       0.940203
    14461.316000       0.938920
    14482.259200       0.937635
    14503.263200       0.936347
    14524.328200       0.935059
    14545.454500       0.933769
    14566.642400       0.932478
    14587.892000       0.931187
    14609.203800       0.929896
    14630.577900       0.928606
    14652.014700       0.927316
    14673.514300       0.926028
    14695.077100       0.924741
    14716.703500       0.923456
    14738.393500       0.922174
    14760.147600       0.920894
    14781.966000       0.919617
    14803.849000       0.918344
    14825.796900       0.917075
    14847.809900       0.915810
    14869.888500       0.914549
    14892.032800       0.913294
    14914.243100       0.912043
    14936.519800       0.910799
    14958.863100       0.909560
    14981.273400       0.908327
    15003.750900       0.907101
    15026.296000       0.905882
    15048.909000       0.904671
    15071.590100       0.903466
    15094.339600       0.902270
    15117.158000       0.901082
    15140.045400       0.899902
    15163.002300       0.898731
    15186.028900       0.897570
    15209.125500       0.896417
    15232.292500       0.895274
    15255.530100       0.894142
    15278.838800       0.893019
    15302.218800       0.891907
    15325.670500       0.890805
    15349.194200       0.889714
    15372.790200       0.888635
    15396.458800       0.887567
    15420.200500       0.886511
    15444.015400       0.885466
    15467.904100       0.884434
    15491.866800       0.883414
    15515.903800       0.882406
    15540.015500       0.881411
    15564.202300       0.880429
    15588.464500       0.879460
    15612.802500       0.878504
    15637.216600       0.877562
    15661.707100       0.876633
    15686.274500       0.875718
    15710.919100       0.874817
    15735.641200       0.873930
    15760.441300       0.873057
    15785.319700       0.872198
    15810.276700       0.871354
    15835.312700       0.870524
    15860.428200       0.869708
    15885.623500       0.868907
    15910.899000       0.868121
    15936.255000       0.867350
    15961.691900       0.866593
    15987.210200       0.865852
    16012.810200       0.865125
    16038.492400       0.864414
    16064.257000       0.863717
    16090.104600       0.863035
    16116.035500       0.862369
    16142.050000       0.861717
    16168.148700       0.861080
    16194.332000       0.860459
    16220.600200       0.859852
    16246.953700       0.859260
    16273.393000       0.858683
    16299.918500       0.858121
    16326.530600       0.857574
    16353.229800       0.857041
    16380.016400       0.856523
    16406.890900       0.856019
    16433.853700       0.855530
    16460.905300       0.855055
    16488.046200       0.854594
    16515.276600       0.854147
    16542.597200       0.853713
    16570.008300       0.853294
    16597.510400       0.852888
    16625.103900       0.852495
    16652.789300       0.852116
    16680.567100       0.851749
    16708.437800       0.851396
    16736.401700       0.851054
    16764.459300       0.850725
    16792.611300       0.850408
    16820.857900       0.850103
    16849.199700       0.849810
    16877.637100       0.849527
    16906.170800       0.849256
    16934.801000       0.848995
    16963.528400       0.848745
    16992.353400       0.848505
    17021.276600       0.848274
    17050.298400       0.848053
    17079.419300       0.847842
    17108.639900       0.847638
    17137.960600       0.847443
    17167.382000       0.847257
    17196.904600       0.847077
    17226.528900       0.846905
    17256.255400       0.846740
    17286.084700       0.846581
