          11  , Jan 12th 2012 http://fy3.satellite.cma.gov.cn/ArssEn/Download/FY3A_calibration_info_params.rar
Number of data points:
1044
Wavenumber (cm-1)   Filter response
     1157.675000       0.000041
     1157.944000       0.000334
     1158.212000       0.000706
     1158.480000       0.001123
     1158.749000       0.001531
     1159.017000       0.001873
     1159.286000       0.002094
     1159.555000       0.002174
     1159.824000       0.002076
     1160.093000       0.001832
     1160.362000       0.001508
     1160.631000       0.001122
     1160.901000       0.000774
     1161.170000       0.000540
     1161.440000       0.000477
     1161.710000       0.000605
     1161.980000       0.000893
     1162.250000       0.001307
     1162.520000       0.001776
     1162.791000       0.002226
     1163.061000       0.002624
     1163.332000       0.002879
     1163.603000       0.002997
     1163.873000       0.002971
     1164.144000       0.002841
     1164.415000       0.002631
     1164.687000       0.002359
     1164.958000       0.002064
     1165.230000       0.001756
     1165.501000       0.001448
     1165.773000       0.001166
     1166.045000       0.000902
     1166.317000       0.000686
     1166.589000       0.000530
     1166.861000       0.000457
     1167.134000       0.000470
     1167.406000       0.000570
     1167.679000       0.000742
     1167.951000       0.000960
     1168.224000       0.001177
     1168.497000       0.001386
     1168.771000       0.001532
     1169.044000       0.001605
     1169.317000       0.001623
     1169.591000       0.001609
     1169.864000       0.001597
     1170.138000       0.001607
     1170.412000       0.001667
     1170.686000       0.001763
     1170.960000       0.001870
     1171.234000       0.001958
     1171.509000       0.001947
     1171.784000       0.001851
     1172.058000       0.001686
     1172.333000       0.001520
     1172.608000       0.001398
     1172.883000       0.001365
     1173.158000       0.001389
     1173.433000       0.001450
     1173.709000       0.001512
     1173.984000       0.001575
     1174.260000       0.001610
     1174.536000       0.001672
     1174.812000       0.001774
     1175.088000       0.001902
     1175.365000       0.002022
     1175.641000       0.002109
     1175.917000       0.002130
     1176.194000       0.002108
     1176.471000       0.002057
     1176.747000       0.002019
     1177.024000       0.002016
     1177.302000       0.002036
     1177.579000       0.002056
     1177.856000       0.002055
     1178.134000       0.002027
     1178.411000       0.001960
     1178.689000       0.001843
     1178.967000       0.001703
     1179.245000       0.001549
     1179.524000       0.001398
     1179.802000       0.001267
     1180.080000       0.001202
     1180.359000       0.001202
     1180.638000       0.001268
     1180.916000       0.001376
     1181.195000       0.001499
     1181.474000       0.001599
     1181.754000       0.001658
     1182.033000       0.001682
     1182.313000       0.001683
     1182.592000       0.001655
     1182.872000       0.001606
     1183.152000       0.001543
     1183.432000       0.001453
     1183.712000       0.001342
     1183.992000       0.001227
     1184.273000       0.001138
     1184.553000       0.001094
     1184.834000       0.001118
     1185.115000       0.001219
     1185.396000       0.001361
     1185.677000       0.001540
     1185.958000       0.001704
     1186.240000       0.001838
     1186.521000       0.001921
     1186.803000       0.001970
     1187.085000       0.001981
     1187.366000       0.001983
     1187.648000       0.001977
     1187.931000       0.001971
     1188.213000       0.001931
     1188.495000       0.001870
     1188.778000       0.001791
     1189.061000       0.001700
     1189.344000       0.001632
     1189.627000       0.001604
     1189.910000       0.001625
     1190.193000       0.001682
     1190.476000       0.001758
     1190.760000       0.001827
     1191.043000       0.001851
     1191.327000       0.001830
     1191.611000       0.001788
     1191.895000       0.001744
     1192.179000       0.001722
     1192.464000       0.001728
     1192.748000       0.001758
     1193.033000       0.001811
     1193.318000       0.001887
     1193.602000       0.002001
     1193.887000       0.002143
     1194.172000       0.002327
     1194.458000       0.002530
     1194.743000       0.002731
     1195.029000       0.002895
     1195.314000       0.002986
     1195.600000       0.002995
     1195.886000       0.002913
     1196.172000       0.002797
     1196.458000       0.002688
     1196.745000       0.002574
     1197.031000       0.002490
     1197.318000       0.002424
     1197.605000       0.002366
     1197.892000       0.002306
     1198.179000       0.002249
     1198.466000       0.002209
     1198.753000       0.002206
     1199.041000       0.002244
     1199.328000       0.002311
     1199.616000       0.002330
     1199.904000       0.002283
     1200.192000       0.002167
     1200.480000       0.001995
     1200.769000       0.001814
     1201.057000       0.001687
     1201.345000       0.001649
     1201.634000       0.001714
     1201.923000       0.001880
     1202.212000       0.002134
     1202.501000       0.002406
     1202.790000       0.002670
     1203.080000       0.002905
     1203.369000       0.003102
     1203.659000       0.003272
     1203.949000       0.003421
     1204.239000       0.003560
     1204.529000       0.003680
     1204.819000       0.003752
     1205.110000       0.004039
     1205.400000       0.003896
     1205.691000       0.003670
     1205.982000       0.003442
     1206.273000       0.003284
     1206.564000       0.003217
     1206.855000       0.003251
     1207.146000       0.003324
     1207.438000       0.003376
     1207.729000       0.003399
     1208.021000       0.003417
     1208.313000       0.003464
     1208.605000       0.003541
     1208.897000       0.003643
     1209.190000       0.003746
     1209.482000       0.003798
     1209.775000       0.003797
     1210.068000       0.003724
     1210.361000       0.003617
     1210.654000       0.003490
     1210.947000       0.003353
     1211.240000       0.003261
     1211.534000       0.003217
     1211.828000       0.003232
     1212.121000       0.003335
     1212.415000       0.003513
     1212.709000       0.003757
     1213.003000       0.004004
     1213.298000       0.004214
     1213.592000       0.004354
     1213.887000       0.004364
     1214.182000       0.004325
     1214.477000       0.004223
     1214.772000       0.004086
     1215.067000       0.003939
     1215.362000       0.003789
     1215.658000       0.003628
     1215.953000       0.003464
     1216.249000       0.003294
     1216.545000       0.003133
     1216.841000       0.002997
     1217.137000       0.002943
     1217.434000       0.002981
     1217.730000       0.003118
     1218.027000       0.003321
     1218.324000       0.003563
     1218.620000       0.003793
     1218.917000       0.003975
     1219.215000       0.004104
     1219.512000       0.004195
     1219.810000       0.004240
     1220.107000       0.004344
     1220.405000       0.004495
     1220.703000       0.004702
     1221.001000       0.004924
     1221.300000       0.005111
     1221.598000       0.005235
     1221.896000       0.005233
     1222.195000       0.005137
     1222.494000       0.004956
     1222.793000       0.004701
     1223.092000       0.004528
     1223.391000       0.004422
     1223.691000       0.004421
     1223.990000       0.004488
     1224.290000       0.004594
     1224.590000       0.004695
     1224.890000       0.004764
     1225.190000       0.004799
     1225.490000       0.004829
     1225.791000       0.004822
     1226.091000       0.004906
     1226.392000       0.005011
     1226.693000       0.005121
     1226.994000       0.005197
     1227.295000       0.005210
     1227.596000       0.005160
     1227.898000       0.005072
     1228.200000       0.004988
     1228.501000       0.004945
     1228.803000       0.004896
     1229.105000       0.004935
     1229.407000       0.004961
     1229.710000       0.004956
     1230.012000       0.004920
     1230.315000       0.004869
     1230.618000       0.004815
     1230.921000       0.004750
     1231.224000       0.004655
     1231.527000       0.004511
     1231.830000       0.004288
     1232.134000       0.004144
     1232.438000       0.004082
     1232.742000       0.004148
     1233.046000       0.004322
     1233.350000       0.004552
     1233.654000       0.004794
     1233.959000       0.005017
     1234.263000       0.005228
     1234.568000       0.005439
     1234.873000       0.006012
     1235.178000       0.006141
     1235.483000       0.006199
     1235.788000       0.006185
     1236.094000       0.006104
     1236.400000       0.006010
     1236.705000       0.005943
     1237.011000       0.005921
     1237.318000       0.005978
     1237.624000       0.006090
     1237.930000       0.006253
     1238.237000       0.006478
     1238.543000       0.006658
     1238.851000       0.006734
     1239.157000       0.006680
     1239.465000       0.006508
     1239.772000       0.006300
     1240.079000       0.006127
     1240.387000       0.006040
     1240.695000       0.006045
     1241.003000       0.006032
     1241.311000       0.006089
     1241.619000       0.006144
     1241.927000       0.006225
     1242.236000       0.006370
     1242.545000       0.006589
     1242.854000       0.006861
     1243.163000       0.007140
     1243.472000       0.007387
     1243.781000       0.007590
     1244.091000       0.007685
     1244.400000       0.007832
     1244.710000       0.007974
     1245.020000       0.008107
     1245.330000       0.008233
     1245.640000       0.008350
     1245.951000       0.008474
     1246.261000       0.008613
     1246.572000       0.008761
     1246.883000       0.008928
     1247.194000       0.009011
     1247.505000       0.009174
     1247.817000       0.009330
     1248.128000       0.009474
     1248.439000       0.009634
     1248.751000       0.009809
     1249.063000       0.010001
     1249.375000       0.010193
     1249.688000       0.010351
     1250.000000       0.010456
     1250.313000       0.010390
     1250.625000       0.010361
     1250.938000       0.010343
     1251.251000       0.010380
     1251.564000       0.010536
     1251.878000       0.010827
     1252.191000       0.011225
     1252.505000       0.011686
     1252.819000       0.012113
     1253.133000       0.012428
     1253.447000       0.012524
     1253.761000       0.012604
     1254.076000       0.012679
     1254.390000       0.012826
     1254.705000       0.013099
     1255.020000       0.013444
     1255.335000       0.013755
     1255.650000       0.013942
     1255.966000       0.013998
     1256.281000       0.014009
     1256.597000       0.013971
     1256.913000       0.014228
     1257.229000       0.014616
     1257.545000       0.015089
     1257.862000       0.015525
     1258.178000       0.015926
     1258.495000       0.016323
     1258.812000       0.016746
     1259.129000       0.017175
     1259.446000       0.017584
     1259.763000       0.017715
     1260.081000       0.017923
     1260.398000       0.018047
     1260.716000       0.018125
     1261.034000       0.018215
     1261.352000       0.018371
     1261.670000       0.018589
     1261.989000       0.018905
     1262.307000       0.019339
     1262.626000       0.019859
     1262.945000       0.020225
     1263.264000       0.020793
     1263.583000       0.021353
     1263.903000       0.021903
     1264.223000       0.022438
     1264.542000       0.022917
     1264.862000       0.023319
     1265.182000       0.023603
     1265.502000       0.023776
     1265.823000       0.023941
     1266.143000       0.024330
     1266.464000       0.024613
     1266.785000       0.024956
     1267.106000       0.025277
     1267.427000       0.025531
     1267.749000       0.025727
     1268.070000       0.025930
     1268.392000       0.026193
     1268.714000       0.026533
     1269.036000       0.026905
     1269.358000       0.027415
     1269.680000       0.027880
     1270.003000       0.028405
     1270.325000       0.029065
     1270.648000       0.029838
     1270.971000       0.030688
     1271.294000       0.031553
     1271.618000       0.032395
     1271.941000       0.033200
     1272.265000       0.033956
     1272.589000       0.034738
     1272.912000       0.035358
     1273.237000       0.035907
     1273.561000       0.036393
     1273.885000       0.036848
     1274.210000       0.037297
     1274.535000       0.037751
     1274.860000       0.038233
     1275.185000       0.038745
     1275.510000       0.039304
     1275.836000       0.039918
     1276.161000       0.040605
     1276.487000       0.041341
     1276.813000       0.042119
     1277.139000       0.042948
     1277.465000       0.043858
     1277.792000       0.044859
     1278.119000       0.045910
     1278.445000       0.046932
     1278.772000       0.047836
     1279.099000       0.048562
     1279.427000       0.049108
     1279.754000       0.049584
     1280.082000       0.050114
     1280.410000       0.050791
     1280.738000       0.051665
     1281.066000       0.052662
     1281.394000       0.053666
     1281.723000       0.054581
     1282.051000       0.055433
     1282.380000       0.056312
     1282.709000       0.057256
     1283.038000       0.058289
     1283.368000       0.059334
     1283.697000       0.060321
     1284.027000       0.061257
     1284.357000       0.062232
     1284.687000       0.063343
     1285.017000       0.064637
     1285.347000       0.066017
     1285.678000       0.067368
     1286.008000       0.068773
     1286.339000       0.070223
     1286.670000       0.071741
     1287.001000       0.073289
     1287.333000       0.074781
     1287.664000       0.076158
     1287.996000       0.077466
     1288.328000       0.078758
     1288.660000       0.080087
     1288.992000       0.081459
     1289.324000       0.082659
     1289.657000       0.083751
     1289.990000       0.084837
     1290.323000       0.086078
     1290.656000       0.087565
     1290.989000       0.089303
     1291.322000       0.091225
     1291.656000       0.093241
     1291.990000       0.095335
     1292.324000       0.097692
     1292.658000       0.099819
     1292.992000       0.101995
     1293.326000       0.104166
     1293.661000       0.106299
     1293.996000       0.108417
     1294.331000       0.110516
     1294.666000       0.112578
     1295.001000       0.114594
     1295.337000       0.116567
     1295.672000       0.118763
     1296.008000       0.120896
     1296.344000       0.123220
     1296.681000       0.125655
     1297.017000       0.128077
     1297.353000       0.130415
     1297.690000       0.132753
     1298.027000       0.135201
     1298.364000       0.137828
     1298.701000       0.140628
     1299.039000       0.136182
     1299.376000       0.139909
     1299.714000       0.143742
     1300.052000       0.147758
     1300.390000       0.152154
     1300.728000       0.156761
     1301.067000       0.161489
     1301.406000       0.166299
     1301.744000       0.171202
     1302.083000       0.176190
     1302.422000       0.181533
     1302.762000       0.185361
     1303.101000       0.189221
     1303.441000       0.193164
     1303.781000       0.197236
     1304.121000       0.201303
     1304.461000       0.205449
     1304.802000       0.209707
     1305.142000       0.214064
     1305.483000       0.218565
     1305.824000       0.225073
     1306.165000       0.230133
     1306.506000       0.235527
     1306.848000       0.241159
     1307.190000       0.246910
     1307.531000       0.252675
     1307.873000       0.258368
     1308.216000       0.264037
     1308.558000       0.269856
     1308.901000       0.275901
     1309.243000       0.284141
     1309.586000       0.290645
     1309.929000       0.297268
     1310.273000       0.304060
     1310.616000       0.311024
     1310.960000       0.318186
     1311.303000       0.325563
     1311.647000       0.333278
     1311.992000       0.341863
     1312.336000       0.350985
     1312.681000       0.363433
     1313.025000       0.373276
     1313.370000       0.383228
     1313.715000       0.393250
     1314.060000       0.403518
     1314.406000       0.414200
     1314.751000       0.425363
     1315.097000       0.436812
     1315.443000       0.448362
     1315.790000       0.459669
     1316.136000       0.476630
     1316.482000       0.488428
     1316.829000       0.500564
     1317.176000       0.512950
     1317.523000       0.525422
     1317.870000       0.538083
     1318.218000       0.551145
     1318.565000       0.564800
     1318.913000       0.578936
     1319.261000       0.593244
     1319.609000       0.613528
     1319.958000       0.626503
     1320.306000       0.639205
     1320.655000       0.651779
     1321.004000       0.664249
     1321.353000       0.676626
     1321.702000       0.688986
     1322.052000       0.701500
     1322.401000       0.714270
     1322.751000       0.727253
     1323.101000       0.748237
     1323.452000       0.761563
     1323.802000       0.774789
     1324.153000       0.787923
     1324.503000       0.800891
     1324.854000       0.813477
     1325.205000       0.825516
     1325.557000       0.836990
     1325.908000       0.848077
     1326.260000       0.858901
     1326.612000       0.877256
     1326.964000       0.887270
     1327.316000       0.896419
     1327.669000       0.905025
     1328.021000       0.913439
     1328.374000       0.921771
     1328.727000       0.929751
     1329.080000       0.937114
     1329.434000       0.943668
     1329.787000       0.949363
     1330.141000       0.960929
     1330.495000       0.965406
     1330.849000       0.969222
     1331.203000       0.973095
     1331.558000       0.976758
     1331.913000       0.980339
     1332.267000       0.983664
     1332.623000       0.986335
     1332.978000       0.988044
     1333.333000       0.988797
     1333.689000       0.994499
     1334.045000       0.994423
     1334.401000       0.994110
     1334.757000       0.993675
     1335.114000       0.994691
     1335.470000       0.995614
     1335.827000       0.996520
     1336.184000       0.997231
     1336.541000       0.997354
     1336.898000       0.996872
     1337.256000       0.998029
     1337.614000       0.997699
     1337.972000       0.997886
     1338.330000       0.998632
     1338.688000       0.999371
     1339.047000       0.999193
     1339.405000       0.998731
     1339.764000       0.997789
     1340.123000       0.996216
     1340.483000       0.994092
     1340.842000       1.000000
     1341.202000       0.996725
     1341.562000       0.993834
     1341.922000       0.991523
     1342.282000       0.989759
     1342.642000       0.988070
     1343.003000       0.986285
     1343.364000       0.984545
     1343.725000       0.982907
     1344.086000       0.981567
     1344.447000       0.983078
     1344.809000       0.983343
     1345.171000       0.983687
     1345.533000       0.983980
     1345.895000       0.984300
     1346.257000       0.984843
     1346.620000       0.985943
     1346.983000       0.987310
     1347.346000       0.988626
     1347.709000       0.989753
     1348.072000       0.987721
     1348.436000       0.989411
     1348.800000       0.991125
     1349.163000       0.992749
     1349.528000       0.994310
     1349.892000       0.995948
     1350.256000       0.997536
     1350.621000       0.998444
     1350.986000       0.999074
