95,   95, MVIRI VIS channel from srf_MET5_2003033_2003034_1801-Release_S10EL_10.dat
Number of data points:
806
Wavenumber (cm-1)   Filter response
     8350.730700       0.000000
     8357.710000       0.000000
     8364.701000       0.000000
     8371.703600       0.000002
     8378.718100       0.000004
     8385.744200       0.000009
     8392.782200       0.000017
     8399.832000       0.000028
     8406.893700       0.000042
     8413.967200       0.000061
     8421.052600       0.000085
     8428.150000       0.000113
     8435.259400       0.000148
     8442.380800       0.000189
     8449.514200       0.000236
     8456.659600       0.000290
     8463.817200       0.000352
     8470.986900       0.000422
     8478.168700       0.000499
     8485.362700       0.000586
     8492.569000       0.000681
     8499.787500       0.000785
     8507.018300       0.000899
     8514.261400       0.001023
     8521.516800       0.001157
     8528.784600       0.001301
     8536.064900       0.001456
     8543.357500       0.001623
     8550.662700       0.001800
     8557.980300       0.001989
     8565.310500       0.002190
     8572.653200       0.002403
     8580.008600       0.002628
     8587.376600       0.002865
     8594.757200       0.003116
     8602.150500       0.003379
     8609.556600       0.003655
     8616.975400       0.003945
     8624.407100       0.004248
     8631.851500       0.004565
     8639.308900       0.004896
     8646.779100       0.005241
     8654.262200       0.005600
     8661.758300       0.005974
     8669.267400       0.006362
     8676.789600       0.006765
     8684.324800       0.007183
     8691.873100       0.007616
     8699.434500       0.008064
     8707.009100       0.008528
     8714.596900       0.009007
     8722.198000       0.009501
     8729.812300       0.010012
     8737.439900       0.010538
     8745.080900       0.011081
     8752.735200       0.011639
     8760.403000       0.012214
     8768.084200       0.012805
     8775.778900       0.013413
     8783.487000       0.014038
     8791.208800       0.014679
     8798.944100       0.015338
     8806.693100       0.016013
     8814.455700       0.016706
     8822.232000       0.017416
     8830.022100       0.018143
     8837.825900       0.018888
     8845.643500       0.019650
     8853.475000       0.020430
     8861.320300       0.021228
     8869.179600       0.022044
     8877.052800       0.022877
     8884.940000       0.023730
     8892.841300       0.024600
     8900.756600       0.025489
     8908.686000       0.026396
     8916.629500       0.027321
     8924.587200       0.028266
     8932.559200       0.029229
     8940.545400       0.030211
     8948.545900       0.031212
     8956.560700       0.032233
     8964.589900       0.033272
     8972.633500       0.034331
     8980.691500       0.035409
     8988.764000       0.036507
     8996.851100       0.037624
     9004.952700       0.038761
     9013.068900       0.039918
     9021.199800       0.041094
     9029.345400       0.042291
     9037.505600       0.043508
     9045.680700       0.044745
     9053.870500       0.046002
     9062.075200       0.047280
     9070.294800       0.048578
     9078.529300       0.049897
     9086.778700       0.051236
     9095.043200       0.052597
     9103.322700       0.053978
     9111.617300       0.055380
     9119.927000       0.056803
     9128.251900       0.058248
     9136.592100       0.059713
     9144.947400       0.061200
     9153.318100       0.062709
     9161.704100       0.064238
     9170.105500       0.065790
     9178.522300       0.067363
     9186.954500       0.068958
     9195.402300       0.070575
     9203.865600       0.072213
     9212.344500       0.073874
     9220.839100       0.075557
     9229.349300       0.077262
     9237.875300       0.078990
     9246.417000       0.080740
     9254.974500       0.082512
     9263.547900       0.084307
     9272.137200       0.086124
     9280.742500       0.087964
     9289.363700       0.089826
     9298.000900       0.091712
     9306.654300       0.093620
     9315.323700       0.095551
     9324.009300       0.097505
     9332.711200       0.099483
     9341.429200       0.101483
     9350.163600       0.103506
     9358.914400       0.105553
     9367.681500       0.107623
     9376.465100       0.109716
     9385.265100       0.111833
     9394.081700       0.113973
     9402.914900       0.116137
     9411.764700       0.118324
     9420.631200       0.120535
     9429.514400       0.122769
     9438.414300       0.125027
     9447.331100       0.127308
     9456.264800       0.129613
     9465.215300       0.131942
     9474.182900       0.134295
     9483.167400       0.136671
     9492.169000       0.139071
     9501.187600       0.141495
     9510.223500       0.143943
     9519.276500       0.146414
     9528.346800       0.148910
     9537.434400       0.151429
     9546.539400       0.153972
     9555.661700       0.156539
     9564.801500       0.159129
     9573.958800       0.161744
     9583.133700       0.164382
     9592.326100       0.167044
     9601.536200       0.169730
     9610.764100       0.172439
     9620.009600       0.175172
     9629.273000       0.177929
     9638.554200       0.180710
     9647.853400       0.183514
     9657.170400       0.186341
     9666.505600       0.189193
     9675.858700       0.192067
     9685.230000       0.194965
     9694.619500       0.197887
     9704.027200       0.200831
     9713.453100       0.203799
     9722.897400       0.206791
     9732.360100       0.209805
     9741.841200       0.212842
     9751.340800       0.215902
     9760.859000       0.218985
     9770.395700       0.222091
     9779.951100       0.225219
     9789.525200       0.228370
     9799.118100       0.231544
     9808.729800       0.234740
     9818.360300       0.237958
     9828.009800       0.241198
     9837.678300       0.244461
     9847.365800       0.247745
     9857.072400       0.251051
     9866.798200       0.254379
     9876.543200       0.257728
     9886.307500       0.261098
     9896.091000       0.264491
     9905.894000       0.267903
     9915.716400       0.271337
     9925.558300       0.274792
     9935.419800       0.278267
     9945.300800       0.281763
     9955.201600       0.285279
     9965.122100       0.288816
     9975.062300       0.292372
     9985.022500       0.295948
     9995.002500       0.299544
    10005.002500       0.303159
    10015.022500       0.306793
    10025.062700       0.310446
    10035.122900       0.314118
    10045.203400       0.317809
    10055.304200       0.321518
    10065.425300       0.325245
    10075.566800       0.328990
    10085.728700       0.332753
    10095.911200       0.336534
    10106.114200       0.340331
    10116.337900       0.344146
    10126.582300       0.347977
    10136.847400       0.351826
    10147.133400       0.355690
    10157.440300       0.359571
    10167.768200       0.363467
    10178.117000       0.367379
    10188.487000       0.371306
    10198.878100       0.375248
    10209.290500       0.379205
    10219.724100       0.383176
    10230.179000       0.387162
    10240.655400       0.391161
    10251.153300       0.395175
    10261.672700       0.399201
    10272.213700       0.403240
    10282.776300       0.407293
    10293.360800       0.411357
    10303.967000       0.415434
    10314.595200       0.419523
    10325.245200       0.423623
    10335.917300       0.427734
    10346.611500       0.431857
    10357.327800       0.435989
    10368.066400       0.440132
    10378.827200       0.444285
    10389.610400       0.448448
    10400.416000       0.452620
    10411.244100       0.456800
    10422.094800       0.460990
    10432.968200       0.465187
    10443.864200       0.469393
    10454.783100       0.473605
    10465.724800       0.477826
    10476.689400       0.482052
    10487.677000       0.486286
    10498.687700       0.490525
    10509.721500       0.494771
    10520.778500       0.499021
    10531.858900       0.503277
    10542.962600       0.507537
    10554.089700       0.511802
    10565.240400       0.516070
    10576.414600       0.520342
    10587.612500       0.524617
    10598.834100       0.528895
    10610.079600       0.533175
    10621.348900       0.537458
    10632.642200       0.541741
    10643.959600       0.546027
    10655.301000       0.550312
    10666.666700       0.554599
    10678.056600       0.558885
    10689.470900       0.563171
    10700.909600       0.567457
    10712.372800       0.571741
    10723.860600       0.576023
    10735.373100       0.580304
    10746.910300       0.584583
    10758.472300       0.588858
    10770.059200       0.593131
    10781.671200       0.597399
    10793.308100       0.601664
    10804.970300       0.605925
    10816.657700       0.610181
    10828.370300       0.614432
    10840.108400       0.618677
    10851.871900       0.622916
    10863.661100       0.627149
    10875.475800       0.631375
    10887.316300       0.635593
    10899.182600       0.639805
    10911.074700       0.644008
    10922.992900       0.648203
    10934.937100       0.652388
    10946.907500       0.656565
    10958.904100       0.660732
    10970.927000       0.664889
    10982.976400       0.669035
    10995.052200       0.673171
    11007.154700       0.677295
    11019.283700       0.681408
    11031.439600       0.685508
    11043.622300       0.689596
    11055.832000       0.693671
    11068.068600       0.697733
    11080.332400       0.701782
    11092.623400       0.705816
    11104.941700       0.709835
    11117.287400       0.713840
    11129.660500       0.717829
    11142.061300       0.721803
    11154.489700       0.725761
    11166.945800       0.729702
    11179.429800       0.733626
    11191.941800       0.737534
    11204.481800       0.741423
    11217.049900       0.745295
    11229.646300       0.749148
    11242.270900       0.752982
    11254.924000       0.756798
    11267.605600       0.760594
    11280.315800       0.764370
    11293.054800       0.768125
    11305.822500       0.771860
    11318.619100       0.775575
    11331.444800       0.779267
    11344.299500       0.782938
    11357.183400       0.786587
    11370.096600       0.790214
    11383.039300       0.793818
    11396.011400       0.797399
    11409.013100       0.800956
    11422.044500       0.804490
    11435.105800       0.807999
    11448.196900       0.811484
    11461.318100       0.814945
    11474.469300       0.818380
    11487.650800       0.821789
    11500.862600       0.825173
    11514.104800       0.828531
    11527.377500       0.831863
    11540.680900       0.835168
    11554.015000       0.838446
    11567.380000       0.841696
    11580.775900       0.844919
    11594.202900       0.848114
    11607.661100       0.851281
    11621.150500       0.854420
    11634.671300       0.857530
    11648.223600       0.860611
    11661.807600       0.863662
    11675.423200       0.866684
    11689.070700       0.869677
    11702.750100       0.872639
    11716.461600       0.875571
    11730.205300       0.878472
    11743.981200       0.881343
    11757.789500       0.884182
    11771.630400       0.886991
    11785.503800       0.889767
    11799.410000       0.892513
    11813.349100       0.895226
    11827.321100       0.897907
    11841.326200       0.900556
    11855.364600       0.903172
    11869.436200       0.905755
    11883.541300       0.908306
    11897.680000       0.910823
    11911.852300       0.913307
    11926.058400       0.915758
    11940.298500       0.918175
    11954.572600       0.920558
    11968.880900       0.922907
    11983.223500       0.925222
    11997.600500       0.927503
    12012.012000       0.929749
    12026.458200       0.931961
    12040.939200       0.934138
    12055.455100       0.936280
    12070.006000       0.938388
    12084.592100       0.940460
    12099.213600       0.942497
    12113.870400       0.944499
    12128.562800       0.946466
    12143.290800       0.948397
    12158.054700       0.950293
    12172.854500       0.952153
    12187.690400       0.953977
    12202.562500       0.955766
    12217.471000       0.957519
    12232.415900       0.959236
    12247.397400       0.960917
    12262.415700       0.962562
    12277.470800       0.964172
    12292.563000       0.965745
    12307.692300       0.967282
    12322.858900       0.968783
    12338.062900       0.970248
    12353.304500       0.971678
    12368.583800       0.973071
    12383.900900       0.974428
    12399.256000       0.975749
    12414.649300       0.977034
    12430.080800       0.978282
    12445.550700       0.979495
    12461.059200       0.980673
    12476.606400       0.981814
    12492.192400       0.982919
    12507.817400       0.983989
    12523.481500       0.985023
    12539.185000       0.986021
    12554.927800       0.986984
    12570.710200       0.987911
    12586.532400       0.988803
    12602.394500       0.989660
    12618.296500       0.990481
    12634.238800       0.991268
    12650.221400       0.992019
    12666.244500       0.992735
    12682.308200       0.993417
    12698.412700       0.994064
    12714.558200       0.994677
    12730.744700       0.995255
    12746.972600       0.995799
    12763.241900       0.996310
    12779.552700       0.996786
    12795.905300       0.997228
    12812.299800       0.997637
    12828.736400       0.998013
    12845.215200       0.998356
    12861.736300       0.998665
    12878.300100       0.998942
    12894.906500       0.999186
    12911.555800       0.999398
    12928.248200       0.999577
    12944.983800       0.999725
    12961.762800       0.999841
    12978.585300       0.999925
    12995.451600       0.999978
    13012.361700       1.000000
    13029.316000       0.999991
    13046.314400       0.999952
    13063.357300       0.999882
    13080.444700       0.999782
    13097.576900       0.999653
    13114.754100       0.999494
    13131.976400       0.999305
    13149.243900       0.999088
    13166.556900       0.998842
    13183.915600       0.998568
    13201.320100       0.998265
    13218.770700       0.997935
    13236.267400       0.997577
    13253.810500       0.997192
    13271.400100       0.996780
    13289.036500       0.996342
    13306.719900       0.995877
    13324.450400       0.995386
    13342.228200       0.994870
    13360.053400       0.994329
    13377.926400       0.993762
    13395.847300       0.993171
    13413.816200       0.992555
    13431.833400       0.991916
    13449.899100       0.991253
    13468.013500       0.990567
    13486.176700       0.989858
    13504.388900       0.989126
    13522.650400       0.988372
    13540.961400       0.987597
    13559.322000       0.986800
    13577.732500       0.985982
    13596.193100       0.985144
    13614.703900       0.984285
    13633.265200       0.983406
    13651.877100       0.982508
    13670.540000       0.981590
    13689.253900       0.980654
    13708.019200       0.979699
    13726.836000       0.978727
    13745.704500       0.977737
    13764.624900       0.976730
    13783.597500       0.975706
    13802.622500       0.974666
    13821.700100       0.973609
    13840.830400       0.972537
    13860.013900       0.971450
    13879.250500       0.970349
    13898.540700       0.969233
    13917.884500       0.968103
    13937.282200       0.966959
    13956.734100       0.965803
    13976.240400       0.964634
    13995.801300       0.963452
    14015.417000       0.962259
    14035.087700       0.961055
    14054.813800       0.959839
    14074.595400       0.958613
    14094.432700       0.957376
    14114.326000       0.956130
    14134.275600       0.954875
    14154.281700       0.953611
    14174.344400       0.952338
    14194.464200       0.951057
    14214.641100       0.949768
    14234.875400       0.948473
    14255.167500       0.947170
    14275.517500       0.945861
    14295.925700       0.944547
    14316.392300       0.943226
    14336.917600       0.941901
    14357.501800       0.940570
    14378.145200       0.939236
    14398.848100       0.937897
    14419.610700       0.936555
    14440.433200       0.935210
    14461.316000       0.933863
    14482.259200       0.932513
    14503.263200       0.931161
    14524.328200       0.929808
    14545.454500       0.928453
    14566.642400       0.927098
    14587.892000       0.925743
    14609.203800       0.924388
    14630.577900       0.923033
    14652.014700       0.921679
    14673.514300       0.920327
    14695.077100       0.918976
    14716.703500       0.917627
    14738.393500       0.916281
    14760.147600       0.914938
    14781.966000       0.913597
    14803.849000       0.912260
    14825.796900       0.910927
    14847.809900       0.909599
    14869.888500       0.908274
    14892.032800       0.906955
    14914.243100       0.905641
    14936.519800       0.904333
    14958.863100       0.903030
    14981.273400       0.901734
    15003.750900       0.900445
    15026.296000       0.899162
    15048.909000       0.897887
    15071.590100       0.896620
    15094.339600       0.895360
    15117.158000       0.894108
    15140.045400       0.892865
    15163.002300       0.891631
    15186.028900       0.890405
    15209.125500       0.889189
    15232.292500       0.887983
    15255.530100       0.886786
    15278.838800       0.885600
    15302.218800       0.884424
    15325.670500       0.883259
    15349.194200       0.882104
    15372.790200       0.880961
    15396.458800       0.879829
    15420.200500       0.878709
    15444.015400       0.877600
    15467.904100       0.876504
    15491.866800       0.875419
    15515.903800       0.874348
    15540.015500       0.873288
    15564.202300       0.872242
    15588.464500       0.871208
    15612.802500       0.870188
    15637.216600       0.869181
    15661.707100       0.868187
    15686.274500       0.867207
    15710.919100       0.866241
    15735.641200       0.865289
    15760.441300       0.864350
    15785.319700       0.863426
    15810.276700       0.862516
    15835.312700       0.861620
    15860.428200       0.860739
    15885.623500       0.859872
    15910.899000       0.859020
    15936.255000       0.858182
    15961.691900       0.857359
    15987.210200       0.856551
    16012.810200       0.855757
    16038.492400       0.854979
    16064.257000       0.854215
    16090.104600       0.853466
    16116.035500       0.852732
    16142.050000       0.852012
    16168.148700       0.851307
    16194.332000       0.850618
    16220.600200       0.849943
    16246.953700       0.849282
    16273.393000       0.848636
    16299.918500       0.848005
    16326.530600       0.847389
    16353.229800       0.846787
    16380.016400       0.846199
    16406.890900       0.845625
    16433.853700       0.845066
    16460.905300       0.844520
    16488.046200       0.843989
    16515.276600       0.843471
    16542.597200       0.842967
    16570.008300       0.842476
    16597.510400       0.841999
    16625.103900       0.841534
    16652.789300       0.841083
    16680.567100       0.840644
    16708.437800       0.840218
    16736.401700       0.839804
    16764.459300       0.839402
    16792.611300       0.839012
    16820.857900       0.838633
    16849.199700       0.838266
    16877.637100       0.837909
    16906.170800       0.837564
    16934.801000       0.837229
    16963.528400       0.836904
    16992.353400       0.836589
    17021.276600       0.836283
    17050.298400       0.835987
    17079.419300       0.835699
    17108.639900       0.835420
    17137.960600       0.835149
    17167.382000       0.834886
    17196.904600       0.834630
    17226.528900       0.834382
    17256.255400       0.834139
    17286.084700       0.833903
