11  ,metop_1_hirs_11.flt    original file MTBH307srf.txt (Oct 6th, 2011) http://www.star.nesdis.noaa.gov/smcd/spb/calibration/hirs/hirssrf.html
Number of data points:
1021
Wavenumber (cm-1)   Filter response
     1309.950000       0.000000
     1310.050000       0.000146
     1310.150000       0.000292
     1310.250000       0.000438
     1310.350000       0.000585
     1310.450000       0.000733
     1310.550000       0.000881
     1310.650000       0.001030
     1310.750000       0.001178
     1310.850000       0.001328
     1310.950000       0.001477
     1311.050000       0.001562
     1311.150000       0.001646
     1311.250000       0.001731
     1311.350000       0.001816
     1311.450000       0.001900
     1311.550000       0.001985
     1311.650000       0.002070
     1311.750000       0.002155
     1311.850000       0.002239
     1311.950000       0.002324
     1312.050000       0.002409
     1312.150000       0.002493
     1312.250000       0.002578
     1312.350000       0.002663
     1312.450000       0.002747
     1312.550000       0.002832
     1312.650000       0.002917
     1312.750000       0.003001
     1312.850000       0.003086
     1312.950000       0.003171
     1313.050000       0.003255
     1313.150000       0.003339
     1313.250000       0.003424
     1313.350000       0.003508
     1313.450000       0.003593
     1313.550000       0.003677
     1313.650000       0.003761
     1313.750000       0.003845
     1313.850000       0.003930
     1313.950000       0.004014
     1314.050000       0.004098
     1314.150000       0.004183
     1314.250000       0.004267
     1314.350000       0.004351
     1314.450000       0.004435
     1314.550000       0.004520
     1314.650000       0.004604
     1314.750000       0.004688
     1314.850000       0.004772
     1314.950000       0.004856
     1315.050000       0.004943
     1315.150000       0.005030
     1315.250000       0.005117
     1315.350000       0.005204
     1315.450000       0.005291
     1315.550000       0.005379
     1315.650000       0.005466
     1315.750000       0.005554
     1315.850000       0.005641
     1315.950000       0.005728
     1316.050000       0.005816
     1316.150000       0.005904
     1316.250000       0.005992
     1316.350000       0.006080
     1316.450000       0.006168
     1316.550000       0.006256
     1316.650000       0.006344
     1316.750000       0.006432
     1316.850000       0.006521
     1316.950000       0.006609
     1317.050000       0.006696
     1317.150000       0.006783
     1317.250000       0.006870
     1317.350000       0.006957
     1317.450000       0.007044
     1317.550000       0.007131
     1317.650000       0.007219
     1317.750000       0.007306
     1317.850000       0.007393
     1317.950000       0.007480
     1318.050000       0.007568
     1318.150000       0.007655
     1318.250000       0.007742
     1318.350000       0.007829
     1318.450000       0.007917
     1318.550000       0.008004
     1318.650000       0.008091
     1318.750000       0.008179
     1318.850000       0.008266
     1318.950000       0.008354
     1319.050000       0.008442
     1319.150000       0.008529
     1319.250000       0.008617
     1319.350000       0.008705
     1319.450000       0.008793
     1319.550000       0.008881
     1319.650000       0.008969
     1319.750000       0.009057
     1319.850000       0.009145
     1319.950000       0.009233
     1320.050000       0.009321
     1320.150000       0.009409
     1320.250000       0.009497
     1320.350000       0.009585
     1320.450000       0.009674
     1320.550000       0.009762
     1320.650000       0.009850
     1320.750000       0.009939
     1320.850000       0.010027
     1320.950000       0.010116
     1321.050000       0.010202
     1321.150000       0.010289
     1321.250000       0.010376
     1321.350000       0.010463
     1321.450000       0.010550
     1321.550000       0.010637
     1321.650000       0.010724
     1321.750000       0.010811
     1321.850000       0.010898
     1321.950000       0.010985
     1322.050000       0.011072
     1322.150000       0.011159
     1322.250000       0.011246
     1322.350000       0.011333
     1322.450000       0.011420
     1322.550000       0.011507
     1322.650000       0.011594
     1322.750000       0.011681
     1322.850000       0.011769
     1322.950000       0.011856
     1323.050000       0.011945
     1323.150000       0.012034
     1323.250000       0.012124
     1323.350000       0.012214
     1323.450000       0.012303
     1323.550000       0.012393
     1323.650000       0.012483
     1323.750000       0.012572
     1323.850000       0.012662
     1323.950000       0.012752
     1324.050000       0.012842
     1324.150000       0.012932
     1324.250000       0.013022
     1324.350000       0.013112
     1324.450000       0.013202
     1324.550000       0.013292
     1324.650000       0.013382
     1324.750000       0.013472
     1324.850000       0.013562
     1324.950000       0.013653
     1325.050000       0.013744
     1325.150000       0.013835
     1325.250000       0.013926
     1325.350000       0.014018
     1325.450000       0.014109
     1325.550000       0.014200
     1325.650000       0.014292
     1325.750000       0.014383
     1325.850000       0.014475
     1325.950000       0.014567
     1326.050000       0.014659
     1326.150000       0.014750
     1326.250000       0.014842
     1326.350000       0.014934
     1326.450000       0.015026
     1326.550000       0.015119
     1326.650000       0.015211
     1326.750000       0.015146
     1326.850000       0.015094
     1326.950000       0.015068
     1327.050000       0.015084
     1327.150000       0.015157
     1327.250000       0.015304
     1327.350000       0.015540
     1327.450000       0.015876
     1327.550000       0.016310
     1327.650000       0.016834
     1327.750000       0.017442
     1327.850000       0.018124
     1327.950000       0.018876
     1328.050000       0.019690
     1328.150000       0.020559
     1328.250000       0.021474
     1328.350000       0.022431
     1328.450000       0.023422
     1328.550000       0.024450
     1328.650000       0.025515
     1328.750000       0.026620
     1328.850000       0.027770
     1328.950000       0.028963
     1329.050000       0.030208
     1329.150000       0.031502
     1329.250000       0.032849
     1329.350000       0.034251
     1329.450000       0.035710
     1329.550000       0.037225
     1329.650000       0.038797
     1329.750000       0.040425
     1329.850000       0.042110
     1329.950000       0.043850
     1330.050000       0.045647
     1330.150000       0.047496
     1330.250000       0.049402
     1330.350000       0.051361
     1330.450000       0.053375
     1330.550000       0.055440
     1330.650000       0.057561
     1330.750000       0.059731
     1330.850000       0.061952
     1330.950000       0.064223
     1331.050000       0.066533
     1331.150000       0.068891
     1331.250000       0.071296
     1331.350000       0.073747
     1331.450000       0.076244
     1331.550000       0.078784
     1331.650000       0.081368
     1331.750000       0.083994
     1331.850000       0.086662
     1331.950000       0.089372
     1332.050000       0.092121
     1332.150000       0.094909
     1332.250000       0.097735
     1332.350000       0.100599
     1332.450000       0.103500
     1332.550000       0.106437
     1332.650000       0.109410
     1332.750000       0.112419
     1332.850000       0.115464
     1332.950000       0.118544
     1333.050000       0.121651
     1333.150000       0.124793
     1333.250000       0.127970
     1333.350000       0.131180
     1333.450000       0.134424
     1333.550000       0.137698
     1333.650000       0.141001
     1333.750000       0.144328
     1333.850000       0.147680
     1333.950000       0.151051
     1334.050000       0.154436
     1334.150000       0.157851
     1334.250000       0.161266
     1334.350000       0.164697
     1334.450000       0.168128
     1334.550000       0.171576
     1334.650000       0.175023
     1334.750000       0.178487
     1334.850000       0.181951
     1334.950000       0.185415
     1335.050000       0.188870
     1335.150000       0.192324
     1335.250000       0.195778
     1335.350000       0.199231
     1335.450000       0.202684
     1335.550000       0.206152
     1335.650000       0.209634
     1335.750000       0.213117
     1335.850000       0.216614
     1335.950000       0.220142
     1336.050000       0.223685
     1336.150000       0.227258
     1336.250000       0.230877
     1336.350000       0.234511
     1336.450000       0.238191
     1336.550000       0.241916
     1336.650000       0.245672
     1336.750000       0.249474
     1336.850000       0.253321
     1336.950000       0.257214
     1337.050000       0.261128
     1337.150000       0.265072
     1337.250000       0.269075
     1337.350000       0.273123
     1337.450000       0.277230
     1337.550000       0.281382
     1337.650000       0.285624
     1337.750000       0.289926
     1337.850000       0.294319
     1337.950000       0.298801
     1338.050000       0.303371
     1338.150000       0.308061
     1338.250000       0.312857
     1338.350000       0.317788
     1338.450000       0.322841
     1338.550000       0.328029
     1338.650000       0.333352
     1338.750000       0.338811
     1338.850000       0.344421
     1338.950000       0.350166
     1339.050000       0.356134
     1339.150000       0.362255
     1339.250000       0.368513
     1339.350000       0.374939
     1339.450000       0.381519
     1339.550000       0.388266
     1339.650000       0.395167
     1339.750000       0.402236
     1339.850000       0.409473
     1339.950000       0.416878
     1340.050000       0.424454
     1340.150000       0.432214
     1340.250000       0.440142
     1340.350000       0.448239
     1340.450000       0.456518
     1340.550000       0.464982
     1340.650000       0.473613
     1340.750000       0.482413
     1340.850000       0.491381
     1340.950000       0.500516
     1341.050000       0.509682
     1341.150000       0.518995
     1341.250000       0.528471
     1341.350000       0.538094
     1341.450000       0.547865
     1341.550000       0.557767
     1341.650000       0.567786
     1341.750000       0.577922
     1341.850000       0.588143
     1341.950000       0.598435
     1342.050000       0.608799
     1342.150000       0.619219
     1342.250000       0.629663
     1342.350000       0.640131
     1342.450000       0.650609
     1342.550000       0.661080
     1342.650000       0.671515
     1342.750000       0.681913
     1342.850000       0.692259
     1342.950000       0.702523
     1343.050000       0.712697
     1343.150000       0.722773
     1343.250000       0.732723
     1343.350000       0.742529
     1343.450000       0.752179
     1343.550000       0.761641
     1343.650000       0.770900
     1343.750000       0.779941
     1343.850000       0.788718
     1343.950000       0.797217
     1344.050000       0.805417
     1344.150000       0.813294
     1344.250000       0.820833
     1344.350000       0.827988
     1344.450000       0.834759
     1344.550000       0.841133
     1344.650000       0.847124
     1344.750000       0.852703
     1344.850000       0.857899
     1344.950000       0.862713
     1345.050000       0.866979
     1345.150000       0.870863
     1345.250000       0.874334
     1345.350000       0.877424
     1345.450000       0.880118
     1345.550000       0.882418
     1345.650000       0.884323
     1345.750000       0.885819
     1345.850000       0.886935
     1345.950000       0.887643
     1346.050000       0.887960
     1346.150000       0.887870
     1346.250000       0.887388
     1346.350000       0.886500
     1346.450000       0.885221
     1346.550000       0.883537
     1346.650000       0.881509
     1346.750000       0.879107
     1346.850000       0.876362
     1346.950000       0.873288
     1347.050000       0.869865
     1347.150000       0.866146
     1347.250000       0.862144
     1347.350000       0.857878
     1347.450000       0.853345
     1347.550000       0.848592
     1347.650000       0.843604
     1347.750000       0.838410
     1347.850000       0.833013
     1347.950000       0.827456
     1348.050000       0.821738
     1348.150000       0.815875
     1348.250000       0.809883
     1348.350000       0.803777
     1348.450000       0.797573
     1348.550000       0.791300
     1348.650000       0.784958
     1348.750000       0.778578
     1348.850000       0.772158
     1348.950000       0.765730
     1349.050000       0.759369
     1349.150000       0.753027
     1349.250000       0.746706
     1349.350000       0.740448
     1349.450000       0.734255
     1349.550000       0.728126
     1349.650000       0.722091
     1349.750000       0.716150
     1349.850000       0.710302
     1349.950000       0.704577
     1350.050000       0.698944
     1350.150000       0.693449
     1350.250000       0.688092
     1350.350000       0.682872
     1350.450000       0.677803
     1350.550000       0.672886
     1350.650000       0.668120
     1350.750000       0.663505
     1350.850000       0.659057
     1350.950000       0.654759
     1351.050000       0.650604
     1351.150000       0.646615
     1351.250000       0.642792
     1351.350000       0.639133
     1351.450000       0.635655
     1351.550000       0.632355
     1351.650000       0.629221
     1351.750000       0.626280
     1351.850000       0.623503
     1351.950000       0.620918
     1352.050000       0.618515
     1352.150000       0.616289
     1352.250000       0.614255
     1352.350000       0.612398
     1352.450000       0.610734
     1352.550000       0.609246
     1352.650000       0.607949
     1352.750000       0.606813
     1352.850000       0.605854
     1352.950000       0.605070
     1353.050000       0.604520
     1353.150000       0.604130
     1353.250000       0.603901
     1353.350000       0.603818
     1353.450000       0.603894
     1353.550000       0.604116
     1353.650000       0.604483
     1353.750000       0.604996
     1353.850000       0.605654
     1353.950000       0.606471
     1354.050000       0.607421
     1354.150000       0.608515
     1354.250000       0.609753
     1354.350000       0.611122
     1354.450000       0.612634
     1354.550000       0.614276
     1354.650000       0.616062
     1354.750000       0.617977
     1354.850000       0.620006
     1354.950000       0.622165
     1355.050000       0.624367
     1355.150000       0.626682
     1355.250000       0.629097
     1355.350000       0.631639
     1355.450000       0.634280
     1355.550000       0.637034
     1355.650000       0.639886
     1355.750000       0.642835
     1355.850000       0.645883
     1355.950000       0.649029
     1356.050000       0.652276
     1356.150000       0.655606
     1356.250000       0.659034
     1356.350000       0.662545
     1356.450000       0.666138
     1356.550000       0.669814
     1356.650000       0.673543
     1356.750000       0.677356
     1356.850000       0.681236
     1356.950000       0.685156
     1357.050000       0.689197
     1357.150000       0.693277
     1357.250000       0.697383
     1357.350000       0.701542
     1357.450000       0.705727
     1357.550000       0.709937
     1357.650000       0.714173
     1357.750000       0.718448
     1357.850000       0.722748
     1357.950000       0.727073
     1358.050000       0.731438
     1358.150000       0.735814
     1358.250000       0.740229
     1358.350000       0.744668
     1358.450000       0.749133
     1358.550000       0.753624
     1358.650000       0.758124
     1358.750000       0.762650
     1358.850000       0.767172
     1358.950000       0.771705
     1359.050000       0.776169
     1359.150000       0.780643
     1359.250000       0.785085
     1359.350000       0.789522
     1359.450000       0.793927
     1359.550000       0.798313
     1359.650000       0.802667
     1359.750000       0.807002
     1359.850000       0.811291
     1359.950000       0.815560
     1360.050000       0.819789
     1360.150000       0.823986
     1360.250000       0.828151
     1360.350000       0.832269
     1360.450000       0.836340
     1360.550000       0.840380
     1360.650000       0.844373
     1360.750000       0.848320
     1360.850000       0.852220
     1360.950000       0.856061
     1361.050000       0.860073
     1361.150000       0.864028
     1361.250000       0.867938
     1361.350000       0.871804
     1361.450000       0.875612
     1361.550000       0.879376
     1361.650000       0.883082
     1361.750000       0.886729
     1361.850000       0.890333
     1361.950000       0.893880
     1362.050000       0.897386
     1362.150000       0.900835
     1362.250000       0.904225
     1362.350000       0.907571
     1362.450000       0.910859
     1362.550000       0.914089
     1362.650000       0.917276
     1362.750000       0.920405
     1362.850000       0.923490
     1362.950000       0.926517
     1363.050000       0.929422
     1363.150000       0.932296
     1363.250000       0.935112
     1363.350000       0.937870
     1363.450000       0.940585
     1363.550000       0.943255
     1363.650000       0.945881
     1363.750000       0.948449
     1363.850000       0.950973
     1363.950000       0.953440
     1364.050000       0.955857
     1364.150000       0.958216
     1364.250000       0.960531
     1364.350000       0.962803
     1364.450000       0.965017
     1364.550000       0.967174
     1364.650000       0.969287
     1364.750000       0.971344
     1364.850000       0.973329
     1364.950000       0.975270
     1365.050000       0.977230
     1365.150000       0.979133
     1365.250000       0.980965
     1365.350000       0.982727
     1365.450000       0.984419
     1365.550000       0.986053
     1365.650000       0.987603
     1365.750000       0.989069
     1365.850000       0.990465
     1365.950000       0.991777
     1366.050000       0.993007
     1366.150000       0.994139
     1366.250000       0.995187
     1366.350000       0.996137
     1366.450000       0.996990
     1366.550000       0.997745
     1366.650000       0.998389
     1366.750000       0.998922
     1366.850000       0.999343
     1366.950000       0.999653
     1367.050000       0.999896
     1367.150000       1.000000
     1367.250000       0.999979
     1367.350000       0.999833
     1367.450000       0.999549
     1367.550000       0.999139
     1367.650000       0.998577
     1367.750000       0.997891
     1367.850000       0.997066
     1367.950000       0.996102
     1368.050000       0.995018
     1368.150000       0.993782
     1368.250000       0.992408
     1368.350000       0.990910
     1368.450000       0.989274
     1368.550000       0.987485
     1368.650000       0.985559
     1368.750000       0.983480
     1368.850000       0.981250
     1368.950000       0.978882
     1369.050000       0.976446
     1369.150000       0.973844
     1369.250000       0.971090
     1369.350000       0.968170
     1369.450000       0.965085
     1369.550000       0.961834
     1369.650000       0.958402
     1369.750000       0.954818
     1369.850000       0.951082
     1369.950000       0.947167
     1370.050000       0.943103
     1370.150000       0.938874
     1370.250000       0.934478
     1370.350000       0.929945
     1370.450000       0.925259
     1370.550000       0.920423
     1370.650000       0.915448
     1370.750000       0.910335
     1370.850000       0.905112
     1370.950000       0.899765
     1371.050000       0.894317
     1371.150000       0.888773
     1371.250000       0.883132
     1371.350000       0.877394
     1371.450000       0.871574
     1371.550000       0.865672
     1371.650000       0.859687
