104,   104, MVIRI VIS channel from srf_MET5_2004078_2004079_1801-Release_S10EL_10.dat
Number of data points:
806
Wavenumber (cm-1)   Filter response
     8350.730700       0.000000
     8357.710000       0.000000
     8364.701000       0.000000
     8371.703600       0.000002
     8378.718100       0.000004
     8385.744200       0.000009
     8392.782200       0.000017
     8399.832000       0.000028
     8406.893700       0.000042
     8413.967200       0.000061
     8421.052600       0.000085
     8428.150000       0.000114
     8435.259400       0.000149
     8442.380800       0.000190
     8449.514200       0.000237
     8456.659600       0.000292
     8463.817200       0.000354
     8470.986900       0.000424
     8478.168700       0.000502
     8485.362700       0.000589
     8492.569000       0.000685
     8499.787500       0.000790
     8507.018300       0.000904
     8514.261400       0.001029
     8521.516800       0.001163
     8528.784600       0.001308
     8536.064900       0.001465
     8543.357500       0.001632
     8550.662700       0.001810
     8557.980300       0.002000
     8565.310500       0.002202
     8572.653200       0.002416
     8580.008600       0.002642
     8587.376600       0.002881
     8594.757200       0.003133
     8602.150500       0.003397
     8609.556600       0.003675
     8616.975400       0.003966
     8624.407100       0.004271
     8631.851500       0.004590
     8639.308900       0.004923
     8646.779100       0.005269
     8654.262200       0.005630
     8661.758300       0.006006
     8669.267400       0.006396
     8676.789600       0.006801
     8684.324800       0.007221
     8691.873100       0.007657
     8699.434500       0.008107
     8707.009100       0.008573
     8714.596900       0.009054
     8722.198000       0.009552
     8729.812300       0.010065
     8737.439900       0.010594
     8745.080900       0.011139
     8752.735200       0.011700
     8760.403000       0.012278
     8768.084200       0.012873
     8775.778900       0.013484
     8783.487000       0.014111
     8791.208800       0.014756
     8798.944100       0.015418
     8806.693100       0.016096
     8814.455700       0.016792
     8822.232000       0.017506
     8830.022100       0.018236
     8837.825900       0.018985
     8845.643500       0.019751
     8853.475000       0.020535
     8861.320300       0.021337
     8869.179600       0.022156
     8877.052800       0.022994
     8884.940000       0.023851
     8892.841300       0.024725
     8900.756600       0.025618
     8908.686000       0.026530
     8916.629500       0.027460
     8924.587200       0.028409
     8932.559200       0.029376
     8940.545400       0.030363
     8948.545900       0.031369
     8956.560700       0.032394
     8964.589900       0.033439
     8972.633500       0.034502
     8980.691500       0.035585
     8988.764000       0.036688
     8996.851100       0.037810
     9004.952700       0.038953
     9013.068900       0.040115
     9021.199800       0.041297
     9029.345400       0.042499
     9037.505600       0.043721
     9045.680700       0.044964
     9053.870500       0.046227
     9062.075200       0.047510
     9070.294800       0.048815
     9078.529300       0.050139
     9086.778700       0.051485
     9095.043200       0.052851
     9103.322700       0.054238
     9111.617300       0.055647
     9119.927000       0.057076
     9128.251900       0.058527
     9136.592100       0.059999
     9144.947400       0.061492
     9153.318100       0.063007
     9161.704100       0.064544
     9170.105500       0.066102
     9178.522300       0.067682
     9186.954500       0.069283
     9195.402300       0.070907
     9203.865600       0.072553
     9212.344500       0.074221
     9220.839100       0.075911
     9229.349300       0.077623
     9237.875300       0.079358
     9246.417000       0.081115
     9254.974500       0.082894
     9263.547900       0.084696
     9272.137200       0.086521
     9280.742500       0.088368
     9289.363700       0.090238
     9298.000900       0.092132
     9306.654300       0.094048
     9315.323700       0.095987
     9324.009300       0.097949
     9332.711200       0.099934
     9341.429200       0.101942
     9350.163600       0.103974
     9358.914400       0.106028
     9367.681500       0.108106
     9376.465100       0.110208
     9385.265100       0.112333
     9394.081700       0.114481
     9402.914900       0.116653
     9411.764700       0.118849
     9420.631200       0.121068
     9429.514400       0.123310
     9438.414300       0.125577
     9447.331100       0.127867
     9456.264800       0.130181
     9465.215300       0.132518
     9474.182900       0.134880
     9483.167400       0.137265
     9492.169000       0.139674
     9501.187600       0.142107
     9510.223500       0.144563
     9519.276500       0.147044
     9528.346800       0.149548
     9537.434400       0.152077
     9546.539400       0.154629
     9555.661700       0.157205
     9564.801500       0.159804
     9573.958800       0.162428
     9583.133700       0.165076
     9592.326100       0.167747
     9601.536200       0.170442
     9610.764100       0.173161
     9620.009600       0.175903
     9629.273000       0.178670
     9638.554200       0.181459
     9647.853400       0.184273
     9657.170400       0.187110
     9666.505600       0.189971
     9675.858700       0.192855
     9685.230000       0.195763
     9694.619500       0.198694
     9704.027200       0.201648
     9713.453100       0.204625
     9722.897400       0.207626
     9732.360100       0.210650
     9741.841200       0.213697
     9751.340800       0.216767
     9760.859000       0.219860
     9770.395700       0.222975
     9779.951100       0.226113
     9789.525200       0.229274
     9799.118100       0.232458
     9808.729800       0.235663
     9818.360300       0.238891
     9828.009800       0.242141
     9837.678300       0.245413
     9847.365800       0.248707
     9857.072400       0.252023
     9866.798200       0.255360
     9876.543200       0.258719
     9886.307500       0.262100
     9896.091000       0.265501
     9905.894000       0.268924
     9915.716400       0.272368
     9925.558300       0.275832
     9935.419800       0.279317
     9945.300800       0.282823
     9955.201600       0.286348
     9965.122100       0.289894
     9975.062300       0.293460
     9985.022500       0.297046
     9995.002500       0.300651
    10005.002500       0.304276
    10015.022500       0.307919
    10025.062700       0.311582
    10035.122900       0.315263
    10045.203400       0.318963
    10055.304200       0.322682
    10065.425300       0.326418
    10075.566800       0.330173
    10085.728700       0.333945
    10095.911200       0.337735
    10106.114200       0.341542
    10116.337900       0.345365
    10126.582300       0.349206
    10136.847400       0.353063
    10147.133400       0.356937
    10157.440300       0.360826
    10167.768200       0.364731
    10178.117000       0.368652
    10188.487000       0.372588
    10198.878100       0.376539
    10209.290500       0.380504
    10219.724100       0.384484
    10230.179000       0.388478
    10240.655400       0.392486
    10251.153300       0.396508
    10261.672700       0.400542
    10272.213700       0.404590
    10282.776300       0.408650
    10293.360800       0.412723
    10303.967000       0.416808
    10314.595200       0.420904
    10325.245200       0.425012
    10335.917300       0.429131
    10346.611500       0.433261
    10357.327800       0.437402
    10368.066400       0.441552
    10378.827200       0.445712
    10389.610400       0.449882
    10400.416000       0.454061
    10411.244100       0.458249
    10422.094800       0.462445
    10432.968200       0.466650
    10443.864200       0.470862
    10454.783100       0.475081
    10465.724800       0.479308
    10476.689400       0.483541
    10487.677000       0.487781
    10498.687700       0.492027
    10509.721500       0.496278
    10520.778500       0.500535
    10531.858900       0.504796
    10542.962600       0.509063
    10554.089700       0.513333
    10565.240400       0.517607
    10576.414600       0.521884
    10587.612500       0.526164
    10598.834100       0.530448
    10610.079600       0.534733
    10621.348900       0.539020
    10632.642200       0.543309
    10643.959600       0.547599
    10655.301000       0.551889
    10666.666700       0.556180
    10678.056600       0.560470
    10689.470900       0.564760
    10700.909600       0.569050
    10712.372800       0.573338
    10723.860600       0.577624
    10735.373100       0.581908
    10746.910300       0.586190
    10758.472300       0.590469
    10770.059200       0.594744
    10781.671200       0.599016
    10793.308100       0.603284
    10804.970300       0.607547
    10816.657700       0.611806
    10828.370300       0.616059
    10840.108400       0.620306
    10851.871900       0.624547
    10863.661100       0.628782
    10875.475800       0.633009
    10887.316300       0.637229
    10899.182600       0.641442
    10911.074700       0.645646
    10922.992900       0.649842
    10934.937100       0.654029
    10946.907500       0.658206
    10958.904100       0.662374
    10970.927000       0.666531
    10982.976400       0.670678
    10995.052200       0.674813
    11007.154700       0.678937
    11019.283700       0.683049
    11031.439600       0.687150
    11043.622300       0.691237
    11055.832000       0.695311
    11068.068600       0.699372
    11080.332400       0.703419
    11092.623400       0.707452
    11104.941700       0.711470
    11117.287400       0.715473
    11129.660500       0.719460
    11142.061300       0.723432
    11154.489700       0.727388
    11166.945800       0.731326
    11179.429800       0.735248
    11191.941800       0.739153
    11204.481800       0.743039
    11217.049900       0.746907
    11229.646300       0.750757
    11242.270900       0.754588
    11254.924000       0.758400
    11267.605600       0.762192
    11280.315800       0.765964
    11293.054800       0.769715
    11305.822500       0.773446
    11318.619100       0.777155
    11331.444800       0.780843
    11344.299500       0.784509
    11357.183400       0.788153
    11370.096600       0.791774
    11383.039300       0.795373
    11396.011400       0.798948
    11409.013100       0.802499
    11422.044500       0.806027
    11435.105800       0.809530
    11448.196900       0.813008
    11461.318100       0.816462
    11474.469300       0.819890
    11487.650800       0.823293
    11500.862600       0.826670
    11514.104800       0.830020
    11527.377500       0.833344
    11540.680900       0.836641
    11554.015000       0.839911
    11567.380000       0.843154
    11580.775900       0.846368
    11594.202900       0.849555
    11607.661100       0.852713
    11621.150500       0.855843
    11634.671300       0.858944
    11648.223600       0.862016
    11661.807600       0.865058
    11675.423200       0.868070
    11689.070700       0.871053
    11702.750100       0.874005
    11716.461600       0.876927
    11730.205300       0.879818
    11743.981200       0.882678
    11757.789500       0.885507
    11771.630400       0.888305
    11785.503800       0.891071
    11799.410000       0.893805
    11813.349100       0.896507
    11827.321100       0.899176
    11841.326200       0.901813
    11855.364600       0.904418
    11869.436200       0.906989
    11883.541300       0.909528
    11897.680000       0.912033
    11911.852300       0.914504
    11926.058400       0.916942
    11940.298500       0.919347
    11954.572600       0.921717
    11968.880900       0.924053
    11983.223500       0.926355
    11997.600500       0.928622
    12012.012000       0.930855
    12026.458200       0.933053
    12040.939200       0.935216
    12055.455100       0.937345
    12070.006000       0.939438
    12084.592100       0.941496
    12099.213600       0.943519
    12113.870400       0.945506
    12128.562800       0.947458
    12143.290800       0.949375
    12158.054700       0.951256
    12172.854500       0.953100
    12187.690400       0.954910
    12202.562500       0.956683
    12217.471000       0.958420
    12232.415900       0.960122
    12247.397400       0.961787
    12262.415700       0.963417
    12277.470800       0.965010
    12292.563000       0.966567
    12307.692300       0.968088
    12322.858900       0.969573
    12338.062900       0.971022
    12353.304500       0.972434
    12368.583800       0.973811
    12383.900900       0.975151
    12399.256000       0.976455
    12414.649300       0.977723
    12430.080800       0.978955
    12445.550700       0.980150
    12461.059200       0.981310
    12476.606400       0.982434
    12492.192400       0.983522
    12507.817400       0.984574
    12523.481500       0.985590
    12539.185000       0.986571
    12554.927800       0.987515
    12570.710200       0.988425
    12586.532400       0.989298
    12602.394500       0.990137
    12618.296500       0.990940
    12634.238800       0.991708
    12650.221400       0.992441
    12666.244500       0.993139
    12682.308200       0.993802
    12698.412700       0.994431
    12714.558200       0.995025
    12730.744700       0.995584
    12746.972600       0.996109
    12763.241900       0.996601
    12779.552700       0.997058
    12795.905300       0.997481
    12812.299800       0.997871
    12828.736400       0.998228
    12845.215200       0.998551
    12861.736300       0.998841
    12878.300100       0.999098
    12894.906500       0.999323
    12911.555800       0.999515
    12928.248200       0.999675
    12944.983800       0.999804
    12961.762800       0.999900
    12978.585300       0.999964
    12995.451600       0.999998
    13012.361700       1.000000
    13029.316000       0.999971
    13046.314400       0.999912
    13063.357300       0.999823
    13080.444700       0.999703
    13097.576900       0.999554
    13114.754100       0.999375
    13131.976400       0.999166
    13149.243900       0.998929
    13166.556900       0.998663
    13183.915600       0.998369
    13201.320100       0.998046
    13218.770700       0.997696
    13236.267400       0.997318
    13253.810500       0.996913
    13271.400100       0.996481
    13289.036500       0.996022
    13306.719900       0.995537
    13324.450400       0.995026
    13342.228200       0.994490
    13360.053400       0.993928
    13377.926400       0.993341
    13395.847300       0.992730
    13413.816200       0.992094
    13431.833400       0.991435
    13449.899100       0.990752
    13468.013500       0.990045
    13486.176700       0.989316
    13504.388900       0.988564
    13522.650400       0.987790
    13540.961400       0.986995
    13559.322000       0.986178
    13577.732500       0.985339
    13596.193100       0.984481
    13614.703900       0.983602
    13633.265200       0.982703
    13651.877100       0.981784
    13670.540000       0.980847
    13689.253900       0.979890
    13708.019200       0.978916
    13726.836000       0.977923
    13745.704500       0.976913
    13764.624900       0.975886
    13783.597500       0.974842
    13802.622500       0.973782
    13821.700100       0.972705
    13840.830400       0.971614
    13860.013900       0.970507
    13879.250500       0.969385
    13898.540700       0.968249
    13917.884500       0.967099
    13937.282200       0.965936
    13956.734100       0.964760
    13976.240400       0.963571
    13995.801300       0.962370
    14015.417000       0.961157
    14035.087700       0.959932
    14054.813800       0.958697
    14074.595400       0.957451
    14094.432700       0.956195
    14114.326000       0.954929
    14134.275600       0.953654
    14154.281700       0.952370
    14174.344400       0.951078
    14194.464200       0.949778
    14214.641100       0.948470
    14234.875400       0.947155
    14255.167500       0.945833
    14275.517500       0.944504
    14295.925700       0.943170
    14316.392300       0.941830
    14336.917600       0.940485
    14357.501800       0.939136
    14378.145200       0.937782
    14398.848100       0.936424
    14419.610700       0.935063
    14440.433200       0.933699
    14461.316000       0.932332
    14482.259200       0.930963
    14503.263200       0.929592
    14524.328200       0.928220
    14545.454500       0.926846
    14566.642400       0.925472
    14587.892000       0.924098
    14609.203800       0.922724
    14630.577900       0.921350
    14652.014700       0.919977
    14673.514300       0.918606
    14695.077100       0.917236
    14716.703500       0.915868
    14738.393500       0.914503
    14760.147600       0.913141
    14781.966000       0.911782
    14803.849000       0.910426
    14825.796900       0.909074
    14847.809900       0.907726
    14869.888500       0.906383
    14892.032800       0.905045
    14914.243100       0.903713
    14936.519800       0.902385
    14958.863100       0.901064
    14981.273400       0.899750
    15003.750900       0.898441
    15026.296000       0.897140
    15048.909000       0.895846
    15071.590100       0.894560
    15094.339600       0.893281
    15117.158000       0.892011
    15140.045400       0.890749
    15163.002300       0.889496
    15186.028900       0.888251
    15209.125500       0.887017
    15232.292500       0.885792
    15255.530100       0.884576
    15278.838800       0.883371
    15302.218800       0.882176
    15325.670500       0.880992
    15349.194200       0.879819
    15372.790200       0.878657
    15396.458800       0.877506
    15420.200500       0.876367
    15444.015400       0.875239
    15467.904100       0.874124
    15491.866800       0.873021
    15515.903800       0.871930
    15540.015500       0.870852
    15564.202300       0.869786
    15588.464500       0.868734
    15612.802500       0.867695
    15637.216600       0.866668
    15661.707100       0.865656
    15686.274500       0.864657
    15710.919100       0.863671
    15735.641200       0.862700
    15760.441300       0.861742
    15785.319700       0.860798
    15810.276700       0.859869
    15835.312700       0.858954
    15860.428200       0.858053
    15885.623500       0.857167
    15910.899000       0.856295
    15936.255000       0.855438
    15961.691900       0.854595
    15987.210200       0.853768
    16012.810200       0.852954
    16038.492400       0.852156
    16064.257000       0.851372
    16090.104600       0.850603
    16116.035500       0.849849
    16142.050000       0.849110
    16168.148700       0.848385
    16194.332000       0.847675
    16220.600200       0.846980
    16246.953700       0.846300
    16273.393000       0.845634
    16299.918500       0.844982
    16326.530600       0.844345
    16353.229800       0.843723
    16380.016400       0.843114
    16406.890900       0.842520
    16433.853700       0.841940
    16460.905300       0.841374
    16488.046200       0.840822
    16515.276600       0.840283
    16542.597200       0.839758
    16570.008300       0.839247
    16597.510400       0.838748
    16625.103900       0.838263
    16652.789300       0.837790
    16680.567100       0.837330
    16708.437800       0.836883
    16736.401700       0.836447
    16764.459300       0.836024
    16792.611300       0.835612
    16820.857900       0.835212
    16849.199700       0.834823
    16877.637100       0.834445
    16906.170800       0.834078
    16934.801000       0.833721
    16963.528400       0.833374
    16992.353400       0.833037
    17021.276600       0.832709
    17050.298400       0.832391
    17079.419300       0.832081
    17108.639900       0.831780
    17137.960600       0.831487
    17167.382000       0.831201
    17196.904600       0.830923
    17226.528900       0.830652
    17256.255400       0.830387
    17286.084700       0.830128
