83,   83, MVIRI VIS channel from srf_MET5_2001213_2001214_1801-Release_S10EL_10.dat
Number of data points:
806
Wavenumber (cm-1)   Filter response
     8350.730700       0.000000
     8357.710000       0.000000
     8364.701000       0.000000
     8371.703600       0.000002
     8378.718100       0.000004
     8385.744200       0.000009
     8392.782200       0.000017
     8399.832000       0.000027
     8406.893700       0.000042
     8413.967200       0.000060
     8421.052600       0.000084
     8428.150000       0.000113
     8435.259400       0.000147
     8442.380800       0.000187
     8449.514200       0.000234
     8456.659600       0.000288
     8463.817200       0.000350
     8470.986900       0.000419
     8478.168700       0.000496
     8485.362700       0.000581
     8492.569000       0.000676
     8499.787500       0.000779
     8507.018300       0.000892
     8514.261400       0.001015
     8521.516800       0.001148
     8528.784600       0.001292
     8536.064900       0.001446
     8543.357500       0.001611
     8550.662700       0.001787
     8557.980300       0.001974
     8565.310500       0.002174
     8572.653200       0.002385
     8580.008600       0.002609
     8587.376600       0.002844
     8594.757200       0.003093
     8602.150500       0.003354
     8609.556600       0.003629
     8616.975400       0.003916
     8624.407100       0.004217
     8631.851500       0.004532
     8639.308900       0.004861
     8646.779100       0.005203
     8654.262200       0.005560
     8661.758300       0.005931
     8669.267400       0.006316
     8676.789600       0.006717
     8684.324800       0.007132
     8691.873100       0.007561
     8699.434500       0.008007
     8707.009100       0.008467
     8714.596900       0.008943
     8722.198000       0.009434
     8729.812300       0.009941
     8737.439900       0.010464
     8745.080900       0.011002
     8752.735200       0.011557
     8760.403000       0.012128
     8768.084200       0.012716
     8775.778900       0.013319
     8783.487000       0.013940
     8791.208800       0.014577
     8798.944100       0.015231
     8806.693100       0.015902
     8814.455700       0.016590
     8822.232000       0.017295
     8830.022100       0.018017
     8837.825900       0.018757
     8845.643500       0.019515
     8853.475000       0.020289
     8861.320300       0.021082
     8869.179600       0.021893
     8877.052800       0.022721
     8884.940000       0.023568
     8892.841300       0.024432
     8900.756600       0.025315
     8908.686000       0.026217
     8916.629500       0.027137
     8924.587200       0.028075
     8932.559200       0.029032
     8940.545400       0.030008
     8948.545900       0.031003
     8956.560700       0.032017
     8964.589900       0.033050
     8972.633500       0.034102
     8980.691500       0.035173
     8988.764000       0.036264
     8996.851100       0.037374
     9004.952700       0.038504
     9013.068900       0.039654
     9021.199800       0.040823
     9029.345400       0.042013
     9037.505600       0.043222
     9045.680700       0.044452
     9053.870500       0.045701
     9062.075200       0.046971
     9070.294800       0.048262
     9078.529300       0.049573
     9086.778700       0.050904
     9095.043200       0.052256
     9103.322700       0.053629
     9111.617300       0.055023
     9119.927000       0.056438
     9128.251900       0.057874
     9136.592100       0.059331
     9144.947400       0.060809
     9153.318100       0.062309
     9161.704100       0.063830
     9170.105500       0.065373
     9178.522300       0.066937
     9186.954500       0.068522
     9195.402300       0.070130
     9203.865600       0.071760
     9212.344500       0.073411
     9220.839100       0.075084
     9229.349300       0.076780
     9237.875300       0.078498
     9246.417000       0.080238
     9254.974500       0.082000
     9263.547900       0.083785
     9272.137200       0.085592
     9280.742500       0.087422
     9289.363700       0.089274
     9298.000900       0.091149
     9306.654300       0.093048
     9315.323700       0.094968
     9324.009300       0.096912
     9332.711200       0.098879
     9341.429200       0.100868
     9350.163600       0.102881
     9358.914400       0.104917
     9367.681500       0.106976
     9376.465100       0.109059
     9385.265100       0.111164
     9394.081700       0.113293
     9402.914900       0.115445
     9411.764700       0.117621
     9420.631200       0.119821
     9429.514400       0.122043
     9438.414300       0.124290
     9447.331100       0.126560
     9456.264800       0.128853
     9465.215300       0.131171
     9474.182900       0.133511
     9483.167400       0.135876
     9492.169000       0.138264
     9501.187600       0.140676
     9510.223500       0.143112
     9519.276500       0.145571
     9528.346800       0.148055
     9537.434400       0.150562
     9546.539400       0.153093
     9555.661700       0.155647
     9564.801500       0.158225
     9573.958800       0.160828
     9583.133700       0.163454
     9592.326100       0.166103
     9601.536200       0.168776
     9610.764100       0.171473
     9620.009600       0.174194
     9629.273000       0.176938
     9638.554200       0.179706
     9647.853400       0.182497
     9657.170400       0.185312
     9666.505600       0.188150
     9675.858700       0.191012
     9685.230000       0.193897
     9694.619500       0.196806
     9704.027200       0.199738
     9713.453100       0.202693
     9722.897400       0.205671
     9732.360100       0.208672
     9741.841200       0.211696
     9751.340800       0.214743
     9760.859000       0.217814
     9770.395700       0.220906
     9779.951100       0.224022
     9789.525200       0.227160
     9799.118100       0.230320
     9808.729800       0.233503
     9818.360300       0.236708
     9828.009800       0.239935
     9837.678300       0.243184
     9847.365800       0.246456
     9857.072400       0.249748
     9866.798200       0.253063
     9876.543200       0.256399
     9886.307500       0.259757
     9896.091000       0.263136
     9905.894000       0.266535
     9915.716400       0.269956
     9925.558300       0.273398
     9935.419800       0.276860
     9945.300800       0.280343
     9955.201600       0.283846
     9965.122100       0.287370
     9975.062300       0.290913
     9985.022500       0.294476
     9995.002500       0.298059
    10005.002500       0.301661
    10015.022500       0.305283
    10025.062700       0.308923
    10035.122900       0.312582
    10045.203400       0.316260
    10055.304200       0.319957
    10065.425300       0.323672
    10075.566800       0.327404
    10085.728700       0.331155
    10095.911200       0.334923
    10106.114200       0.338708
    10116.337900       0.342511
    10126.582300       0.346330
    10136.847400       0.350166
    10147.133400       0.354018
    10157.440300       0.357887
    10167.768200       0.361771
    10178.117000       0.365671
    10188.487000       0.369587
    10198.878100       0.373517
    10209.290500       0.377462
    10219.724100       0.381422
    10230.179000       0.385396
    10240.655400       0.389385
    10251.153300       0.393386
    10261.672700       0.397402
    10272.213700       0.401430
    10282.776300       0.405471
    10293.360800       0.409525
    10303.967000       0.413591
    10314.595200       0.417669
    10325.245200       0.421759
    10335.917300       0.425860
    10346.611500       0.429972
    10357.327800       0.434094
    10368.066400       0.438227
    10378.827200       0.442370
    10389.610400       0.446523
    10400.416000       0.450685
    10411.244100       0.454856
    10422.094800       0.459036
    10432.968200       0.463224
    10443.864200       0.467420
    10454.783100       0.471624
    10465.724800       0.475835
    10476.689400       0.480054
    10487.677000       0.484279
    10498.687700       0.488510
    10509.721500       0.492746
    10520.778500       0.496989
    10531.858900       0.501236
    10542.962600       0.505489
    10554.089700       0.509746
    10565.240400       0.514007
    10576.414600       0.518271
    10587.612500       0.522539
    10598.834100       0.526810
    10610.079600       0.531084
    10621.348900       0.535359
    10632.642200       0.539637
    10643.959600       0.543915
    10655.301000       0.548195
    10666.666700       0.552476
    10678.056600       0.556756
    10689.470900       0.561037
    10700.909600       0.565317
    10712.372800       0.569596
    10723.860600       0.573873
    10735.373100       0.578149
    10746.910300       0.582423
    10758.472300       0.586694
    10770.059200       0.590962
    10781.671200       0.595227
    10793.308100       0.599488
    10804.970300       0.603745
    10816.657700       0.607998
    10828.370300       0.612245
    10840.108400       0.616487
    10851.871900       0.620724
    10863.661100       0.624954
    10875.475800       0.629178
    10887.316300       0.633394
    10899.182600       0.637603
    10911.074700       0.641805
    10922.992900       0.645998
    10934.937100       0.650183
    10946.907500       0.654358
    10958.904100       0.658524
    10970.927000       0.662681
    10982.976400       0.666827
    10995.052200       0.670962
    11007.154700       0.675086
    11019.283700       0.679199
    11031.439600       0.683301
    11043.622300       0.687389
    11055.832000       0.691466
    11068.068600       0.695529
    11080.332400       0.699578
    11092.623400       0.703614
    11104.941700       0.707636
    11117.287400       0.711643
    11129.660500       0.715634
    11142.061300       0.719611
    11154.489700       0.723572
    11166.945800       0.727516
    11179.429800       0.731444
    11191.941800       0.735355
    11204.481800       0.739248
    11217.049900       0.743124
    11229.646300       0.746981
    11242.270900       0.750820
    11254.924000       0.754641
    11267.605600       0.758442
    11280.315800       0.762223
    11293.054800       0.765984
    11305.822500       0.769725
    11318.619100       0.773445
    11331.444800       0.777145
    11344.299500       0.780822
    11357.183400       0.784478
    11370.096600       0.788112
    11383.039300       0.791723
    11396.011400       0.795312
    11409.013100       0.798877
    11422.044500       0.802418
    11435.105800       0.805936
    11448.196900       0.809430
    11461.318100       0.812899
    11474.469300       0.816343
    11487.650800       0.819762
    11500.862600       0.823156
    11514.104800       0.826524
    11527.377500       0.829865
    11540.680900       0.833180
    11554.015000       0.836469
    11567.380000       0.839730
    11580.775900       0.842964
    11594.202900       0.846171
    11607.661100       0.849349
    11621.150500       0.852500
    11634.671300       0.855621
    11648.223600       0.858714
    11661.807600       0.861778
    11675.423200       0.864813
    11689.070700       0.867819
    11702.750100       0.870794
    11716.461600       0.873739
    11730.205300       0.876654
    11743.981200       0.879539
    11757.789500       0.882392
    11771.630400       0.885215
    11785.503800       0.888006
    11799.410000       0.890766
    11813.349100       0.893495
    11827.321100       0.896191
    11841.326200       0.898855
    11855.364600       0.901487
    11869.436200       0.904086
    11883.541300       0.906653
    11897.680000       0.909187
    11911.852300       0.911687
    11926.058400       0.914155
    11940.298500       0.916589
    11954.572600       0.918989
    11968.880900       0.921355
    11983.223500       0.923688
    11997.600500       0.925987
    12012.012000       0.928251
    12026.458200       0.930481
    12040.939200       0.932677
    12055.455100       0.934838
    12070.006000       0.936964
    12084.592100       0.939055
    12099.213600       0.941112
    12113.870400       0.943133
    12128.562800       0.945119
    12143.290800       0.947070
    12158.054700       0.948986
    12172.854500       0.950866
    12187.690400       0.952711
    12202.562500       0.954520
    12217.471000       0.956294
    12232.415900       0.958032
    12247.397400       0.959734
    12262.415700       0.961400
    12277.470800       0.963031
    12292.563000       0.964626
    12307.692300       0.966185
    12322.858900       0.967708
    12338.062900       0.969195
    12353.304500       0.970646
    12368.583800       0.972062
    12383.900900       0.973441
    12399.256000       0.974785
    12414.649300       0.976092
    12430.080800       0.977364
    12445.550700       0.978600
    12461.059200       0.979801
    12476.606400       0.980965
    12492.192400       0.982094
    12507.817400       0.983187
    12523.481500       0.984245
    12539.185000       0.985267
    12554.927800       0.986254
    12570.710200       0.987205
    12586.532400       0.988122
    12602.394500       0.989003
    12618.296500       0.989848
    12634.238800       0.990659
    12650.221400       0.991435
    12666.244500       0.992177
    12682.308200       0.992883
    12698.412700       0.993555
    12714.558200       0.994193
    12730.744700       0.994797
    12746.972600       0.995366
    12763.241900       0.995902
    12779.552700       0.996403
    12795.905300       0.996872
    12812.299800       0.997306
    12828.736400       0.997708
    12845.215200       0.998076
    12861.736300       0.998411
    12878.300100       0.998714
    12894.906500       0.998984
    12911.555800       0.999222
    12928.248200       0.999428
    12944.983800       0.999602
    12961.762800       0.999744
    12978.585300       0.999854
    12995.451600       0.999934
    13012.361700       0.999982
    13029.316000       1.000000
    13046.314400       0.999987
    13063.357300       0.999944
    13080.444700       0.999871
    13097.576900       0.999768
    13114.754100       0.999636
    13131.976400       0.999474
    13149.243900       0.999284
    13166.556900       0.999065
    13183.915600       0.998817
    13201.320100       0.998542
    13218.770700       0.998239
    13236.267400       0.997908
    13253.810500       0.997550
    13271.400100       0.997165
    13289.036500       0.996753
    13306.719900       0.996316
    13324.450400       0.995852
    13342.228200       0.995363
    13360.053400       0.994848
    13377.926400       0.994309
    13395.847300       0.993745
    13413.816200       0.993157
    13431.833400       0.992544
    13449.899100       0.991908
    13468.013500       0.991249
    13486.176700       0.990568
    13504.388900       0.989863
    13522.650400       0.989136
    13540.961400       0.988388
    13559.322000       0.987618
    13577.732500       0.986828
    13596.193100       0.986016
    13614.703900       0.985184
    13633.265200       0.984333
    13651.877100       0.983461
    13670.540000       0.982571
    13689.253900       0.981662
    13708.019200       0.980734
    13726.836000       0.979789
    13745.704500       0.978826
    13764.624900       0.977846
    13783.597500       0.976849
    13802.622500       0.975835
    13821.700100       0.974806
    13840.830400       0.973761
    13860.013900       0.972701
    13879.250500       0.971626
    13898.540700       0.970537
    13917.884500       0.969433
    13937.282200       0.968317
    13956.734100       0.967187
    13976.240400       0.966044
    13995.801300       0.964890
    14015.417000       0.963723
    14035.087700       0.962545
    14054.813800       0.961356
    14074.595400       0.960156
    14094.432700       0.958946
    14114.326000       0.957727
    14134.275600       0.956498
    14154.281700       0.955260
    14174.344400       0.954013
    14194.464200       0.952759
    14214.641100       0.951496
    14234.875400       0.950227
    14255.167500       0.948951
    14275.517500       0.947668
    14295.925700       0.946379
    14316.392300       0.945085
    14336.917600       0.943785
    14357.501800       0.942481
    14378.145200       0.941173
    14398.848100       0.939860
    14419.610700       0.938544
    14440.433200       0.937225
    14461.316000       0.935903
    14482.259200       0.934579
    14503.263200       0.933253
    14524.328200       0.931925
    14545.454500       0.930597
    14566.642400       0.929268
    14587.892000       0.927938
    14609.203800       0.926608
    14630.577900       0.925279
    14652.014700       0.923951
    14673.514300       0.922625
    14695.077100       0.921299
    14716.703500       0.919976
    14738.393500       0.918655
    14760.147600       0.917337
    14781.966000       0.916022
    14803.849000       0.914711
    14825.796900       0.913403
    14847.809900       0.912100
    14869.888500       0.910801
    14892.032800       0.909507
    14914.243100       0.908219
    14936.519800       0.906936
    14958.863100       0.905659
    14981.273400       0.904388
    15003.750900       0.903124
    15026.296000       0.901867
    15048.909000       0.900617
    15071.590100       0.899374
    15094.339600       0.898140
    15117.158000       0.896914
    15140.045400       0.895696
    15163.002300       0.894487
    15186.028900       0.893287
    15209.125500       0.892096
    15232.292500       0.890915
    15255.530100       0.889744
    15278.838800       0.888583
    15302.218800       0.887432
    15325.670500       0.886293
    15349.194200       0.885164
    15372.790200       0.884046
    15396.458800       0.882939
    15420.200500       0.881844
    15444.015400       0.880761
    15467.904100       0.879690
    15491.866800       0.878632
    15515.903800       0.877586
    15540.015500       0.876552
    15564.202300       0.875531
    15588.464500       0.874523
    15612.802500       0.873529
    15637.216600       0.872548
    15661.707100       0.871580
    15686.274500       0.870626
    15710.919100       0.869685
    15735.641200       0.868759
    15760.441300       0.867847
    15785.319700       0.866948
    15810.276700       0.866065
    15835.312700       0.865195
    15860.428200       0.864340
    15885.623500       0.863499
    15910.899000       0.862673
    15936.255000       0.861862
    15961.691900       0.861066
    15987.210200       0.860284
    16012.810200       0.859517
    16038.492400       0.858765
    16064.257000       0.858028
    16090.104600       0.857306
    16116.035500       0.856598
    16142.050000       0.855906
    16168.148700       0.855228
    16194.332000       0.854566
    16220.600200       0.853918
    16246.953700       0.853285
    16273.393000       0.852666
    16299.918500       0.852063
    16326.530600       0.851474
    16353.229800       0.850899
    16380.016400       0.850339
    16406.890900       0.849793
    16433.853700       0.849262
    16460.905300       0.848744
    16488.046200       0.848241
    16515.276600       0.847751
    16542.597200       0.847275
    16570.008300       0.846813
    16597.510400       0.846364
    16625.103900       0.845928
    16652.789300       0.845505
    16680.567100       0.845095
    16708.437800       0.844698
    16736.401700       0.844313
    16764.459300       0.843940
    16792.611300       0.843579
    16820.857900       0.843229
    16849.199700       0.842891
    16877.637100       0.842564
    16906.170800       0.842248
    16934.801000       0.841943
    16963.528400       0.841648
    16992.353400       0.841362
    17021.276600       0.841087
    17050.298400       0.840820
    17079.419300       0.840563
    17108.639900       0.840314
    17137.960600       0.840073
    17167.382000       0.839840
    17196.904600       0.839615
    17226.528900       0.839397
    17256.255400       0.839185
    17286.084700       0.838980
