  10  ,noaa_14_hirs_10.flt
Number of data points:
101
Wavenumber (cm-1)   Filter response
      760.390000       0.000000
      761.180000       0.000000
      761.980000       0.000000
      762.770000       0.000000
      763.570000       0.000000
      764.350000       0.000000
      765.150000       0.000000
      765.940000       0.000000
      766.740000       0.000000
      767.530000       0.000000
      768.330000       0.000000
      769.130000       0.000000
      769.920000       0.000000
      770.720000       0.000000
      771.510000       0.002659
      772.300000       0.008014
      773.100000       0.010814
      773.890000       0.010867
      774.690000       0.010920
      775.480000       0.011006
      776.280000       0.013413
      777.070000       0.018519
      777.870000       0.024293
      778.660000       0.030590
      779.450000       0.038215
      780.250000       0.046864
      781.030000       0.055099
      781.830000       0.074059
      782.630000       0.093823
      783.430000       0.125370
      784.230000       0.163100
      785.020000       0.220340
      785.810000       0.292260
      786.580000       0.389330
      787.390000       0.498300
      788.190000       0.624510
      788.940000       0.748330
      789.710000       0.840310
      790.510000       0.917160
      791.300000       0.975570
      792.110000       1.000000
      792.920000       0.995800
      793.740000       0.992930
      794.560000       0.985140
      795.380000       0.977690
      796.200000       0.969290
      797.020000       0.954670
      797.850000       0.923580
      798.670000       0.908740
      799.500000       0.879680
      800.320000       0.848240
      801.140000       0.810930
      801.920000       0.724210
      802.710000       0.678980
      803.560000       0.591370
      804.420000       0.502230
      805.190000       0.419190
      806.040000       0.341690
      806.820000       0.289610
      807.600000       0.221240
      808.380000       0.182480
      809.180000       0.133360
      809.970000       0.115600
      810.740000       0.077382
      811.530000       0.064750
      812.330000       0.048926
      813.120000       0.043452
      813.910000       0.031495
      814.710000       0.025245
      815.490000       0.022645
      816.290000       0.019675
      817.090000       0.019688
      817.880000       0.016667
      818.680000       0.014334
      819.470000       0.015748
      820.270000       0.011489
      821.060000       0.010465
      821.860000       0.007927
      822.650000       0.003208
      823.450000       0.003164
      824.260000       0.003119
      825.060000       0.003074
      825.860000       0.003029
      826.660000       0.002984
      827.460000       0.002942
      828.260000       0.002897
      829.060000       0.002852
      829.850000       0.002792
      830.640000       0.002294
      831.460000       0.000403
      832.270000       0.000000
      833.080000       0.000000
      833.900000       0.000000
      834.710000       0.000000
      835.530000       0.000000
      836.340000       0.000000
      837.140000       0.000000
      837.960000       0.000000
      838.770000       0.000000
      839.590000       0.000000
      840.400000       0.000000
