   4  ,noaa_10_hirs_04.flt
Number of data points:
86
Wavenumber (cm-1)   Filter response
      675.410000       0.000000
      678.280000       0.002402
      680.320000       0.003879
      682.130000       0.004739
      683.900000       0.005923
      685.330000       0.006998
      686.740000       0.010191
      687.940000       0.018002
      688.750000       0.026218
      689.400000       0.034383
      690.300000       0.045839
      690.710000       0.059340
      691.250000       0.074561
      691.930000       0.098010
      692.500000       0.120760
      692.960000       0.143450
      693.490000       0.171040
      693.840000       0.199300
      694.170000       0.223350
      694.490000       0.251980
      695.070000       0.287360
      695.500000       0.317550
      695.930000       0.346210
      696.180000       0.383420
      696.550000       0.418000
      697.010000       0.454090
      697.470000       0.494210
      697.740000       0.522100
      698.090000       0.552920
      698.460000       0.586840
      698.740000       0.619060
      699.030000       0.651630
      699.280000       0.680750
      699.690000       0.713930
      700.040000       0.748950
      700.380000       0.777680
      700.760000       0.805980
      701.050000       0.831110
      701.400000       0.859090
      701.660000       0.884690
      702.080000       0.909190
      702.370000       0.931190
      702.820000       0.955610
      703.140000       0.974620
      703.710000       0.990630
      704.530000       1.000000
      705.030000       0.993020
      705.520000       0.978010
      706.270000       0.961010
      706.810000       0.946360
      707.110000       0.922330
      707.560000       0.895490
      708.050000       0.868420
      708.590000       0.841630
      708.930000       0.819860
      709.130000       0.794720
      709.590000       0.759800
      709.960000       0.735340
      710.280000       0.708560
      710.470000       0.664270
      710.950000       0.625470
      711.110000       0.588820
      711.590000       0.553130
      711.750000       0.515610
      712.000000       0.455690
      712.520000       0.403050
      712.710000       0.357190
      712.900000       0.320620
      713.520000       0.274240
      714.080000       0.227200
      714.460000       0.195510
      714.780000       0.161530
      715.390000       0.130960
      715.820000       0.103430
      716.550000       0.074098
      717.370000       0.057674
      718.160000       0.040466
      719.080000       0.032773
      720.420000       0.026936
      721.570000       0.018850
      723.040000       0.015524
      725.120000       0.012231
      726.540000       0.010848
      727.940000       0.006219
      729.530000       0.004496
      730.810000       0.000000
