85,   85, MVIRI VIS channel from srf_MET7_2008078_2008079_1801-Release_S10EE_10.dat
Number of data points:
793
Wavenumber (cm-1)   Filter response
     8442.380800       0.000000
     8449.514200       0.000000
     8456.659600       0.000004
     8463.817200       0.000056
     8470.986900       0.000165
     8478.168700       0.000329
     8485.362700       0.000548
     8492.569000       0.000819
     8499.787500       0.001142
     8507.018300       0.001514
     8514.261400       0.001934
     8521.516800       0.002400
     8528.784600       0.002912
     8536.064900       0.003469
     8543.357500       0.004068
     8550.662700       0.004709
     8557.980300       0.005390
     8565.310500       0.006111
     8572.653200       0.006870
     8580.008600       0.007667
     8587.376600       0.008500
     8594.757200       0.009369
     8602.150500       0.010272
     8609.556600       0.011209
     8616.975400       0.012179
     8624.407100       0.013181
     8631.851500       0.014214
     8639.308900       0.015278
     8646.779100       0.016372
     8654.262200       0.017496
     8661.758300       0.018648
     8669.267400       0.019828
     8676.789600       0.021036
     8684.324800       0.022270
     8691.873100       0.023532
     8699.434500       0.024819
     8707.009100       0.026132
     8714.596900       0.027470
     8722.198000       0.028832
     8729.812300       0.030219
     8737.439900       0.031630
     8745.080900       0.033065
     8752.735200       0.034523
     8760.403000       0.036004
     8768.084200       0.037508
     8775.778900       0.039034
     8783.487000       0.040583
     8791.208800       0.042153
     8798.944100       0.043746
     8806.693100       0.045360
     8814.455700       0.046996
     8822.232000       0.048653
     8830.022100       0.050332
     8837.825900       0.052031
     8845.643500       0.053752
     8853.475000       0.055493
     8861.320300       0.057255
     8869.179600       0.059038
     8877.052800       0.060842
     8884.940000       0.062667
     8892.841300       0.064511
     8900.756600       0.066377
     8908.686000       0.068264
     8916.629500       0.070170
     8924.587200       0.072097
     8932.559200       0.074045
     8940.545400       0.076014
     8948.545900       0.078003
     8956.560700       0.080013
     8964.589900       0.082044
     8972.633500       0.084095
     8980.691500       0.086167
     8988.764000       0.088260
     8996.851100       0.090374
     9004.952700       0.092509
     9013.068900       0.094665
     9021.199800       0.096842
     9029.345400       0.099040
     9037.505600       0.101259
     9045.680700       0.103500
     9053.870500       0.105763
     9062.075200       0.108047
     9070.294800       0.110352
     9078.529300       0.112679
     9086.778700       0.115028
     9095.043200       0.117399
     9103.322700       0.119792
     9111.617300       0.122207
     9119.927000       0.124644
     9128.251900       0.127103
     9136.592100       0.129585
     9144.947400       0.132089
     9153.318100       0.134615
     9161.704100       0.137164
     9170.105500       0.139736
     9178.522300       0.142331
     9186.954500       0.144948
     9195.402300       0.147588
     9203.865600       0.150251
     9212.344500       0.152938
     9220.839100       0.155647
     9229.349300       0.158380
     9237.875300       0.161136
     9246.417000       0.163915
     9254.974500       0.166718
     9263.547900       0.169544
     9272.137200       0.172393
     9280.742500       0.175266
     9289.363700       0.178163
     9298.000900       0.181083
     9306.654300       0.184027
     9315.323700       0.186994
     9324.009300       0.189986
     9332.711200       0.193000
     9341.429200       0.196039
     9350.163600       0.199101
     9358.914400       0.202187
     9367.681500       0.205296
     9376.465100       0.208430
     9385.265100       0.211587
     9394.081700       0.214767
     9402.914900       0.217971
     9411.764700       0.221199
     9420.631200       0.224451
     9429.514400       0.227725
     9438.414300       0.231024
     9447.331100       0.234345
     9456.264800       0.237690
     9465.215300       0.241059
     9474.182900       0.244450
     9483.167400       0.247865
     9492.169000       0.251302
     9501.187600       0.254763
     9510.223500       0.258246
     9519.276500       0.261752
     9528.346800       0.265281
     9537.434400       0.268832
     9546.539400       0.272405
     9555.661700       0.276001
     9564.801500       0.279619
     9573.958800       0.283259
     9583.133700       0.286920
     9592.326100       0.290603
     9601.536200       0.294308
     9610.764100       0.298033
     9620.009600       0.301781
     9629.273000       0.305549
     9638.554200       0.309337
     9647.853400       0.313146
     9657.170400       0.316976
     9666.505600       0.320826
     9675.858700       0.324695
     9685.230000       0.328584
     9694.619500       0.332493
     9704.027200       0.336421
     9713.453100       0.340368
     9722.897400       0.344334
     9732.360100       0.348318
     9741.841200       0.352320
     9751.340800       0.356340
     9760.859000       0.360379
     9770.395700       0.364434
     9779.951100       0.368507
     9789.525200       0.372596
     9799.118100       0.376702
     9808.729800       0.380824
     9818.360300       0.384963
     9828.009800       0.389116
     9837.678300       0.393286
     9847.365800       0.397470
     9857.072400       0.401668
     9866.798200       0.405882
     9876.543200       0.410109
     9886.307500       0.414350
     9896.091000       0.418604
     9905.894000       0.422871
     9915.716400       0.427151
     9925.558300       0.431442
     9935.419800       0.435746
     9945.300800       0.440062
     9955.201600       0.444388
     9965.122100       0.448725
     9975.062300       0.453073
     9985.022500       0.457430
     9995.002500       0.461798
    10005.002500       0.466174
    10015.022500       0.470559
    10025.062700       0.474952
    10035.122900       0.479354
    10045.203400       0.483763
    10055.304200       0.488179
    10065.425300       0.492602
    10075.566800       0.497032
    10085.728700       0.501467
    10095.911200       0.505908
    10106.114200       0.510353
    10116.337900       0.514803
    10126.582300       0.519258
    10136.847400       0.523716
    10147.133400       0.528178
    10157.440300       0.532642
    10167.768200       0.537108
    10178.117000       0.541577
    10188.487000       0.546047
    10198.878100       0.550519
    10209.290500       0.554990
    10219.724100       0.559462
    10230.179000       0.563934
    10240.655400       0.568405
    10251.153300       0.572874
    10261.672700       0.577342
    10272.213700       0.581807
    10282.776300       0.586270
    10293.360800       0.590730
    10303.967000       0.595187
    10314.595200       0.599639
    10325.245200       0.604087
    10335.917300       0.608530
    10346.611500       0.612967
    10357.327800       0.617398
    10368.066400       0.621823
    10378.827200       0.626241
    10389.610400       0.630652
    10400.416000       0.635055
    10411.244100       0.639449
    10422.094800       0.643835
    10432.968200       0.648212
    10443.864200       0.652579
    10454.783100       0.656936
    10465.724800       0.661282
    10476.689400       0.665617
    10487.677000       0.669941
    10498.687700       0.674252
    10509.721500       0.678551
    10520.778500       0.682837
    10531.858900       0.687109
    10542.962600       0.691368
    10554.089700       0.695612
    10565.240400       0.699842
    10576.414600       0.704056
    10587.612500       0.708255
    10598.834100       0.712437
    10610.079600       0.716603
    10621.348900       0.720751
    10632.642200       0.724882
    10643.959600       0.728996
    10655.301000       0.733090
    10666.666700       0.737166
    10678.056600       0.741223
    10689.470900       0.745260
    10700.909600       0.749276
    10712.372800       0.753273
    10723.860600       0.757248
    10735.373100       0.761201
    10746.910300       0.765133
    10758.472300       0.769043
    10770.059200       0.772930
    10781.671200       0.776794
    10793.308100       0.780634
    10804.970300       0.784451
    10816.657700       0.788243
    10828.370300       0.792010
    10840.108400       0.795753
    10851.871900       0.799470
    10863.661100       0.803161
    10875.475800       0.806826
    10887.316300       0.810464
    10899.182600       0.814076
    10911.074700       0.817660
    10922.992900       0.821217
    10934.937100       0.824745
    10946.907500       0.828245
    10958.904100       0.831716
    10970.927000       0.835158
    10982.976400       0.838571
    10995.052200       0.841954
    11007.154700       0.845307
    11019.283700       0.848629
    11031.439600       0.851921
    11043.622300       0.855182
    11055.832000       0.858411
    11068.068600       0.861609
    11080.332400       0.864775
    11092.623400       0.867909
    11104.941700       0.871010
    11117.287400       0.874078
    11129.660500       0.877113
    11142.061300       0.880116
    11154.489700       0.883084
    11166.945800       0.886018
    11179.429800       0.888919
    11191.941800       0.891785
    11204.481800       0.894616
    11217.049900       0.897413
    11229.646300       0.900174
    11242.270900       0.902901
    11254.924000       0.905592
    11267.605600       0.908247
    11280.315800       0.910866
    11293.054800       0.913449
    11305.822500       0.915996
    11318.619100       0.918506
    11331.444800       0.920980
    11344.299500       0.923417
    11357.183400       0.925817
    11370.096600       0.928180
    11383.039300       0.930505
    11396.011400       0.932793
    11409.013100       0.935043
    11422.044500       0.937256
    11435.105800       0.939431
    11448.196900       0.941568
    11461.318100       0.943667
    11474.469300       0.945727
    11487.650800       0.947750
    11500.862600       0.949734
    11514.104800       0.951679
    11527.377500       0.953586
    11540.680900       0.955455
    11554.015000       0.957285
    11567.380000       0.959075
    11580.775900       0.960828
    11594.202900       0.962541
    11607.661100       0.964215
    11621.150500       0.965851
    11634.671300       0.967448
    11648.223600       0.969005
    11661.807600       0.970524
    11675.423200       0.972004
    11689.070700       0.973444
    11702.750100       0.974846
    11716.461600       0.976209
    11730.205300       0.977533
    11743.981200       0.978818
    11757.789500       0.980064
    11771.630400       0.981271
    11785.503800       0.982440
    11799.410000       0.983569
    11813.349100       0.984661
    11827.321100       0.985713
    11841.326200       0.986727
    11855.364600       0.987703
    11869.436200       0.988640
    11883.541300       0.989539
    11897.680000       0.990400
    11911.852300       0.991223
    11926.058400       0.992008
    11940.298500       0.992755
    11954.572600       0.993464
    11968.880900       0.994136
    11983.223500       0.994770
    11997.600500       0.995368
    12012.012000       0.995928
    12026.458200       0.996451
    12040.939200       0.996937
    12055.455100       0.997387
    12070.006000       0.997800
    12084.592100       0.998177
    12099.213600       0.998518
    12113.870400       0.998824
    12128.562800       0.999093
    12143.290800       0.999327
    12158.054700       0.999526
    12172.854500       0.999690
    12187.690400       0.999819
    12202.562500       0.999914
    12217.471000       0.999974
    12232.415900       1.000000
    12247.397400       0.999992
    12262.415700       0.999951
    12277.470800       0.999877
    12292.563000       0.999769
    12307.692300       0.999629
    12322.858900       0.999456
    12338.062900       0.999251
    12353.304500       0.999014
    12368.583800       0.998745
    12383.900900       0.998445
    12399.256000       0.998114
    12414.649300       0.997752
    12430.080800       0.997360
    12445.550700       0.996938
    12461.059200       0.996486
    12476.606400       0.996004
    12492.192400       0.995494
    12507.817400       0.994954
    12523.481500       0.994387
    12539.185000       0.993791
    12554.927800       0.993167
    12570.710200       0.992516
    12586.532400       0.991838
    12602.394500       0.991133
    12618.296500       0.990402
    12634.238800       0.989645
    12650.221400       0.988862
    12666.244500       0.988054
    12682.308200       0.987222
    12698.412700       0.986365
    12714.558200       0.985484
    12730.744700       0.984579
    12746.972600       0.983651
    12763.241900       0.982700
    12779.552700       0.981727
    12795.905300       0.980731
    12812.299800       0.979714
    12828.736400       0.978676
    12845.215200       0.977617
    12861.736300       0.976538
    12878.300100       0.975438
    12894.906500       0.974319
    12911.555800       0.973181
    12928.248200       0.972024
    12944.983800       0.970849
    12961.762800       0.969656
    12978.585300       0.968445
    12995.451600       0.967218
    13012.361700       0.965973
    13029.316000       0.964713
    13046.314400       0.963437
    13063.357300       0.962146
    13080.444700       0.960840
    13097.576900       0.959520
    13114.754100       0.958186
    13131.976400       0.956838
    13149.243900       0.955477
    13166.556900       0.954104
    13183.915600       0.952719
    13201.320100       0.951322
    13218.770700       0.949913
    13236.267400       0.948494
    13253.810500       0.947065
    13271.400100       0.945626
    13289.036500       0.944177
    13306.719900       0.942719
    13324.450400       0.941253
    13342.228200       0.939779
    13360.053400       0.938297
    13377.926400       0.936808
    13395.847300       0.935312
    13413.816200       0.933810
    13431.833400       0.932303
    13449.899100       0.930790
    13468.013500       0.929272
    13486.176700       0.927749
    13504.388900       0.926222
    13522.650400       0.924692
    13540.961400       0.923159
    13559.322000       0.921623
    13577.732500       0.920085
    13596.193100       0.918545
    13614.703900       0.917004
    13633.265200       0.915462
    13651.877100       0.913919
    13670.540000       0.912376
    13689.253900       0.910834
    13708.019200       0.909292
    13726.836000       0.907752
    13745.704500       0.906213
    13764.624900       0.904677
    13783.597500       0.903142
    13802.622500       0.901611
    13821.700100       0.900083
    13840.830400       0.898559
    13860.013900       0.897039
    13879.250500       0.895523
    13898.540700       0.894013
    13917.884500       0.892507
    13937.282200       0.891008
    13956.734100       0.889514
    13976.240400       0.888027
    13995.801300       0.886547
    14015.417000       0.885074
    14035.087700       0.883609
    14054.813800       0.882152
    14074.595400       0.880703
    14094.432700       0.879263
    14114.326000       0.877832
    14134.275600       0.876410
    14154.281700       0.874998
    14174.344400       0.873597
    14194.464200       0.872205
    14214.641100       0.870825
    14234.875400       0.869455
    14255.167500       0.868097
    14275.517500       0.866751
    14295.925700       0.865417
    14316.392300       0.864095
    14336.917600       0.862786
    14357.501800       0.861490
    14378.145200       0.860207
    14398.848100       0.858938
    14419.610700       0.857683
    14440.433200       0.856441
    14461.316000       0.855214
    14482.259200       0.854002
    14503.263200       0.852804
    14524.328200       0.851622
    14545.454500       0.850455
    14566.642400       0.849303
    14587.892000       0.848168
    14609.203800       0.847048
    14630.577900       0.845945
    14652.014700       0.844858
    14673.514300       0.843787
    14695.077100       0.842734
    14716.703500       0.841698
    14738.393500       0.840678
    14760.147600       0.839677
    14781.966000       0.838692
    14803.849000       0.837726
    14825.796900       0.836777
    14847.809900       0.835846
    14869.888500       0.834934
    14892.032800       0.834039
    14914.243100       0.833163
    14936.519800       0.832306
    14958.863100       0.831467
    14981.273400       0.830647
    15003.750900       0.829845
    15026.296000       0.829062
    15048.909000       0.828299
    15071.590100       0.827554
    15094.339600       0.826828
    15117.158000       0.826121
    15140.045400       0.825433
    15163.002300       0.824765
    15186.028900       0.824116
    15209.125500       0.823485
    15232.292500       0.822874
    15255.530100       0.822282
    15278.838800       0.821709
    15302.218800       0.821156
    15325.670500       0.820621
    15349.194200       0.820105
    15372.790200       0.819609
    15396.458800       0.819131
    15420.200500       0.818672
    15444.015400       0.818232
    15467.904100       0.817811
    15491.866800       0.817408
    15515.903800       0.817024
    15540.015500       0.816658
    15564.202300       0.816310
    15588.464500       0.815980
    15612.802500       0.815669
    15637.216600       0.815375
    15661.707100       0.815099
    15686.274500       0.814840
    15710.919100       0.814599
    15735.641200       0.814374
    15760.441300       0.814167
    15785.319700       0.813976
    15810.276700       0.813802
    15835.312700       0.813644
    15860.428200       0.813503
    15885.623500       0.813377
    15910.899000       0.813266
    15936.255000       0.813171
    15961.691900       0.813091
    15987.210200       0.813025
    16012.810200       0.812974
    16038.492400       0.812937
    16064.257000       0.812914
    16090.104600       0.812904
    16116.035500       0.812908
    16142.050000       0.812924
    16168.148700       0.812953
    16194.332000       0.812994
    16220.600200       0.813047
    16246.953700       0.813111
    16273.393000       0.813187
    16299.918500       0.813272
    16326.530600       0.813368
    16353.229800       0.813474
    16380.016400       0.813590
    16406.890900       0.813714
    16433.853700       0.813846
    16460.905300       0.813987
    16488.046200       0.814136
    16515.276600       0.814291
    16542.597200       0.814454
    16570.008300       0.814622
    16597.510400       0.814796
    16625.103900       0.814976
    16652.789300       0.815160
    16680.567100       0.815348
    16708.437800       0.815540
    16736.401700       0.815735
    16764.459300       0.815933
    16792.611300       0.816133
    16820.857900       0.816334
    16849.199700       0.816537
    16877.637100       0.816739
    16906.170800       0.816942
    16934.801000       0.817144
    16963.528400       0.817344
    16992.353400       0.817542
    17021.276600       0.817738
    17050.298400       0.817931
    17079.419300       0.818120
    17108.639900       0.818304
    17137.960600       0.818483
    17167.382000       0.818657
    17196.904600       0.818824
    17226.528900       0.818984
    17256.255400       0.819137
    17286.084700       0.819281
    17316.017300       0.819416
    17346.053800       0.819541
    17376.194600       0.819656
    17406.440400       0.819760
    17436.791600       0.819852
    17467.248900       0.819932
    17497.812800       0.819998
    17528.483800       0.820051
    17559.262500       0.820089
    17590.149500       0.820112
    17621.145400       0.820118
    17652.250700       0.820108
    17683.466000       0.820080
