1,  FY-3C MERSI-1 channel 11.0 microns
Number of data points:
294
Wavenumber (cm-1)   Filter response
      769.230800       0.000000
      790.513800       0.000000
      791.138600       0.000000
      791.766300       0.000000
      792.393000       0.000000
      793.020800       0.000000
      793.652100       0.000000
      794.281800       0.000000
      794.913800       0.000000
      795.546200       0.000000
      796.177700       0.009000
      796.812700       0.010000
      797.448800       0.011330
      798.085900       0.010390
      798.722000       0.010500
      799.361800       0.011960
      800.000600       0.015000
      800.640500       0.019790
      801.283300       0.026330
      801.925300       0.034530
      802.568900       0.044200
      803.213500       0.055090
      803.859200       0.066930
      804.505900       0.079420
      805.154300       0.092330
      805.801800       0.105430
      806.452300       0.118530
      807.101900       0.131470
      807.755100       0.144100
      808.406800       0.156280
      809.062100       0.167930
      809.716600       0.178980
      810.372800       0.189430
      811.029400       0.199330
      811.687700       0.208750
      812.347000       0.217760
      813.007500       0.226430
      813.669700       0.234760
      814.332200       0.242690
      814.996600       0.250080
      815.660700       0.256780
      816.327200       0.262610
      816.992800       0.267410
      817.662200       0.271140
      818.330600       0.273850
      819.000100       0.275740
      819.673500       0.277100
      820.345200       0.278320
      821.018700       0.279800
      821.693400       0.281940
      822.369100       0.285060
      823.046600       0.289360
      823.723200       0.294890
      824.402300       0.301580
      825.083900       0.309230
      825.763800       0.317510
      826.447000       0.326060
      827.129900       0.334480
      827.813900       0.342400
      828.501100       0.349510
      829.188100       0.355620
      829.875500       0.360680
      830.564800       0.364760
      831.255200       0.368100
      831.946800       0.371060
      832.640200       0.374040
      833.334000       0.377480
      834.027700       0.381700
      834.724500       0.386950
      835.423300       0.393290
      836.120400       0.400600
      836.821500       0.408640
      837.521600       0.417090
      838.223000       0.425600
      838.927600       0.433890
      839.632000       0.441840
      840.336800       0.449470
      841.043600       0.456950
      841.751600       0.464550
      842.461400       0.472590
      843.169600       0.481350
      843.881900       0.491010
      844.595300       0.501600
      845.310000       0.513020
      846.023700       0.525060
      846.741500       0.537450
      847.458300       0.549940
      848.176400       0.562320
      848.897900       0.574440
      849.618400       0.586230
      850.340900       0.597660
      851.063800       0.608700
      851.788800       0.619280
      852.515600       0.629310
      853.243000       0.638640
      853.972400       0.647140
      854.700100       0.654710
      855.432000       0.661330
      856.165800       0.667100
      856.898000       0.672200
      857.633700       0.676930
      858.369100       0.681540
      859.105800       0.686260
      859.846000       0.691200
      860.585900       0.696360
      861.326400       0.701590
      862.069000       0.706650
      862.812800       0.711320
      863.557900       0.715400
      864.304200       0.718830
      865.052700       0.721640
      865.802400       0.724010
      866.551100       0.726190
      867.303400       0.728400
      868.057100       0.730820
      868.810500       0.733510
      869.564500       0.736390
      870.322800       0.739280
      871.080100       0.741970
      871.838800       0.744220
      872.599600       0.745870
      873.364000       0.746920
      874.127400       0.747410
      874.892200       0.747510
      875.658300       0.747450
      876.423400       0.747410
      877.193000       0.747510
      877.963900       0.747800
      878.736200       0.748260
      879.507500       0.748790
      880.282500       0.749330
      881.057300       0.749830
      881.835800       0.750330
      882.613300       0.750930
      883.392200       0.751790
      884.172500       0.753020
      884.957300       0.754740
      885.740400       0.756920
      886.525600       0.759450
      887.312200       0.762130
      888.101000       0.764690
      888.888100       0.766870
      889.679700       0.768500
      890.472700       0.769480
      891.267200       0.769870
      892.060700       0.769810
      892.857900       0.769540
      893.655000       0.769240
      894.456000       0.769090
      895.255100       0.769110
      896.056500       0.769270
      896.862600       0.769380
      897.666900       0.769240
      898.473400       0.768630
      899.281400       0.767410
      900.090800       0.765540
      900.901700       0.763070
      901.714900       0.760190
      902.526300       0.757120
      903.342400       0.754110
      904.159900       0.751360
      904.976600       0.749020
      905.797100       0.747140
      906.620000       0.745700
      907.441800       0.744620
      908.264400       0.743820
      909.092600       0.743220
      909.918900       0.742790
      910.746800       0.742530
      911.577000       0.742450
      912.407900       0.742640
      913.241200       0.743110
      914.076800       0.743910
      914.913100       0.745080
      915.750900       0.746650
      916.591100       0.748670
      917.432900       0.751240
      918.273600       0.754470
      919.118500       0.758490
      919.962400       0.763400
      920.811200       0.769240
      921.659000       0.775950
      922.510900       0.783300
      923.361000       0.790980
      924.214400       0.798520
      925.068500       0.805470
      925.927600       0.811390
      926.785800       0.816000
      927.645500       0.819220
      928.506800       0.821190
      929.369800       0.822260
      930.231700       0.822960
      931.098700       0.823850
      931.967300       0.825470
      932.837600       0.828190
      933.706800       0.832180
      934.580300       0.837350
      935.453700       0.843420
      936.330500       0.849960
      937.207100       0.856510
      938.085400       0.862690
      938.968900       0.868240
      939.850500       0.873150
      940.733800       0.877600
      941.619600       0.881930
      942.507100       0.886560
      943.396200       0.891900
      944.287100       0.898240
      945.179600       0.905700
      946.074700       0.914150
      946.971500       0.923270
      947.867300       0.932590
      948.767500       0.941530
      949.669400       0.949540
      950.570300       0.956180
      951.476600       0.961200
      952.381000       0.964600
      953.287900       0.966580
      954.200300       0.967570
      955.110700       0.968100
      956.022900       0.968740
      956.937800       0.969990
      957.853500       0.972190
      958.771900       0.975470
      959.692000       0.979710
      960.613900       0.984580
      961.538500       0.989550
      962.463900       0.994080
      963.392100       0.997580
      964.322000       0.999640
      965.251000       1.000000
      966.184500       0.998610
      967.117100       0.995650
      968.055100       0.991410
      968.992200       0.986270
      969.934000       0.980570
      970.873800       0.974570
      971.817300       0.968360
      972.764500       0.961870
      973.710800       0.954870
      974.659800       0.947050
      975.610700       0.938100
      976.563500       0.927740
      977.518100       0.915800
      978.474500       0.902260
      979.433800       0.887230
      980.391200       0.870910
      981.354300       0.853550
      982.319200       0.835390
      983.283200       0.816590
      984.252000       0.797220
      985.223600       0.777250
      986.193300       0.756590
      987.168800       0.735080
      988.143300       0.712590
      989.119700       0.689010
      990.098000       0.664300
      991.082200       0.638550
      992.064500       0.611880
      993.049600       0.584500
      994.035800       0.556630
      995.024900       0.528510
      996.016900       0.500340
      997.010000       0.472300
      998.005000       0.444540
      999.003000       0.417150
     1000.000000       0.390240
     1001.001100       0.363900
     1002.005300       0.338190
     1003.008500       0.313200
     1004.017000       0.288960
     1005.024300       0.265520
     1006.037200       0.242850
     1007.049100       0.220890
     1008.063200       0.199580
     1009.082800       0.178820
     1010.101200       0.158550
     1011.122000       0.138750
     1012.145000       0.119490
     1013.170100       0.100920
     1014.197700       0.083270
     1015.227300       0.066850
     1016.259200       0.051960
     1017.293400       0.038890
     1018.329700       0.027860
     1019.368700       0.018950
     1020.409800       0.012130
     1021.449800       0.007220
     1022.495400       0.003970
     1023.540100       0.002010
     1024.590300       0.001020
     1025.639600       0.000000
     1030.927800       0.000000
     1052.631600       0.000000
