13,   13, MVIRI VIS channel from srf_MET2_1983258_1983259_1801-Release_S10EL_10.dat
Number of data points:
730
Wavenumber (cm-1)   Filter response
     8916.629500       0.000000
     8924.587200       0.000000
     8932.559200       0.000002
     8940.545400       0.000011
     8948.545900       0.000032
     8956.560700       0.000068
     8964.589900       0.000125
     8972.633500       0.000206
     8980.691500       0.000315
     8988.764000       0.000456
     8996.851100       0.000633
     9004.952700       0.000849
     9013.068900       0.001107
     9021.199800       0.001411
     9029.345400       0.001763
     9037.505600       0.002167
     9045.680700       0.002626
     9053.870500       0.003140
     9062.075200       0.003715
     9070.294800       0.004351
     9078.529300       0.005050
     9086.778700       0.005816
     9095.043200       0.006650
     9103.322700       0.007553
     9111.617300       0.008527
     9119.927000       0.009575
     9128.251900       0.010697
     9136.592100       0.011895
     9144.947400       0.013171
     9153.318100       0.014525
     9161.704100       0.015958
     9170.105500       0.017472
     9178.522300       0.019067
     9186.954500       0.020745
     9195.402300       0.022506
     9203.865600       0.024350
     9212.344500       0.026278
     9220.839100       0.028291
     9229.349300       0.030389
     9237.875300       0.032573
     9246.417000       0.034841
     9254.974500       0.037196
     9263.547900       0.039637
     9272.137200       0.042164
     9280.742500       0.044776
     9289.363700       0.047474
     9298.000900       0.050258
     9306.654300       0.053127
     9315.323700       0.056081
     9324.009300       0.059120
     9332.711200       0.062243
     9341.429200       0.065450
     9350.163600       0.068741
     9358.914400       0.072114
     9367.681500       0.075570
     9376.465100       0.079107
     9385.265100       0.082725
     9394.081700       0.086423
     9402.914900       0.090201
     9411.764700       0.094057
     9420.631200       0.097992
     9429.514400       0.102002
     9438.414300       0.106089
     9447.331100       0.110251
     9456.264800       0.114487
     9465.215300       0.118796
     9474.182900       0.123177
     9483.167400       0.127629
     9492.169000       0.132150
     9501.187600       0.136740
     9510.223500       0.141398
     9519.276500       0.146122
     9528.346800       0.150912
     9537.434400       0.155765
     9546.539400       0.160681
     9555.661700       0.165658
     9564.801500       0.170695
     9573.958800       0.175792
     9583.133700       0.180946
     9592.326100       0.186156
     9601.536200       0.191422
     9610.764100       0.196740
     9620.009600       0.202112
     9629.273000       0.207534
     9638.554200       0.213005
     9647.853400       0.218525
     9657.170400       0.224091
     9666.505600       0.229704
     9675.858700       0.235360
     9685.230000       0.241058
     9694.619500       0.246798
     9704.027200       0.252577
     9713.453100       0.258396
     9722.897400       0.264251
     9732.360100       0.270141
     9741.841200       0.276066
     9751.340800       0.282023
     9760.859000       0.288012
     9770.395700       0.294031
     9779.951100       0.300078
     9789.525200       0.306153
     9799.118100       0.312253
     9808.729800       0.318377
     9818.360300       0.324525
     9828.009800       0.330693
     9837.678300       0.336883
     9847.365800       0.343091
     9857.072400       0.349316
     9866.798200       0.355557
     9876.543200       0.361813
     9886.307500       0.368083
     9896.091000       0.374364
     9905.894000       0.380656
     9915.716400       0.386958
     9925.558300       0.393267
     9935.419800       0.399584
     9945.300800       0.405907
     9955.201600       0.412232
     9965.122100       0.418562
     9975.062300       0.424893
     9985.022500       0.431224
     9995.002500       0.437556
    10005.002500       0.443884
    10015.022500       0.450210
    10025.062700       0.456531
    10035.122900       0.462847
    10045.203400       0.469156
    10055.304200       0.475458
    10065.425300       0.481750
    10075.566800       0.488032
    10085.728700       0.494303
    10095.911200       0.500562
    10106.114200       0.506808
    10116.337900       0.513039
    10126.582300       0.519254
    10136.847400       0.525453
    10147.133400       0.531635
    10157.440300       0.537798
    10167.768200       0.543942
    10178.117000       0.550065
    10188.487000       0.556167
    10198.878100       0.562247
    10209.290500       0.568303
    10219.724100       0.574335
    10230.179000       0.580342
    10240.655400       0.586323
    10251.153300       0.592277
    10261.672700       0.598204
    10272.213700       0.604102
    10282.776300       0.609971
    10293.360800       0.615810
    10303.967000       0.621618
    10314.595200       0.627395
    10325.245200       0.633139
    10335.917300       0.638850
    10346.611500       0.644527
    10357.327800       0.650170
    10368.066400       0.655778
    10378.827200       0.661350
    10389.610400       0.666886
    10400.416000       0.672385
    10411.244100       0.677845
    10422.094800       0.683268
    10432.968200       0.688652
    10443.864200       0.693996
    10454.783100       0.699301
    10465.724800       0.704565
    10476.689400       0.709788
    10487.677000       0.714969
    10498.687700       0.720109
    10509.721500       0.725206
    10520.778500       0.730260
    10531.858900       0.735271
    10542.962600       0.740238
    10554.089700       0.745161
    10565.240400       0.750039
    10576.414600       0.754873
    10587.612500       0.759661
    10598.834100       0.764403
    10610.079600       0.769100
    10621.348900       0.773750
    10632.642200       0.778353
    10643.959600       0.782910
    10655.301000       0.787420
    10666.666700       0.791882
    10678.056600       0.796296
    10689.470900       0.800662
    10700.909600       0.804981
    10712.372800       0.809251
    10723.860600       0.813472
    10735.373100       0.817645
    10746.910300       0.821769
    10758.472300       0.825843
    10770.059200       0.829869
    10781.671200       0.833845
    10793.308100       0.837772
    10804.970300       0.841649
    10816.657700       0.845476
    10828.370300       0.849254
    10840.108400       0.852982
    10851.871900       0.856660
    10863.661100       0.860288
    10875.475800       0.863866
    10887.316300       0.867395
    10899.182600       0.870873
    10911.074700       0.874301
    10922.992900       0.877679
    10934.937100       0.881007
    10946.907500       0.884285
    10958.904100       0.887514
    10970.927000       0.890692
    10982.976400       0.893820
    10995.052200       0.896899
    11007.154700       0.899928
    11019.283700       0.902907
    11031.439600       0.905837
    11043.622300       0.908718
    11055.832000       0.911549
    11068.068600       0.914330
    11080.332400       0.917063
    11092.623400       0.919747
    11104.941700       0.922382
    11117.287400       0.924968
    11129.660500       0.927506
    11142.061300       0.929995
    11154.489700       0.932436
    11166.945800       0.934829
    11179.429800       0.937175
    11191.941800       0.939472
    11204.481800       0.941723
    11217.049900       0.943925
    11229.646300       0.946081
    11242.270900       0.948190
    11254.924000       0.950253
    11267.605600       0.952269
    11280.315800       0.954238
    11293.054800       0.956162
    11305.822500       0.958040
    11318.619100       0.959873
    11331.444800       0.961660
    11344.299500       0.963403
    11357.183400       0.965101
    11370.096600       0.966754
    11383.039300       0.968363
    11396.011400       0.969929
    11409.013100       0.971450
    11422.044500       0.972929
    11435.105800       0.974364
    11448.196900       0.975757
    11461.318100       0.977107
    11474.469300       0.978415
    11487.650800       0.979680
    11500.862600       0.980905
    11514.104800       0.982088
    11527.377500       0.983230
    11540.680900       0.984331
    11554.015000       0.985392
    11567.380000       0.986413
    11580.775900       0.987394
    11594.202900       0.988335
    11607.661100       0.989237
    11621.150500       0.990101
    11634.671300       0.990926
    11648.223600       0.991712
    11661.807600       0.992461
    11675.423200       0.993173
    11689.070700       0.993847
    11702.750100       0.994484
    11716.461600       0.995084
    11730.205300       0.995648
    11743.981200       0.996176
    11757.789500       0.996669
    11771.630400       0.997126
    11785.503800       0.997548
    11799.410000       0.997935
    11813.349100       0.998289
    11827.321100       0.998608
    11841.326200       0.998893
    11855.364600       0.999145
    11869.436200       0.999364
    11883.541300       0.999550
    11897.680000       0.999703
    11911.852300       0.999825
    11926.058400       0.999915
    11940.298500       0.999973
    11954.572600       1.000000
    11968.880900       0.999996
    11983.223500       0.999962
    11997.600500       0.999897
    12012.012000       0.999803
    12026.458200       0.999679
    12040.939200       0.999525
    12055.455100       0.999343
    12070.006000       0.999132
    12084.592100       0.998893
    12099.213600       0.998625
    12113.870400       0.998330
    12128.562800       0.998007
    12143.290800       0.997657
    12158.054700       0.997280
    12172.854500       0.996877
    12187.690400       0.996447
    12202.562500       0.995991
    12217.471000       0.995509
    12232.415900       0.995002
    12247.397400       0.994470
    12262.415700       0.993913
    12277.470800       0.993331
    12292.563000       0.992724
    12307.692300       0.992094
    12322.858900       0.991440
    12338.062900       0.990762
    12353.304500       0.990061
    12368.583800       0.989337
    12383.900900       0.988590
    12399.256000       0.987821
    12414.649300       0.987029
    12430.080800       0.986215
    12445.550700       0.985380
    12461.059200       0.984523
    12476.606400       0.983644
    12492.192400       0.982745
    12507.817400       0.981825
    12523.481500       0.980884
    12539.185000       0.979922
    12554.927800       0.978941
    12570.710200       0.977939
    12586.532400       0.976918
    12602.394500       0.975878
    12618.296500       0.974818
    12634.238800       0.973739
    12650.221400       0.972641
    12666.244500       0.971524
    12682.308200       0.970389
    12698.412700       0.969236
    12714.558200       0.968065
    12730.744700       0.966875
    12746.972600       0.965668
    12763.241900       0.964444
    12779.552700       0.963202
    12795.905300       0.961943
    12812.299800       0.960668
    12828.736400       0.959375
    12845.215200       0.958066
    12861.736300       0.956740
    12878.300100       0.955398
    12894.906500       0.954040
    12911.555800       0.952666
    12928.248200       0.951276
    12944.983800       0.949870
    12961.762800       0.948449
    12978.585300       0.947013
    12995.451600       0.945561
    13012.361700       0.944095
    13029.316000       0.942613
    13046.314400       0.941117
    13063.357300       0.939606
    13080.444700       0.938080
    13097.576900       0.936541
    13114.754100       0.934986
    13131.976400       0.933418
    13149.243900       0.931836
    13166.556900       0.930240
    13183.915600       0.928630
    13201.320100       0.927007
    13218.770700       0.925370
    13236.267400       0.923719
    13253.810500       0.922056
    13271.400100       0.920379
    13289.036500       0.918689
    13306.719900       0.916986
    13324.450400       0.915270
    13342.228200       0.913541
    13360.053400       0.911800
    13377.926400       0.910046
    13395.847300       0.908279
    13413.816200       0.906500
    13431.833400       0.904709
    13449.899100       0.902906
    13468.013500       0.901090
    13486.176700       0.899263
    13504.388900       0.897423
    13522.650400       0.895571
    13540.961400       0.893708
    13559.322000       0.891833
    13577.732500       0.889946
    13596.193100       0.888048
    13614.703900       0.886138
    13633.265200       0.884217
    13651.877100       0.882284
    13670.540000       0.880340
    13689.253900       0.878385
    13708.019200       0.876419
    13726.836000       0.874441
    13745.704500       0.872453
    13764.624900       0.870453
    13783.597500       0.868443
    13802.622500       0.866422
    13821.700100       0.864390
    13840.830400       0.862347
    13860.013900       0.860294
    13879.250500       0.858230
    13898.540700       0.856155
    13917.884500       0.854070
    13937.282200       0.851975
    13956.734100       0.849869
    13976.240400       0.847753
    13995.801300       0.845627
    14015.417000       0.843491
    14035.087700       0.841344
    14054.813800       0.839187
    14074.595400       0.837021
    14094.432700       0.834844
    14114.326000       0.832658
    14134.275600       0.830461
    14154.281700       0.828255
    14174.344400       0.826039
    14194.464200       0.823814
    14214.641100       0.821579
    14234.875400       0.819334
    14255.167500       0.817080
    14275.517500       0.814816
    14295.925700       0.812543
    14316.392300       0.810261
    14336.917600       0.807969
    14357.501800       0.805668
    14378.145200       0.803358
    14398.848100       0.801039
    14419.610700       0.798711
    14440.433200       0.796374
    14461.316000       0.794028
    14482.259200       0.791673
    14503.263200       0.789309
    14524.328200       0.786936
    14545.454500       0.784555
    14566.642400       0.782166
    14587.892000       0.779767
    14609.203800       0.777361
    14630.577900       0.774946
    14652.014700       0.772522
    14673.514300       0.770090
    14695.077100       0.767650
    14716.703500       0.765202
    14738.393500       0.762746
    14760.147600       0.760282
    14781.966000       0.757810
    14803.849000       0.755331
    14825.796900       0.752843
    14847.809900       0.750348
    14869.888500       0.747845
    14892.032800       0.745335
    14914.243100       0.742817
    14936.519800       0.740292
    14958.863100       0.737760
    14981.273400       0.735220
    15003.750900       0.732673
    15026.296000       0.730120
    15048.909000       0.727559
    15071.590100       0.724992
    15094.339600       0.722418
    15117.158000       0.719837
    15140.045400       0.717250
    15163.002300       0.714656
    15186.028900       0.712056
    15209.125500       0.709450
    15232.292500       0.706837
    15255.530100       0.704218
    15278.838800       0.701594
    15302.218800       0.698964
    15325.670500       0.696327
    15349.194200       0.693686
    15372.790200       0.691038
    15396.458800       0.688386
    15420.200500       0.685728
    15444.015400       0.683064
    15467.904100       0.680396
    15491.866800       0.677723
    15515.903800       0.675045
    15540.015500       0.672362
    15564.202300       0.669674
    15588.464500       0.666983
    15612.802500       0.664286
    15637.216600       0.661586
    15661.707100       0.658881
    15686.274500       0.656172
    15710.919100       0.653460
    15735.641200       0.650743
    15760.441300       0.648023
    15785.319700       0.645300
    15810.276700       0.642573
    15835.312700       0.639843
    15860.428200       0.637110
    15885.623500       0.634374
    15910.899000       0.631635
    15936.255000       0.628893
    15961.691900       0.626149
    15987.210200       0.623402
    16012.810200       0.620653
    16038.492400       0.617902
    16064.257000       0.615149
    16090.104600       0.612395
    16116.035500       0.609638
    16142.050000       0.606880
    16168.148700       0.604120
    16194.332000       0.601359
    16220.600200       0.598597
    16246.953700       0.595834
    16273.393000       0.593070
    16299.918500       0.590306
    16326.530600       0.587541
    16353.229800       0.584775
    16380.016400       0.582009
    16406.890900       0.579244
    16433.853700       0.576478
    16460.905300       0.573712
    16488.046200       0.570947
    16515.276600       0.568182
    16542.597200       0.565418
    16570.008300       0.562654
    16597.510400       0.559892
    16625.103900       0.557130
    16652.789300       0.554370
    16680.567100       0.551611
    16708.437800       0.548854
    16736.401700       0.546098
    16764.459300       0.543344
    16792.611300       0.540593
    16820.857900       0.537843
    16849.199700       0.535095
    16877.637100       0.532350
    16906.170800       0.529607
    16934.801000       0.526868
    16963.528400       0.524130
    16992.353400       0.521396
    17021.276600       0.518665
    17050.298400       0.515937
    17079.419300       0.513213
    17108.639900       0.510492
    17137.960600       0.507775
    17167.382000       0.505061
    17196.904600       0.502352
    17226.528900       0.499646
    17256.255400       0.496945
    17286.084700       0.494248
    17316.017300       0.491555
    17346.053800       0.488867
    17376.194600       0.486184
    17406.440400       0.483505
    17436.791600       0.480831
    17467.248900       0.478163
    17497.812800       0.475499
    17528.483800       0.472841
    17559.262500       0.470188
    17590.149500       0.467541
    17621.145400       0.464899
    17652.250700       0.462263
    17683.466000       0.459633
    17714.791900       0.457009
    17746.228900       0.454390
    17777.777800       0.451778
    17809.439000       0.449172
    17841.213200       0.446572
    17873.101000       0.443979
    17905.103000       0.441392
    17937.219700       0.438811
    17969.451900       0.436237
    18001.800200       0.433670
    18034.265100       0.431110
    18066.847300       0.428556
    18099.547500       0.426009
    18132.366300       0.423469
    18165.304300       0.420936
    18198.362100       0.418410
    18231.540600       0.415891
    18264.840200       0.413380
    18298.261700       0.410875
    18331.805700       0.408378
    18365.472900       0.405888
    18399.264000       0.403405
    18433.179700       0.400929
    18467.220700       0.398461
    18501.387600       0.396000
    18535.681200       0.393547
    18570.102100       0.391101
    18604.651200       0.388662
    18639.329000       0.386230
    18674.136300       0.383806
    18709.073900       0.381390
    18744.142500       0.378981
    18779.342700       0.376579
    18814.675400       0.374184
    18850.141400       0.371797
    18885.741300       0.369416
    18921.475900       0.367044
    18957.346000       0.364678
    18993.352300       0.362319
    19029.495700       0.359968
    19065.776900       0.357624
    19102.196800       0.355286
    19138.756000       0.352956
    19175.455400       0.350632
    19212.295900       0.348316
    19249.278200       0.346006
    19286.403100       0.343702
    19323.671500       0.341405
    19361.084200       0.339115
    19398.642100       0.336831
    19436.346000       0.334554
    19474.196700       0.332282
    19512.195100       0.330017
    19550.342100       0.327757
    19588.638600       0.325504
    19627.085400       0.323256
    19665.683400       0.321013
    19704.433500       0.318776
    19743.336600       0.316545
    19782.393700       0.314318
    19821.605600       0.312097
    19860.973200       0.309881
    19900.497500       0.307669
