3,   SBG channel 3 from srf_082024.csv
Number of data points:
882
Wavenumber (cm-1)   Filter response
     1138.952100       0.000491
     1139.081900       0.000498
     1139.211700       0.000505
     1139.341400       0.000512
     1139.471300       0.000520
     1139.601200       0.000527
     1139.731000       0.000535
     1139.861000       0.000542
     1139.990800       0.000550
     1140.120800       0.000558
     1140.250900       0.000566
     1140.380900       0.000575
     1140.511000       0.000583
     1140.641000       0.000592
     1140.771200       0.000600
     1140.901200       0.000609
     1141.031500       0.000618
     1141.161700       0.000628
     1141.292000       0.000637
     1141.422200       0.000647
     1141.552500       0.000657
     1141.682900       0.000667
     1141.813100       0.000677
     1141.943600       0.000687
     1142.074100       0.000697
     1142.204500       0.000708
     1142.335000       0.000719
     1142.465500       0.000730
     1142.595900       0.000741
     1142.726400       0.000753
     1142.857200       0.000765
     1142.987800       0.000777
     1143.118400       0.000789
     1143.249100       0.000801
     1143.379800       0.000814
     1143.510600       0.000827
     1143.641400       0.000840
     1143.772200       0.000853
     1143.903100       0.000867
     1144.033800       0.000881
     1144.164800       0.000895
     1144.295700       0.000909
     1144.426600       0.000924
     1144.557600       0.000939
     1144.688600       0.000954
     1144.819700       0.000970
     1144.950700       0.000986
     1145.081900       0.001002
     1145.213000       0.001019
     1145.344200       0.001035
     1145.475500       0.001053
     1145.606600       0.001070
     1145.737900       0.001088
     1145.869100       0.001106
     1146.000500       0.001125
     1146.131700       0.001144
     1146.263200       0.001163
     1146.394700       0.001183
     1146.526000       0.001203
     1146.657500       0.001223
     1146.788900       0.001244
     1146.920500       0.001265
     1147.052000       0.001287
     1147.183700       0.001309
     1147.315300       0.001332
     1147.446900       0.001355
     1147.578600       0.001378
     1147.710300       0.001402
     1147.842000       0.001427
     1147.973800       0.001452
     1148.105600       0.001477
     1148.237500       0.001503
     1148.369300       0.001530
     1148.501200       0.001557
     1148.633100       0.001585
     1148.765100       0.001613
     1148.897000       0.001642
     1149.029100       0.001671
     1149.161100       0.001701
     1149.293200       0.001732
     1149.425300       0.001763
     1149.557400       0.001795
     1149.689600       0.001828
     1149.821800       0.001861
     1149.954000       0.001895
     1150.086300       0.001929
     1150.218500       0.001965
     1150.350800       0.002001
     1150.483200       0.002038
     1150.615600       0.002076
     1150.748000       0.002114
     1150.880400       0.002153
     1151.012900       0.002194
     1151.145400       0.002235
     1151.278000       0.002276
     1151.410400       0.002319
     1151.543100       0.002363
     1151.675800       0.002408
     1151.808300       0.002453
     1151.941000       0.002500
     1152.073700       0.002547
     1152.206500       0.002596
     1152.339200       0.002646
     1152.472000       0.002697
     1152.605000       0.002749
     1152.737700       0.002802
     1152.870700       0.002856
     1153.003500       0.002911
     1153.136600       0.002968
     1153.269500       0.003026
     1153.402600       0.003085
     1153.535600       0.003146
     1153.668600       0.003207
     1153.801800       0.003271
     1153.934800       0.003335
     1154.068100       0.003401
     1154.201300       0.003469
     1154.334500       0.003538
     1154.467800       0.003609
     1154.601100       0.003681
     1154.734400       0.003755
     1154.867700       0.003831
     1155.001100       0.003908
     1155.134600       0.003987
     1155.267900       0.004068
     1155.401500       0.004151
     1155.535000       0.004235
     1155.668600       0.004322
     1155.802100       0.004411
     1155.935700       0.004501
     1156.069500       0.004594
     1156.203000       0.004689
     1156.336800       0.004786
     1156.470500       0.004886
     1156.604200       0.004988
     1156.737900       0.005092
     1156.871800       0.005199
     1157.005700       0.005308
     1157.139500       0.005420
     1157.273400       0.005535
     1157.407300       0.005652
     1157.541400       0.005772
     1157.675400       0.005895
     1157.809400       0.006021
     1157.943500       0.006150
     1158.077500       0.006282
     1158.211800       0.006417
     1158.345800       0.006556
     1158.480100       0.006698
     1158.614400       0.006844
     1158.748500       0.006993
     1158.882900       0.007146
     1159.017100       0.007302
     1159.151500       0.007463
     1159.285800       0.007627
     1159.420300       0.007796
     1159.554800       0.007969
     1159.689200       0.008146
     1159.823700       0.008327
     1159.958300       0.008514
     1160.092800       0.008705
     1160.227300       0.008900
     1160.362100       0.009101
     1160.496700       0.009307
     1160.631300       0.009518
     1160.766100       0.009735
     1160.900800       0.009957
     1161.035600       0.010186
     1161.170400       0.010420
     1161.305300       0.010660
     1161.440200       0.010906
     1161.575100       0.011159
     1161.710100       0.011419
     1161.845000       0.011685
     1161.980000       0.011959
     1162.115100       0.012240
     1162.250100       0.012528
     1162.385300       0.012824
     1162.520300       0.013128
     1162.655500       0.013441
     1162.790600       0.013761
     1162.925900       0.014091
     1163.061300       0.014429
     1163.196400       0.014777
     1163.331800       0.015134
     1163.467000       0.015501
     1163.602500       0.015879
     1163.737900       0.016267
     1163.873400       0.016665
     1164.008900       0.017075
     1164.144300       0.017496
     1164.279900       0.017929
     1164.415400       0.018374
     1164.551000       0.018832
     1164.686600       0.019303
     1164.822400       0.019788
     1164.958100       0.020286
     1165.093800       0.020799
     1165.229600       0.021326
     1165.365400       0.021869
     1165.501200       0.022427
     1165.637000       0.023002
     1165.772900       0.023593
     1165.908800       0.024202
     1166.044800       0.024829
     1166.180800       0.025475
     1166.316800       0.026139
     1166.452900       0.026823
     1166.589000       0.027528
     1166.725000       0.028254
     1166.861200       0.029002
     1166.997300       0.029772
     1167.133500       0.030565
     1167.269700       0.031383
     1167.406000       0.032226
     1167.542400       0.033094
     1167.678600       0.033989
     1167.815100       0.034911
     1167.951400       0.035863
     1168.087900       0.036843
     1168.224200       0.037854
     1168.360800       0.038897
     1168.497300       0.039972
     1168.633800       0.041080
     1168.770500       0.042224
     1168.907000       0.043404
     1169.043700       0.044621
     1169.180300       0.045877
     1169.317100       0.047172
     1169.453900       0.048510
     1169.590600       0.049889
     1169.727500       0.051313
     1169.864300       0.052783
     1170.001200       0.054301
     1170.138200       0.055867
     1170.275000       0.057484
     1170.412000       0.059154
     1170.549000       0.060878
     1170.686000       0.062658
     1170.823000       0.064496
     1170.960200       0.066395
     1171.097400       0.068356
     1171.234500       0.070381
     1171.371700       0.072473
     1171.508900       0.074633
     1171.646200       0.076865
     1171.783400       0.079171
     1171.920800       0.081553
     1172.058200       0.084014
     1172.195600       0.086556
     1172.333000       0.089183
     1172.470300       0.091896
     1172.607900       0.094700
     1172.745400       0.097596
     1172.882900       0.100588
     1173.020600       0.103680
     1173.158100       0.106873
     1173.295800       0.110173
     1173.433500       0.113581
     1173.571200       0.117102
     1173.708900       0.120738
     1173.846700       0.124494
     1173.984500       0.128374
     1174.122300       0.132380
     1174.260300       0.136516
     1174.398100       0.140787
     1174.536000       0.145197
     1174.674100       0.149748
     1174.812000       0.154445
     1174.950100       0.159293
     1175.088100       0.164294
     1175.226200       0.169454
     1175.364300       0.174775
     1175.502600       0.180262
     1175.640700       0.185919
     1175.778900       0.191749
     1175.917200       0.197756
     1176.055400       0.203945
     1176.193800       0.210318
     1176.332200       0.216879
     1176.470600       0.223631
     1176.609000       0.230578
     1176.747400       0.237722
     1176.886000       0.245066
     1177.024400       0.252613
     1177.163100       0.260365
     1177.301500       0.268323
     1177.440200       0.276490
     1177.579000       0.284866
     1177.717500       0.293453
     1177.856300       0.302250
     1177.995000       0.311258
     1178.133800       0.320476
     1178.272600       0.329903
     1178.411500       0.339538
     1178.550400       0.349378
     1178.689200       0.359420
     1178.828200       0.369662
     1178.967200       0.380099
     1179.106200       0.390727
     1179.245400       0.401539
     1179.384400       0.412530
     1179.523600       0.423693
     1179.662600       0.435021
     1179.801800       0.446505
     1179.940900       0.458137
     1180.080200       0.469905
     1180.219600       0.481801
     1180.358800       0.493813
     1180.498200       0.505929
     1180.637500       0.518137
     1180.777000       0.530423
     1180.916400       0.542775
     1181.055900       0.555177
     1181.195400       0.567616
     1181.334800       0.580076
     1181.474500       0.592542
     1181.614000       0.604999
     1181.753800       0.617430
     1181.893300       0.629820
     1182.033100       0.642152
     1182.172900       0.654411
     1182.312600       0.666580
     1182.452400       0.678644
     1182.592200       0.690588
     1182.732200       0.702395
     1182.871900       0.714052
     1183.012000       0.725544
     1183.152000       0.736857
     1183.291900       0.747978
     1183.432000       0.758894
     1183.572000       0.769595
     1183.712200       0.780068
     1183.852300       0.790304
     1183.992400       0.800293
     1184.132700       0.810028
     1184.272800       0.819500
     1184.413100       0.828703
     1184.553300       0.837632
     1184.693700       0.846281
     1184.834200       0.854648
     1184.974500       0.862730
     1185.115000       0.870524
     1185.255400       0.878031
     1185.396000       0.885248
     1185.536400       0.892179
     1185.677000       0.898823
     1185.817600       0.905184
     1185.958300       0.911265
     1186.099000       0.917069
     1186.239600       0.922601
     1186.380400       0.927865
     1186.521000       0.932867
     1186.661900       0.937614
     1186.802900       0.942111
     1186.943600       0.946365
     1187.084600       0.950383
     1187.225500       0.954172
     1187.366500       0.957740
     1187.507400       0.961096
     1187.648400       0.964245
     1187.789600       0.967197
     1187.930500       0.969960
     1188.071800       0.972540
     1188.212900       0.974947
     1188.354100       0.977189
     1188.495500       0.979272
     1188.636600       0.981206
     1188.778000       0.982997
     1188.919200       0.984653
     1189.060700       0.986181
     1189.202000       0.987588
     1189.343500       0.988882
     1189.485000       0.990069
     1189.626500       0.991156
     1189.768100       0.992148
     1189.909500       0.993052
     1190.051100       0.993874
     1190.192700       0.994620
     1190.334500       0.995294
     1190.476200       0.995901
     1190.617900       0.996447
     1190.759800       0.996937
     1190.901500       0.997374
     1191.043300       0.997763
     1191.185200       0.998107
     1191.327100       0.998411
     1191.469100       0.998678
     1191.611100       0.998911
     1191.753100       0.999113
     1191.895000       0.999287
     1192.037200       0.999436
     1192.179300       0.999562
     1192.321400       0.999668
     1192.463600       0.999756
     1192.605800       0.999827
     1192.748200       0.999883
     1192.890400       0.999927
     1193.032700       0.999959
     1193.175000       0.999981
     1193.317400       0.999994
     1193.459800       1.000000
     1193.602300       0.999999
     1193.744800       0.999992
     1193.887200       0.999980
     1194.029900       0.999964
     1194.172500       0.999944
     1194.315100       0.999920
     1194.457800       0.999894
     1194.600300       0.999865
     1194.743200       0.999834
     1194.885900       0.999801
     1195.028700       0.999766
     1195.171500       0.999729
     1195.314300       0.999690
     1195.457300       0.999650
     1195.600100       0.999607
     1195.743200       0.999563
     1195.886100       0.999516
     1196.029200       0.999467
     1196.172200       0.999415
     1196.315300       0.999361
     1196.458500       0.999304
     1196.601600       0.999244
     1196.744900       0.999180
     1196.888200       0.999113
     1197.031400       0.999041
     1197.174700       0.998965
     1197.318000       0.998885
     1197.461400       0.998800
     1197.604700       0.998710
     1197.748300       0.998614
     1197.891700       0.998513
     1198.035200       0.998405
     1198.178800       0.998292
     1198.322300       0.998172
     1198.465900       0.998046
     1198.609500       0.997912
     1198.753300       0.997772
     1198.897100       0.997625
     1199.040800       0.997470
     1199.184600       0.997308
     1199.328400       0.997138
     1199.472300       0.996960
     1199.616100       0.996775
     1199.760000       0.996582
     1199.904100       0.996381
     1200.048000       0.996173
     1200.192000       0.995956
     1200.336100       0.995732
     1200.480200       0.995501
     1200.624300       0.995262
     1200.768400       0.995015
     1200.912700       0.994762
     1201.056900       0.994501
     1201.201200       0.994234
     1201.345500       0.993960
     1201.489900       0.993679
     1201.634300       0.993393
     1201.778600       0.993101
     1201.923100       0.992803
     1202.067500       0.992500
     1202.212000       0.992193
     1202.356600       0.991882
     1202.501200       0.991566
     1202.645900       0.991247
     1202.790400       0.990925
     1202.935200       0.990601
     1203.079800       0.990274
     1203.224600       0.989946
     1203.369400       0.989616
     1203.514300       0.989287
     1203.659200       0.988957
     1203.804000       0.988627
     1203.949000       0.988299
     1204.093900       0.987972
     1204.238900       0.987647
     1204.383900       0.987325
     1204.529100       0.987006
     1204.674200       0.986691
     1204.819200       0.986381
     1204.964500       0.986075
     1205.109600       0.985775
     1205.254900       0.985481
     1205.400300       0.985194
     1205.545500       0.984914
     1205.690900       0.984641
     1205.836200       0.984376
     1205.981700       0.984121
     1206.127100       0.983874
     1206.272600       0.983637
     1206.418200       0.983410
     1206.563700       0.983193
     1206.709400       0.982988
     1206.854900       0.982793
     1207.000600       0.982610
     1207.146200       0.982440
     1207.292000       0.982281
     1207.437900       0.982134
     1207.583600       0.982000
     1207.729500       0.981879
     1207.875400       0.981771
     1208.021200       0.981676
     1208.167100       0.981593
     1208.313200       0.981524
     1208.459200       0.981467
     1208.605200       0.981423
     1208.751300       0.981391
     1208.897500       0.981372
     1209.043700       0.981364
     1209.189800       0.981368
     1209.336100       0.981382
     1209.482400       0.981407
     1209.628700       0.981442
     1209.775000       0.981486
     1209.921300       0.981537
     1210.067700       0.981596
     1210.214200       0.981661
     1210.360700       0.981731
     1210.507200       0.981805
     1210.653700       0.981881
     1210.800400       0.981958
     1210.946900       0.982034
     1211.093600       0.982108
     1211.240400       0.982178
     1211.387000       0.982242
     1211.533800       0.982297
     1211.680500       0.982341
     1211.827500       0.982373
     1211.974200       0.982389
     1212.121200       0.982387
     1212.268200       0.982363
     1212.415200       0.982315
     1212.562100       0.982240
     1212.709100       0.982133
     1212.856300       0.981992
     1213.003300       0.981812
     1213.150500       0.981590
     1213.297900       0.981321
     1213.444900       0.981001
     1213.592300       0.980625
     1213.739500       0.980189
     1213.886800       0.979688
     1214.034200       0.979116
     1214.181600       0.978468
     1214.329100       0.977739
     1214.476600       0.976922
     1214.624100       0.976012
     1214.771600       0.975002
     1214.919200       0.973886
     1215.066900       0.972658
     1215.214500       0.971311
     1215.362200       0.969838
     1215.509900       0.968231
     1215.657700       0.966485
     1215.805400       0.964591
     1215.953400       0.962543
     1216.101200       0.960332
     1216.249000       0.957952
     1216.397100       0.955395
     1216.544900       0.952653
     1216.693000       0.949718
     1216.841100       0.946585
     1216.989100       0.943244
     1217.137300       0.939688
     1217.285400       0.935912
     1217.433700       0.931907
     1217.581800       0.927667
     1217.730200       0.923186
     1217.878400       0.918457
     1218.026700       0.913475
     1218.175200       0.908235
     1218.323600       0.902731
     1218.472000       0.896959
     1218.620500       0.890915
     1218.769000       0.884596
     1218.917500       0.878000
     1219.066200       0.871123
     1219.214800       0.863966
     1219.363400       0.856527
     1219.512200       0.848806
     1219.660900       0.840812
     1219.809700       0.832539
     1219.958600       0.823991
     1220.107300       0.815171
     1220.256300       0.806082
     1220.405200       0.796731
     1220.554200       0.787122
     1220.703100       0.777264
     1220.852200       0.767163
     1221.001300       0.756829
     1221.150300       0.746271
     1221.299600       0.735499
     1221.448600       0.724524
     1221.597900       0.713358
     1221.747100       0.702013
     1221.896400       0.690501
     1222.045800       0.678837
     1222.195100       0.667034
     1222.344500       0.655106
     1222.493900       0.643069
     1222.643300       0.630937
     1222.792800       0.618725
     1222.942400       0.606449
     1223.092000       0.594124
     1223.241600       0.581766
     1223.391200       0.569390
     1223.540900       0.557010
     1223.690700       0.544643
     1223.840500       0.532303
     1223.990200       0.520004
     1224.140100       0.507760
     1224.289900       0.495585
     1224.439800       0.483492
     1224.589700       0.471493
     1224.739700       0.459600
     1224.889800       0.447826
     1225.039800       0.436179
     1225.189900       0.424672
     1225.340000       0.413312
     1225.490200       0.402109
