   8  ,metop_02_hirs_08.flt
Number of data points:
584
Wavenumber (cm-1)   Filter response
      869.180000       0.000000
      869.280000       0.004100
      869.380000       0.004120
      869.480000       0.004168
      869.580000       0.004248
      869.680000       0.004360
      869.780000       0.004505
      869.880000       0.004684
      869.980000       0.004896
      870.080000       0.005140
      870.180000       0.005416
      870.280000       0.005721
      870.380000       0.006056
      870.480000       0.006417
      870.580000       0.006805
      870.680000       0.007217
      870.780000       0.007653
      870.880000       0.008110
      870.980000       0.008590
      871.080000       0.009090
      871.180000       0.009610
      871.280000       0.010151
      871.380000       0.010711
      871.480000       0.011290
      871.580000       0.011887
      871.680000       0.012504
      871.780000       0.013140
      871.880000       0.013794
      871.980000       0.014466
      872.080000       0.015159
      872.180000       0.015871
      872.280000       0.016601
      872.380000       0.017349
      872.480000       0.018116
      872.580000       0.018900
      872.680000       0.019702
      872.780000       0.020522
      872.880000       0.021359
      872.980000       0.022215
      873.080000       0.023088
      873.180000       0.023979
      873.280000       0.024890
      873.380000       0.025820
      873.480000       0.026770
      873.580000       0.027741
      873.680000       0.028734
      873.780000       0.029751
      873.880000       0.030794
      873.980000       0.031864
      874.080000       0.032962
      874.180000       0.034090
      874.280000       0.035253
      874.380000       0.036454
      874.480000       0.037696
      874.580000       0.038984
      874.680000       0.040321
      874.780000       0.041712
      874.880000       0.043161
      874.980000       0.044675
      875.080000       0.046259
      875.180000       0.047917
      875.280000       0.049658
      875.380000       0.051487
      875.480000       0.053410
      875.580000       0.054900
      875.680000       0.056998
      875.780000       0.059210
      875.880000       0.061545
      875.980000       0.064011
      876.080000       0.066629
      876.180000       0.069399
      876.280000       0.072325
      876.380000       0.075416
      876.480000       0.078680
      876.580000       0.082125
      876.680000       0.085758
      876.780000       0.089589
      876.880000       0.093625
      876.980000       0.097873
      877.080000       0.102340
      877.180000       0.107040
      877.280000       0.111970
      877.380000       0.117140
      877.480000       0.122550
      877.580000       0.128220
      877.680000       0.134150
      877.780000       0.140340
      877.880000       0.146790
      877.980000       0.153520
      878.080000       0.160500
      878.180000       0.167760
      878.280000       0.175290
      878.380000       0.183100
      878.480000       0.191200
      878.580000       0.199570
      878.680000       0.208220
      878.780000       0.217160
      878.880000       0.226370
      878.980000       0.235850
      879.080000       0.245600
      879.180000       0.255620
      879.280000       0.265900
      879.380000       0.276440
      879.480000       0.287230
      879.580000       0.298250
      879.680000       0.309520
      879.780000       0.321000
      879.880000       0.332700
      879.980000       0.344610
      880.080000       0.356680
      880.180000       0.368930
      880.280000       0.381340
      880.380000       0.393910
      880.480000       0.406620
      880.580000       0.419460
      880.680000       0.432410
      880.780000       0.445470
      880.880000       0.458610
      880.980000       0.471820
      881.080000       0.485090
      881.180000       0.498400
      881.280000       0.511730
      881.380000       0.525060
      881.480000       0.538390
      881.580000       0.551700
      881.680000       0.564960
      881.780000       0.578160
      881.880000       0.591290
      881.980000       0.604330
      882.080000       0.617160
      882.180000       0.629830
      882.280000       0.642370
      882.380000       0.654750
      882.480000       0.666960
      882.580000       0.678990
      882.680000       0.690820
      882.780000       0.702450
      882.880000       0.713860
      882.980000       0.725040
      883.080000       0.735980
      883.180000       0.746670
      883.280000       0.757100
      883.380000       0.767270
      883.480000       0.777150
      883.580000       0.786740
      883.680000       0.796030
      883.780000       0.805040
      883.880000       0.813740
      883.980000       0.822150
      884.080000       0.830490
      884.180000       0.838590
      884.280000       0.846390
      884.380000       0.853890
      884.480000       0.861090
      884.580000       0.867980
      884.680000       0.874590
      884.780000       0.880890
      884.880000       0.886900
      884.980000       0.892630
      885.080000       0.898070
      885.180000       0.903240
      885.280000       0.908140
      885.380000       0.912770
      885.480000       0.917160
      885.580000       0.921290
      885.680000       0.925180
      885.780000       0.928830
      885.880000       0.932260
      885.980000       0.935460
      886.080000       0.938370
      886.180000       0.941060
      886.280000       0.943550
      886.380000       0.945870
      886.480000       0.948010
      886.580000       0.949980
      886.680000       0.951800
      886.780000       0.953470
      886.880000       0.955010
      886.980000       0.956420
      887.080000       0.957710
      887.180000       0.958890
      887.280000       0.959980
      887.380000       0.960980
      887.480000       0.961900
      887.580000       0.962740
      887.680000       0.963520
      887.780000       0.964230
      887.880000       0.964900
      887.980000       0.965510
      888.080000       0.966080
      888.180000       0.966620
      888.280000       0.967130
      888.380000       0.967610
      888.480000       0.968070
      888.580000       0.968510
      888.680000       0.968940
      888.780000       0.969360
      888.880000       0.969770
      888.980000       0.970180
      889.080000       0.970580
      889.180000       0.970990
      889.280000       0.971390
      889.380000       0.971790
      889.480000       0.972190
      889.580000       0.972600
      889.680000       0.973010
      889.780000       0.973420
      889.880000       0.973830
      889.980000       0.974240
      890.080000       0.974560
      890.180000       0.974840
      890.280000       0.975130
      890.380000       0.975410
      890.480000       0.975700
      890.580000       0.975970
      890.680000       0.976250
      890.780000       0.976510
      890.880000       0.976770
      890.980000       0.977020
      891.080000       0.977260
      891.180000       0.977480
      891.280000       0.977710
      891.380000       0.977920
      891.480000       0.978110
      891.580000       0.978290
      891.680000       0.978450
      891.780000       0.978590
      891.880000       0.978720
      891.980000       0.978820
      892.080000       0.979110
      892.180000       0.979420
      892.280000       0.979720
      892.380000       0.979990
      892.480000       0.980250
      892.580000       0.980490
      892.680000       0.980710
      892.780000       0.980910
      892.880000       0.981090
      892.980000       0.981260
      893.080000       0.981410
      893.180000       0.981580
      893.280000       0.981750
      893.380000       0.981910
      893.480000       0.982050
      893.580000       0.982190
      893.680000       0.982310
      893.780000       0.982430
      893.880000       0.982540
      893.980000       0.982640
      894.080000       0.982530
      894.180000       0.982360
      894.280000       0.982180
      894.380000       0.982000
      894.480000       0.981820
      894.580000       0.981650
      894.680000       0.981470
      894.780000       0.981290
      894.880000       0.981120
      894.980000       0.980940
      895.080000       0.980790
      895.180000       0.980670
      895.280000       0.980550
      895.380000       0.980430
      895.480000       0.980310
      895.580000       0.980200
      895.680000       0.980090
      895.780000       0.979990
      895.880000       0.979890
      895.980000       0.979800
      896.080000       0.979710
      896.180000       0.979630
      896.280000       0.979560
      896.380000       0.979480
      896.480000       0.979410
      896.580000       0.979340
      896.680000       0.979270
      896.780000       0.979200
      896.880000       0.979140
      896.980000       0.979080
      897.080000       0.979050
      897.180000       0.979030
      897.280000       0.979010
      897.380000       0.978980
      897.480000       0.978960
      897.580000       0.978940
      897.680000       0.978920
      897.780000       0.978900
      897.880000       0.978870
      897.980000       0.978850
      898.080000       0.978870
      898.180000       0.978890
      898.280000       0.978910
      898.380000       0.978930
      898.480000       0.978960
      898.580000       0.979000
      898.680000       0.979050
      898.780000       0.979100
      898.880000       0.979160
      898.980000       0.979250
      899.080000       0.979350
      899.180000       0.979460
      899.280000       0.979590
      899.380000       0.979730
      899.480000       0.979880
      899.580000       0.980050
      899.680000       0.980240
      899.780000       0.980440
      899.880000       0.980670
      899.980000       0.980910
      900.080000       0.981200
      900.180000       0.981510
      900.280000       0.981840
      900.380000       0.982200
      900.480000       0.982580
      900.580000       0.982980
      900.680000       0.983410
      900.780000       0.983850
      900.880000       0.984320
      900.980000       0.984820
      901.080000       0.985330
      901.180000       0.985860
      901.280000       0.986410
      901.380000       0.986980
      901.480000       0.987560
      901.580000       0.988160
      901.680000       0.988770
      901.780000       0.989390
      901.880000       0.990020
      901.980000       0.990660
      902.080000       0.991300
      902.180000       0.991950
      902.280000       0.992600
      902.380000       0.993250
      902.480000       0.993890
      902.580000       0.994520
      902.680000       0.995140
      902.780000       0.995710
      902.880000       0.996230
      902.980000       0.996720
      903.080000       0.997190
      903.180000       0.997630
      903.280000       0.998040
      903.380000       0.998420
      903.480000       0.998760
      903.580000       0.999070
      903.680000       0.999340
      903.780000       0.999570
      903.880000       0.999750
      903.980000       0.999890
      904.080000       0.999970
      904.180000       1.000000
      904.280000       0.999980
      904.380000       0.999920
      904.480000       0.999810
      904.580000       0.999640
      904.680000       0.999430
      904.780000       0.999130
      904.880000       0.998790
      904.980000       0.998410
      905.080000       0.997980
      905.180000       0.997500
      905.280000       0.997000
      905.380000       0.996450
      905.480000       0.995880
      905.580000       0.995280
      905.680000       0.994670
      905.780000       0.994030
      905.880000       0.993380
      905.980000       0.992710
      906.080000       0.991800
      906.180000       0.990830
      906.280000       0.989860
      906.380000       0.988910
      906.480000       0.987960
      906.580000       0.987050
      906.680000       0.986140
      906.780000       0.985270
      906.880000       0.984430
      906.980000       0.983640
      907.080000       0.982880
      907.180000       0.982180
      907.280000       0.981520
      907.380000       0.980930
      907.480000       0.980390
      907.580000       0.979920
      907.680000       0.979510
      907.780000       0.979170
      907.880000       0.978900
      907.980000       0.978700
      908.080000       0.978620
      908.180000       0.978630
      908.280000       0.978710
      908.380000       0.978850
      908.480000       0.979050
      908.580000       0.979290
      908.680000       0.979570
      908.780000       0.979890
      908.880000       0.980250
      908.980000       0.980660
      909.080000       0.981090
      909.180000       0.981540
      909.280000       0.982010
      909.380000       0.982480
      909.480000       0.982950
      909.580000       0.983390
      909.680000       0.983810
      909.780000       0.984180
      909.880000       0.984500
      909.980000       0.984750
      910.080000       0.985120
      910.180000       0.985430
      910.280000       0.985640
      910.380000       0.985720
      910.480000       0.985650
      910.580000       0.985390
      910.680000       0.984960
      910.780000       0.984340
      910.880000       0.983520
      910.980000       0.982470
      911.080000       0.981200
      911.180000       0.979670
      911.280000       0.977870
      911.380000       0.975800
      911.480000       0.973430
      911.580000       0.970740
      911.680000       0.967740
      911.780000       0.964400
      911.880000       0.960710
      911.980000       0.956660
      912.080000       0.952130
      912.180000       0.947210
      912.280000       0.941890
      912.380000       0.936190
      912.480000       0.930040
      912.580000       0.923480
      912.680000       0.916500
      912.780000       0.909110
      912.880000       0.901310
      912.980000       0.893080
      913.080000       0.884440
      913.180000       0.875380
      913.280000       0.865910
      913.380000       0.856020
      913.480000       0.845730
      913.580000       0.835050
      913.680000       0.823970
      913.780000       0.812510
      913.880000       0.800680
      913.980000       0.788490
      914.080000       0.775970
      914.180000       0.763110
      914.280000       0.749940
      914.380000       0.736450
      914.480000       0.722660
      914.580000       0.708600
      914.680000       0.694300
      914.780000       0.679770
      914.880000       0.665030
      914.980000       0.650100
      915.080000       0.635000
      915.180000       0.619750
      915.280000       0.604390
      915.380000       0.588920
      915.480000       0.573380
      915.580000       0.557780
      915.680000       0.542150
      915.780000       0.526510
      915.880000       0.510890
      915.980000       0.495300
      916.080000       0.479760
      916.180000       0.464300
      916.280000       0.448930
      916.380000       0.433680
      916.480000       0.418580
      916.580000       0.403640
      916.680000       0.388900
      916.780000       0.374360
      916.880000       0.360050
      916.980000       0.345990
      917.080000       0.332180
      917.180000       0.318650
      917.280000       0.305410
      917.380000       0.292480
      917.480000       0.279850
      917.580000       0.267550
      917.680000       0.255590
      917.780000       0.243970
      917.880000       0.232700
      917.980000       0.221790
      918.080000       0.211210
      918.180000       0.200990
      918.280000       0.191150
      918.380000       0.181680
      918.480000       0.172580
      918.580000       0.163870
      918.680000       0.155520
      918.780000       0.147550
      918.880000       0.139940
      918.980000       0.132700
      919.080000       0.125810
      919.180000       0.119280
      919.280000       0.113090
      919.380000       0.107230
      919.480000       0.101700
      919.580000       0.096490
      919.680000       0.091588
      919.780000       0.086984
      919.880000       0.082668
      919.980000       0.078627
      920.080000       0.074859
      920.180000       0.071348
      920.280000       0.068077
      920.380000       0.065035
      920.480000       0.062208
      920.580000       0.059586
      920.680000       0.057154
      920.780000       0.055731
      920.880000       0.053587
      920.980000       0.051597
      921.080000       0.049752
      921.180000       0.048039
      921.280000       0.046447
      921.380000       0.044965
      921.480000       0.043583
      921.580000       0.042291
      921.680000       0.041078
      921.780000       0.039935
      921.880000       0.038854
      921.980000       0.037825
      922.080000       0.036842
      922.180000       0.035897
      922.280000       0.034982
      922.380000       0.034093
      922.480000       0.033224
      922.580000       0.032369
      922.680000       0.031524
      922.780000       0.030686
      922.880000       0.029851
      922.980000       0.029017
      923.080000       0.028182
      923.180000       0.027343
      923.280000       0.026501
      923.380000       0.025653
      923.480000       0.024801
      923.580000       0.023943
      923.680000       0.023082
      923.780000       0.022217
      923.880000       0.021350
      923.980000       0.020482
      924.080000       0.019617
      924.180000       0.018755
      924.280000       0.017898
      924.380000       0.017049
      924.480000       0.016208
      924.580000       0.015380
      924.680000       0.014565
      924.780000       0.013767
      924.880000       0.012987
      924.980000       0.012228
      925.080000       0.011491
      925.180000       0.010779
      925.280000       0.010093
      925.380000       0.009434
      925.480000       0.008803
      925.580000       0.008201
      925.680000       0.007628
      925.780000       0.007084
      925.880000       0.006570
      925.980000       0.006085
      926.080000       0.005628
      926.180000       0.005198
      926.280000       0.004795
      926.380000       0.004419
      926.480000       0.004070
      926.580000       0.003748
      926.680000       0.003454
      926.780000       0.003190
      926.880000       0.002959
      926.980000       0.002764
      927.080000       0.002607
      927.180000       0.002492
      927.280000       0.002421
      927.380000       0.002394
      927.480000       0.000000
