6,   from FY-3C_VIRR_SRF.xlsx (col T) Dr. Prof. SUN Ling (April 2019)
Number of data points:
211
Wavenumber (cm-1)   Filter response
     6811.989100       0.000069
     6816.632600       0.000074
     6821.282400       0.000079
     6825.938600       0.000082
     6830.601100       0.000131
     6835.270000       0.000183
     6839.945300       0.000011
     6844.627000       0.000165
     6849.315100       0.000151
     6854.009600       0.000173
     6858.710600       0.000094
     6863.418000       0.000098
     6868.131900       0.000061
     6872.852200       0.000010
     6877.579100       0.000084
     6882.312500       0.000145
     6887.052300       0.000149
     6891.798800       0.000153
     6896.551700       0.000036
     6901.311200       0.000047
     6906.077300       0.000102
     6910.850000       0.000151
     6915.629300       0.000161
     6920.415200       0.000044
     6925.207800       0.000199
     6930.006900       0.000113
     6934.812800       0.000078
     6939.625300       0.000092
     6944.444400       0.000079
     6949.270300       0.000184
     6954.102900       0.000141
     6958.942200       0.000025
     6963.788300       0.000091
     6968.641100       0.000164
     6973.500700       0.000112
     6978.367100       0.000079
     6983.240200       0.000063
     6988.120200       0.000187
     6993.007000       0.000136
     6997.900600       0.000137
     7002.801100       0.000126
     7007.708500       0.000174
     7012.622700       0.000124
     7017.543900       0.000091
     7022.471900       0.000113
     7027.406900       0.000024
     7032.348800       0.000180
     7037.297700       0.000043
     7042.253500       0.003147
     7047.216300       0.008996
     7052.186200       0.013470
     7057.163000       0.017890
     7062.146900       0.026100
     7067.137800       0.036860
     7072.135800       0.046790
     7077.140800       0.055240
     7082.153000       0.068450
     7087.172200       0.086610
     7092.198600       0.099550
     7097.232100       0.118900
     7102.272700       0.144200
     7107.320500       0.167000
     7112.375500       0.191600
     7117.437700       0.228100
     7122.507100       0.261200
     7127.583700       0.305000
     7132.667600       0.341000
     7137.758700       0.386900
     7142.857100       0.436400
     7147.962800       0.492200
     7153.075800       0.545900
     7158.196100       0.610900
     7163.323800       0.678300
     7168.458800       0.754000
     7173.601100       0.815500
     7178.750900       0.868600
     7183.908000       0.912200
     7189.072600       0.941200
     7194.244600       0.960100
     7199.424000       0.959300
     7204.611000       0.940100
     7209.805300       0.924300
     7215.007200       0.906400
     7220.216600       0.890600
     7225.433500       0.889800
     7230.658000       0.897600
     7235.890000       0.928800
     7241.129600       0.956200
     7246.376800       0.986200
     7251.631600       1.000000
     7256.894000       0.984600
     7262.164100       0.962600
     7267.441900       0.943200
     7272.727300       0.911100
     7278.020400       0.887500
     7283.321200       0.870600
     7288.629700       0.855600
     7293.946000       0.848600
     7299.270100       0.847800
     7304.601900       0.841400
     7309.941500       0.830900
     7315.289000       0.815500
     7320.644200       0.818400
     7326.007300       0.820200
     7331.378300       0.826600
     7336.757200       0.848000
     7342.143900       0.866700
     7347.538600       0.875400
     7352.941200       0.888900
     7358.351700       0.894100
     7363.770300       0.895900
     7369.196800       0.901300
     7374.631300       0.909900
     7380.073800       0.919600
     7385.524400       0.931700
     7390.983000       0.928800
     7396.449700       0.938300
     7401.924500       0.938700
     7407.407400       0.944100
     7412.898400       0.952500
     7418.397600       0.964800
     7423.905000       0.967700
     7429.420500       0.979200
     7434.944200       0.974700
     7440.476200       0.979200
     7446.016400       0.980500
     7451.564800       0.972900
     7457.121600       0.972900
     7462.686600       0.969800
     7468.259900       0.958700
     7473.841600       0.947100
     7479.431600       0.912800
     7485.029900       0.881700
     7490.636700       0.852500
     7496.251900       0.811200
     7501.875500       0.771900
     7507.507500       0.722100
     7513.148000       0.669500
     7518.797000       0.619100
     7524.454500       0.553900
     7530.120500       0.495100
     7535.795000       0.444100
     7541.478100       0.388500
     7547.169800       0.339800
     7552.870100       0.296800
     7558.579000       0.254400
     7564.296500       0.220100
     7570.022700       0.189700
     7575.757600       0.158300
     7581.501100       0.136400
     7587.253400       0.113600
     7593.014400       0.098090
     7598.784200       0.079490
     7604.562700       0.066640
     7610.350100       0.055310
     7616.146200       0.047960
     7621.951200       0.037740
     7627.765100       0.029120
     7633.587800       0.021120
     7639.419400       0.017570
     7645.259900       0.011120
     7651.109400       0.002752
     7656.967800       0.001088
     7662.835200       0.000075
     7668.711700       0.000153
     7674.597100       0.000128
     7680.491600       0.000024
     7686.395100       0.000156
     7692.307700       0.000141
     7698.229400       0.000109
     7704.160200       0.000153
     7710.100200       0.000181
     7716.049400       0.000044
     7722.007700       0.000122
     7727.975300       0.000091
     7733.952000       0.000062
     7739.938100       0.000158
     7745.933400       0.000107
     7751.938000       0.000129
     7757.951900       0.000076
     7763.975200       0.000097
     7770.007800       0.000127
     7776.049800       0.000167
     7782.101200       0.000132
     7788.162000       0.000076
     7794.232300       0.000133
     7800.312000       0.000156
     7806.401200       0.000057
     7812.500000       0.000103
     7818.608300       0.000083
     7824.726100       0.000037
     7830.853600       0.000122
     7836.990600       0.000127
     7843.137300       0.000050
     7849.293600       0.000029
     7855.459500       0.000037
     7861.635200       0.000033
     7867.820600       0.000084
     7874.015700       0.000180
     7880.220600       0.000123
     7886.435300       0.000166
     7892.659800       0.000117
     7898.894200       0.000016
     7905.138300       0.000136
     7911.392400       0.000043
     7917.656400       0.000052
     7923.930300       0.000008
     7930.214100       0.000047
     7936.507900       0.000110
     7942.811800       0.000044
     7949.125600       0.000194
