 4    , ATSR modified 12 micron filter. Detector temperature 85K
Number of data points:
4096
Wavenumber (cm-1)   Filter response
      760.000000       0.000000
      760.040000       0.000000
      760.080000       0.000000
      760.120000       0.000000
      760.160000       0.000000
      760.200000       0.000000
      760.240000       0.000000
      760.280000       0.000000
      760.320000       0.000000
      760.360000       0.000000
      760.400000       0.000000
      760.440000       0.000000
      760.480000       0.000000
      760.520000       0.000000
      760.560000       0.000000
      760.600000       0.000000
      760.640000       0.000000
      760.680000       0.000000
      760.720000       0.000000
      760.760000       0.000000
      760.800000       0.000000
      760.840000       0.000000
      760.880000       0.000000
      760.920000       0.000000
      760.960000       0.000000
      761.000000       0.000000
      761.040000       0.000000
      761.080000       0.000000
      761.120000       0.000000
      761.160000       0.000000
      761.200000       0.000000
      761.240000       0.000000
      761.280000       0.000000
      761.320000       0.000000
      761.360000       0.000000
      761.400000       0.000000
      761.440000       0.000000
      761.480000       0.000000
      761.520000       0.000000
      761.560000       0.000000
      761.600000       0.000000
      761.640000       0.000000
      761.680000       0.000000
      761.720000       0.000000
      761.760000       0.000000
      761.800000       0.000000
      761.840000       0.000000
      761.880000       0.000000
      761.920000       0.000000
      761.960000       0.000000
      762.000000       0.000000
      762.040000       0.000000
      762.080000       0.000000
      762.120000       0.000000
      762.160000       0.000000
      762.200000       0.000000
      762.240000       0.000000
      762.280000       0.000000
      762.320000       0.000000
      762.360000       0.000000
      762.400000       0.000000
      762.440000       0.000000
      762.480000       0.000000
      762.520000       0.000000
      762.560000       0.000000
      762.600000       0.000000
      762.640000       0.000000
      762.680000       0.000000
      762.720000       0.000000
      762.760000       0.000000
      762.800000       0.000000
      762.840000       0.000000
      762.880000       0.000000
      762.920000       0.000000
      762.960000       0.000000
      763.000000       0.000000
      763.040000       0.000000
      763.080000       0.000000
      763.120000       0.000000
      763.160000       0.000026
      763.200000       0.000058
      763.240000       0.000091
      763.280000       0.000125
      763.320000       0.000160
      763.360000       0.000196
      763.400000       0.000233
      763.440000       0.000270
      763.480000       0.000309
      763.520000       0.000349
      763.560000       0.000390
      763.600000       0.000432
      763.640000       0.000475
      763.680000       0.000519
      763.720000       0.000564
      763.760000       0.000610
      763.800000       0.000657
      763.840000       0.000705
      763.880000       0.000754
      763.920000       0.000804
      763.960000       0.000855
      764.000000       0.000906
      764.040000       0.000959
      764.080000       0.001013
      764.120000       0.001067
      764.160000       0.001123
      764.200000       0.001179
      764.240000       0.001237
      764.280000       0.001295
      764.320000       0.001354
      764.360000       0.001414
      764.400000       0.001475
      764.440000       0.001537
      764.480000       0.001599
      764.520000       0.001663
      764.560000       0.001727
      764.600000       0.001792
      764.640000       0.001858
      764.680000       0.001925
      764.720000       0.001992
      764.760000       0.002060
      764.800000       0.002129
      764.840000       0.002199
      764.880000       0.002269
      764.920000       0.002340
      764.960000       0.002412
      765.000000       0.002485
      765.040000       0.002558
      765.080000       0.002632
      765.120000       0.002706
      765.160000       0.002781
      765.200000       0.002857
      765.240000       0.002933
      765.280000       0.003010
      765.320000       0.003087
      765.360000       0.003165
      765.400000       0.003243
      765.440000       0.003322
      765.480000       0.003401
      765.520000       0.003481
      765.560000       0.003561
      765.600000       0.003642
      765.640000       0.003723
      765.680000       0.003804
      765.720000       0.003886
      765.760000       0.003968
      765.800000       0.004050
      765.840000       0.004133
      765.880000       0.004215
      765.920000       0.004298
      765.960000       0.004367
      766.000000       0.004431
      766.040000       0.004494
      766.080000       0.004557
      766.120000       0.004620
      766.160000       0.004683
      766.200000       0.004746
      766.240000       0.004808
      766.280000       0.004871
      766.320000       0.004934
      766.360000       0.004996
      766.400000       0.005059
      766.440000       0.005121
      766.480000       0.005184
      766.520000       0.005246
      766.560000       0.005308
      766.600000       0.005371
      766.640000       0.005433
      766.680000       0.005495
      766.720000       0.005557
      766.760000       0.005620
      766.800000       0.005682
      766.840000       0.005744
      766.880000       0.005807
      766.920000       0.005869
      766.960000       0.005931
      767.000000       0.005994
      767.040000       0.006056
      767.080000       0.006119
      767.120000       0.006181
      767.160000       0.006244
      767.200000       0.006307
      767.240000       0.006370
      767.280000       0.006433
      767.320000       0.006496
      767.360000       0.006559
      767.400000       0.006622
      767.440000       0.006686
      767.480000       0.006750
      767.520000       0.006814
      767.560000       0.006878
      767.600000       0.006942
      767.640000       0.007007
      767.680000       0.007072
      767.720000       0.007137
      767.760000       0.007203
      767.800000       0.007268
      767.840000       0.007335
      767.880000       0.007401
      767.920000       0.007468
      767.960000       0.007535
      768.000000       0.007602
      768.040000       0.007670
      768.080000       0.007739
      768.120000       0.007807
      768.160000       0.007877
      768.200000       0.007946
      768.240000       0.008016
      768.280000       0.008087
      768.320000       0.008159
      768.360000       0.008230
      768.400000       0.008303
      768.440000       0.008376
      768.480000       0.008449
      768.520000       0.008524
      768.560000       0.008599
      768.600000       0.008674
      768.640000       0.008751
      768.680000       0.008828
      768.720000       0.008905
      768.760000       0.008985
      768.800000       0.009091
      768.840000       0.009198
      768.880000       0.009306
      768.920000       0.009415
      768.960000       0.009525
      769.000000       0.009636
      769.040000       0.009749
      769.080000       0.009862
      769.120000       0.009977
      769.160000       0.010093
      769.200000       0.010210
      769.240000       0.010327
      769.280000       0.010446
      769.320000       0.010565
      769.360000       0.010684
      769.400000       0.010804
      769.440000       0.010925
      769.480000       0.011047
      769.520000       0.011169
      769.560000       0.011293
      769.600000       0.011418
      769.640000       0.011543
      769.680000       0.011669
      769.720000       0.011796
      769.760000       0.011924
      769.800000       0.012053
      769.840000       0.012182
      769.880000       0.012313
      769.920000       0.012443
      769.960000       0.012575
      770.000000       0.012707
      770.040000       0.012840
      770.080000       0.012974
      770.120000       0.013108
      770.160000       0.013243
      770.200000       0.013378
      770.240000       0.013514
      770.280000       0.013650
      770.320000       0.013787
      770.360000       0.013924
      770.400000       0.014062
      770.440000       0.014200
      770.480000       0.014339
      770.520000       0.014478
      770.560000       0.014616
      770.600000       0.014756
      770.640000       0.014896
      770.680000       0.015036
      770.720000       0.015176
      770.760000       0.015316
      770.800000       0.015456
      770.840000       0.015596
      770.880000       0.015737
      770.920000       0.015877
      770.960000       0.016018
      771.000000       0.016158
      771.040000       0.016298
      771.080000       0.016439
      771.120000       0.016578
      771.160000       0.016718
      771.200000       0.016858
      771.240000       0.016997
      771.280000       0.017136
      771.320000       0.017275
      771.360000       0.017413
      771.400000       0.017551
      771.440000       0.017688
      771.480000       0.017825
      771.520000       0.017961
      771.560000       0.018097
      771.600000       0.018232
      771.640000       0.018338
      771.680000       0.018439
      771.720000       0.018538
      771.760000       0.018637
      771.800000       0.018735
      771.840000       0.018831
      771.880000       0.018926
      771.920000       0.019020
      771.960000       0.019113
      772.000000       0.019205
      772.040000       0.019296
      772.080000       0.019385
      772.120000       0.019473
      772.160000       0.019560
      772.200000       0.019646
      772.240000       0.019731
      772.280000       0.019815
      772.320000       0.019897
      772.360000       0.019979
      772.400000       0.020059
      772.440000       0.020138
      772.480000       0.020217
      772.520000       0.020293
      772.560000       0.020369
      772.600000       0.020444
      772.640000       0.020518
      772.680000       0.020590
      772.720000       0.020662
      772.760000       0.020732
      772.800000       0.020802
      772.840000       0.020870
      772.880000       0.020937
      772.920000       0.021004
      772.960000       0.021069
      773.000000       0.021133
      773.040000       0.021197
      773.080000       0.021259
      773.120000       0.021320
      773.160000       0.021381
      773.200000       0.021441
      773.240000       0.021499
      773.280000       0.021557
      773.320000       0.021614
      773.360000       0.021670
      773.400000       0.021725
      773.440000       0.021779
      773.480000       0.021833
      773.520000       0.021886
      773.560000       0.021938
      773.600000       0.021989
      773.640000       0.022040
      773.680000       0.022089
      773.720000       0.022138
      773.760000       0.022187
      773.800000       0.022235
      773.840000       0.022282
      773.880000       0.022329
      773.920000       0.022375
      773.960000       0.022420
      774.000000       0.022466
      774.040000       0.022510
      774.080000       0.022554
      774.120000       0.022598
      774.160000       0.022641
      774.200000       0.022684
      774.240000       0.022727
      774.280000       0.022769
      774.320000       0.022811
      774.360000       0.022852
      774.400000       0.022894
      774.440000       0.022935
      774.480000       0.022980
      774.520000       0.023049
      774.560000       0.023118
      774.600000       0.023187
      774.640000       0.023257
      774.680000       0.023327
      774.720000       0.023396
      774.760000       0.023467
      774.800000       0.023537
      774.840000       0.023608
      774.880000       0.023678
      774.920000       0.023749
      774.960000       0.023820
      775.000000       0.023892
      775.040000       0.023963
      775.080000       0.024035
      775.120000       0.024107
      775.160000       0.024179
      775.200000       0.024251
      775.240000       0.024324
      775.280000       0.024399
      775.320000       0.024476
      775.360000       0.024553
      775.400000       0.024631
      775.440000       0.024708
      775.480000       0.024786
      775.520000       0.024864
      775.560000       0.024942
      775.600000       0.025020
      775.640000       0.025098
      775.680000       0.025176
      775.720000       0.025254
      775.760000       0.025332
      775.800000       0.025410
      775.840000       0.025489
      775.880000       0.025567
      775.920000       0.025646
      775.960000       0.025724
      776.000000       0.025803
      776.040000       0.025881
      776.080000       0.025959
      776.120000       0.026038
      776.160000       0.026116
      776.200000       0.026194
      776.240000       0.026272
      776.280000       0.026350
      776.320000       0.026427
      776.360000       0.026505
      776.400000       0.026582
      776.440000       0.026659
      776.480000       0.026736
      776.520000       0.026814
      776.560000       0.026890
      776.600000       0.026966
      776.640000       0.027042
      776.680000       0.027118
      776.720000       0.027193
      776.760000       0.027268
      776.800000       0.027343
      776.840000       0.027417
      776.880000       0.027491
      776.920000       0.027564
      776.960000       0.027637
      777.000000       0.027710
      777.040000       0.027782
      777.080000       0.027853
      777.120000       0.027924
      777.160000       0.027994
      777.200000       0.028064
      777.240000       0.028133
      777.280000       0.028201
      777.320000       0.028269
      777.360000       0.028336
      777.400000       0.028377
      777.440000       0.028416
      777.480000       0.028453
      777.520000       0.028489
      777.560000       0.028523
      777.600000       0.028557
      777.640000       0.028590
      777.680000       0.028622
      777.720000       0.028652
      777.760000       0.028682
      777.800000       0.028710
      777.840000       0.028738
      777.880000       0.028764
      777.920000       0.028790
      777.960000       0.028814
      778.000000       0.028837
      778.040000       0.028860
      778.080000       0.028882
      778.120000       0.028902
      778.160000       0.028922
      778.200000       0.028941
      778.240000       0.028958
      778.280000       0.028975
      778.320000       0.028991
      778.360000       0.029007
      778.400000       0.029021
      778.440000       0.029035
      778.480000       0.029047
      778.520000       0.029059
      778.560000       0.029070
      778.600000       0.029081
      778.640000       0.029090
      778.680000       0.029100
      778.720000       0.029108
      778.760000       0.029115
      778.800000       0.029122
      778.840000       0.029129
      778.880000       0.029134
      778.920000       0.029139
      778.960000       0.029144
      779.000000       0.029148
      779.040000       0.029151
      779.080000       0.029154
      779.120000       0.029156
      779.160000       0.029159
      779.200000       0.029160
      779.240000       0.029161
      779.280000       0.029162
      779.320000       0.029163
      779.360000       0.029163
      779.400000       0.029163
      779.440000       0.029162
      779.480000       0.029161
      779.520000       0.029161
      779.560000       0.029160
      779.600000       0.029159
      779.640000       0.029157
      779.680000       0.029156
      779.720000       0.029154
      779.760000       0.029153
      779.800000       0.029152
      779.840000       0.029150
      779.880000       0.029149
      779.920000       0.029148
      779.960000       0.029147
      780.000000       0.029146
      780.040000       0.029145
      780.080000       0.029145
      780.120000       0.029145
      780.160000       0.029145
      780.200000       0.029146
      780.240000       0.029147
      780.280000       0.029151
      780.320000       0.029174
      780.360000       0.029198
      780.400000       0.029223
      780.440000       0.029248
      780.480000       0.029274
      780.520000       0.029302
      780.560000       0.029330
      780.600000       0.029358
      780.640000       0.029388
      780.680000       0.029419
      780.720000       0.029450
      780.760000       0.029483
      780.800000       0.029516
      780.840000       0.029550
      780.880000       0.029586
      780.920000       0.029622
      780.960000       0.029659
      781.000000       0.029697
      781.040000       0.029737
      781.080000       0.029777
      781.120000       0.029818
      781.160000       0.029861
      781.200000       0.029904
      781.240000       0.029948
      781.280000       0.029994
      781.320000       0.030041
      781.360000       0.030088
      781.400000       0.030135
      781.440000       0.030183
      781.480000       0.030232
      781.520000       0.030282
      781.560000       0.030332
      781.600000       0.030385
      781.640000       0.030438
      781.680000       0.030492
      781.720000       0.030548
      781.760000       0.030605
      781.800000       0.030663
      781.840000       0.030722
      781.880000       0.030782
      781.920000       0.030844
      781.960000       0.030907
      782.000000       0.030971
      782.040000       0.031036
      782.080000       0.031103
      782.120000       0.031171
      782.160000       0.031240
      782.200000       0.031310
      782.240000       0.031382
      782.280000       0.031455
      782.320000       0.031529
      782.360000       0.031605
      782.400000       0.031682
      782.440000       0.031760
      782.480000       0.031840
      782.520000       0.031921
      782.560000       0.032003
      782.600000       0.032086
      782.640000       0.032171
      782.680000       0.032258
      782.720000       0.032345
      782.760000       0.032434
      782.800000       0.032524
      782.840000       0.032616
      782.880000       0.032709
      782.920000       0.032803
      782.960000       0.032899
      783.000000       0.032996
      783.040000       0.033095
      783.080000       0.033195
      783.120000       0.033296
      783.160000       0.033399
      783.200000       0.033503
      783.240000       0.033610
      783.280000       0.033719
      783.320000       0.033830
      783.360000       0.033942
      783.400000       0.034055
      783.440000       0.034170
      783.480000       0.034286
      783.520000       0.034404
      783.560000       0.034523
      783.600000       0.034643
      783.640000       0.034765
      783.680000       0.034889
      783.720000       0.035013
      783.760000       0.035140
      783.800000       0.035267
      783.840000       0.035396
      783.880000       0.035527
      783.920000       0.035658
      783.960000       0.035791
      784.000000       0.035926
      784.040000       0.036062
      784.080000       0.036199
      784.120000       0.036338
      784.160000       0.036478
      784.200000       0.036619
      784.240000       0.036762
      784.280000       0.036906
      784.320000       0.037052
      784.360000       0.037199
      784.400000       0.037347
      784.440000       0.037496
      784.480000       0.037647
      784.520000       0.037799
      784.560000       0.037953
      784.600000       0.038108
      784.640000       0.038263
      784.680000       0.038421
      784.720000       0.038580
      784.760000       0.038739
