          15  , Jan 12th 2012 http://fy3.satellite.cma.gov.cn/ArssEn/Download/FY3A_calibration_info_params.rar
Number of data points:
194
Wavenumber (cm-1)   Filter response
     2104.377000       0.000211
     2105.263000       0.000550
     2106.150000       0.000130
     2107.038000       0.000034
     2107.926000       0.000554
     2108.815000       0.000445
     2109.705000       0.000635
     2110.595000       0.000353
     2111.487000       0.000224
     2112.378000       0.000442
     2113.271000       0.000442
     2114.165000       0.000419
     2115.059000       0.000546
     2115.954000       0.000638
     2116.850000       0.001342
     2117.747000       0.000639
     2118.644000       0.000390
     2119.542000       0.000137
     2120.441000       0.000256
     2121.341000       0.000012
     2122.241000       0.000303
     2123.142000       0.000823
     2124.044000       0.000628
     2124.947000       0.000839
     2125.850000       0.000693
     2126.754000       0.000618
     2127.660000       0.000299
     2128.565000       0.001052
     2129.472000       0.001454
     2130.379000       0.000623
     2131.287000       0.000901
     2132.196000       0.000788
     2133.106000       0.000770
     2134.016000       0.000576
     2134.927000       0.000930
     2135.839000       0.001033
     2136.752000       0.000639
     2137.666000       0.000537
     2138.580000       0.001128
     2139.496000       0.001357
     2140.411000       0.000863
     2141.328000       0.001297
     2142.245000       0.000605
     2143.163000       0.000389
     2144.082000       0.001458
     2145.002000       0.001472
     2145.923000       0.001251
     2146.844000       0.001581
     2147.766000       0.001028
     2148.689000       0.001351
     2149.613000       0.001272
     2150.538000       0.001018
     2151.463000       0.001652
     2152.389000       0.001558
     2153.316000       0.002357
     2154.244000       0.002520
     2155.172000       0.001671
     2156.102000       0.001912
     2157.032000       0.002421
     2157.963000       0.002833
     2158.895000       0.002461
     2159.827000       0.002881
     2160.761000       0.003087
     2161.695000       0.002747
     2162.630000       0.002877
     2163.565000       0.003228
     2164.502000       0.004223
     2165.439000       0.004415
     2166.378000       0.004928
     2167.317000       0.005115
     2168.257000       0.005804
     2169.198000       0.006480
     2170.139000       0.006984
     2171.081000       0.006882
     2172.024000       0.007583
     2172.968000       0.008584
     2173.913000       0.009218
     2174.859000       0.010402
     2175.805000       0.011293
     2176.753000       0.012194
     2177.700000       0.014278
     2178.649000       0.016114
     2179.599000       0.018476
     2180.550000       0.019949
     2181.501000       0.024142
     2182.453000       0.026040
     2183.406000       0.030259
     2184.360000       0.035111
     2185.315000       0.041184
     2186.270000       0.045922
     2187.227000       0.053005
     2188.184000       0.061893
     2189.142000       0.072617
     2190.101000       0.085277
     2191.060000       0.099591
     2192.021000       0.117818
     2192.982000       0.140371
     2193.945000       0.168158
     2194.908000       0.199964
     2195.872000       0.239014
     2196.836000       0.284328
     2197.802000       0.336751
     2198.769000       0.398165
     2199.736000       0.463540
     2200.704000       0.535652
     2201.673000       0.608177
     2202.643000       0.679382
     2203.614000       0.753567
     2204.586000       0.812274
     2205.558000       0.861300
     2206.531000       0.900499
     2207.505000       0.930665
     2208.481000       0.949829
     2209.457000       0.964302
     2210.433000       0.975173
     2211.411000       0.980656
     2212.389000       0.985829
     2213.369000       0.998651
     2214.349000       1.000000
     2215.330000       0.995050
     2216.312000       0.984583
     2217.295000       0.964213
     2218.279000       0.932092
     2219.263000       0.887736
     2220.249000       0.831154
     2221.235000       0.764723
     2222.222000       0.691487
     2223.210000       0.617969
     2224.199000       0.540819
     2225.189000       0.468495
     2226.180000       0.400556
     2227.172000       0.341502
     2228.164000       0.289523
     2229.157000       0.245020
     2230.152000       0.207521
     2231.147000       0.175584
     2232.143000       0.149598
     2233.140000       0.127935
     2234.138000       0.108962
     2235.136000       0.092304
     2236.136000       0.078899
     2237.136000       0.067451
     2238.138000       0.059604
     2239.140000       0.050690
     2240.143000       0.044254
     2241.147000       0.039279
     2242.152000       0.034329
     2243.158000       0.029309
     2244.165000       0.025848
     2245.173000       0.023315
     2246.181000       0.020195
     2247.191000       0.018710
     2248.201000       0.016620
     2249.213000       0.015128
     2250.225000       0.013827
     2251.238000       0.011643
     2252.252000       0.010880
     2253.267000       0.010497
     2254.283000       0.009307
     2255.300000       0.008343
     2256.318000       0.008374
     2257.336000       0.006985
     2258.356000       0.006931
     2259.376000       0.005442
     2260.398000       0.005112
     2261.420000       0.005139
     2262.443000       0.006213
     2263.468000       0.003402
     2264.493000       0.003039
     2265.519000       0.002552
     2266.546000       0.003565
     2267.574000       0.004630
     2268.603000       0.002707
     2269.632000       0.002163
     2270.663000       0.001980
     2271.695000       0.001359
     2272.727000       0.003437
     2273.761000       0.001781
     2274.795000       0.001155
     2275.831000       0.001420
     2276.867000       0.002286
     2277.904000       0.001616
     2278.943000       0.002054
     2279.982000       0.001734
     2281.022000       0.002052
     2282.063000       0.001732
     2283.105000       0.001482
     2284.148000       0.000571
     2285.192000       0.001520
     2286.237000       0.001691
     2287.283000       0.001727
     2288.330000       0.001048
     2289.377000       0.001597
     2290.426000       0.000965
