 7    ,ATSR-2 Flight Model FPA 0.555um
Number of data points:
121
Wavenumber (cm-1)   Filter response
    17094.017100       0.000020
    17108.639900       0.000010
    17123.287700       0.000040
    17137.960600       0.000010
    17152.658700       0.000040
    17167.382000       0.000010
    17182.130600       0.000010
    17196.904600       0.000110
    17211.704000       0.000040
    17226.528900       0.000060
    17241.379300       0.000070
    17256.255400       0.000110
    17271.157200       0.000130
    17286.084700       0.000110
    17301.038100       0.000130
    17316.017300       0.000150
    17331.022500       0.000210
    17346.053800       0.000250
    17361.111100       0.000300
    17376.194600       0.000380
    17391.304300       0.000410
    17406.440400       0.000490
    17421.602800       0.000630
    17436.791600       0.000690
    17452.007000       0.000770
    17467.248900       0.000900
    17482.517500       0.001340
    17497.812800       0.002460
    17513.134900       0.004170
    17528.483800       0.006260
    17543.859600       0.009450
    17559.262500       0.014590
    17574.692400       0.020850
    17590.149500       0.032590
    17605.633800       0.051660
    17621.145400       0.077040
    17636.684300       0.122390
    17652.250700       0.191550
    17667.844500       0.266400
    17683.466000       0.370860
    17699.115000       0.480410
    17714.791900       0.570660
    17730.496500       0.665760
    17746.228900       0.755180
    17761.989300       0.817160
    17777.777800       0.885190
    17793.594300       0.933980
    17809.439000       0.969630
    17825.311900       0.988590
    17841.213200       1.000000
    17857.142900       0.995290
    17873.101000       0.990310
    17889.087700       0.974630
    17905.103000       0.969310
    17921.147000       0.955460
    17937.219700       0.950700
    17953.321400       0.942480
    17969.451900       0.938600
    17985.611500       0.924350
    18001.800200       0.915720
    18018.018000       0.892860
    18034.265100       0.872300
    18050.541500       0.849150
    18066.847300       0.829820
    18083.182600       0.807220
    18099.547500       0.798060
    18115.942000       0.782430
    18132.366300       0.768530
    18148.820300       0.741440
    18165.304300       0.698620
    18181.818200       0.658630
    18198.362100       0.682560
    18214.936200       0.763290
    18231.540600       0.845620
    18248.175200       0.874010
    18264.840200       0.877920
    18281.535600       0.850110
    18298.261700       0.825160
    18315.018300       0.785180
    18331.805700       0.751430
    18348.623900       0.716800
    18365.472900       0.671310
    18382.352900       0.597310
    18399.264000       0.518830
    18416.206300       0.402230
    18433.179700       0.287980
    18450.184500       0.205560
    18467.220700       0.133460
    18484.288400       0.083170
    18501.387600       0.056320
    18518.518500       0.035630
    18535.681200       0.022900
    18552.875700       0.016120
    18570.102100       0.010950
    18587.360600       0.007480
    18604.651200       0.005530
    18621.973900       0.003900
    18639.329000       0.002820
    18656.716400       0.002080
    18674.136300       0.001560
    18691.588800       0.001150
    18709.073900       0.000870
    18726.591800       0.000600
    18744.142500       0.000400
    18761.726100       0.000310
    18779.342700       0.000230
    18796.992500       0.000130
    18814.675400       0.000140
    18832.391700       0.000010
    18850.141400       0.000010
    18867.924500       0.000270
    18885.741300       0.000310
    18903.591700       0.000310
    18921.475900       0.000310
    18939.393900       0.000340
    18957.346000       0.000310
    18975.332100       0.000380
    18993.352300       0.000350
    19011.406800       0.000320
    19029.495700       0.000290
    19047.619000       0.000050
