02 , goes_11_imager_03.flt
Number of data points:
1560
Wavenumber (cm-1)   Filter response
     1405.000000       0.016040
     1405.100000       0.016380
     1405.200000       0.016730
     1405.300000       0.017100
     1405.400000       0.017480
     1405.500000       0.017860
     1405.600000       0.018250
     1405.700000       0.018650
     1405.800000       0.019060
     1405.900000       0.019480
     1406.000000       0.019910
     1406.100000       0.020340
     1406.200000       0.020780
     1406.300000       0.021230
     1406.400000       0.021680
     1406.500000       0.022150
     1406.600000       0.022620
     1406.700000       0.023100
     1406.800000       0.023590
     1406.900000       0.024080
     1407.000000       0.024590
     1407.100000       0.025100
     1407.200000       0.025620
     1407.300000       0.026150
     1407.400000       0.026680
     1407.500000       0.027230
     1407.600000       0.027780
     1407.700000       0.028350
     1407.800000       0.028920
     1407.900000       0.029510
     1408.000000       0.030100
     1408.100000       0.030700
     1408.200000       0.031320
     1408.300000       0.031940
     1408.400000       0.032580
     1408.500000       0.033220
     1408.600000       0.033880
     1408.700000       0.034550
     1408.800000       0.035230
     1408.900000       0.035930
     1409.000000       0.036640
     1409.100000       0.037360
     1409.200000       0.038090
     1409.300000       0.038840
     1409.400000       0.039610
     1409.500000       0.040390
     1409.600000       0.041190
     1409.700000       0.042000
     1409.800000       0.042840
     1409.900000       0.043690
     1410.000000       0.044560
     1410.100000       0.045440
     1410.200000       0.046350
     1410.300000       0.047280
     1410.400000       0.048230
     1410.500000       0.049200
     1410.600000       0.050200
     1410.700000       0.051220
     1410.800000       0.052270
     1410.900000       0.053350
     1411.000000       0.054450
     1411.100000       0.055570
     1411.200000       0.056730
     1411.300000       0.057920
     1411.400000       0.059140
     1411.500000       0.060390
     1411.600000       0.061680
     1411.700000       0.063000
     1411.800000       0.064360
     1411.900000       0.065750
     1412.000000       0.067190
     1412.100000       0.068650
     1412.200000       0.070160
     1412.300000       0.071710
     1412.400000       0.073300
     1412.500000       0.074940
     1412.600000       0.076620
     1412.700000       0.078350
     1412.800000       0.080130
     1412.900000       0.081970
     1413.000000       0.083850
     1413.100000       0.085800
     1413.200000       0.087800
     1413.300000       0.089880
     1413.400000       0.092020
     1413.500000       0.094230
     1413.600000       0.096530
     1413.700000       0.098910
     1413.800000       0.101370
     1413.900000       0.103910
     1414.000000       0.106540
     1414.100000       0.109260
     1414.200000       0.112070
     1414.300000       0.114980
     1414.400000       0.117990
     1414.500000       0.121110
     1414.600000       0.124350
     1414.700000       0.127700
     1414.800000       0.131160
     1414.900000       0.134710
     1415.000000       0.138360
     1415.100000       0.142090
     1415.200000       0.145910
     1415.300000       0.149820
     1415.400000       0.153810
     1415.500000       0.157890
     1415.600000       0.162040
     1415.700000       0.166270
     1415.800000       0.170580
     1415.900000       0.174940
     1416.000000       0.179350
     1416.100000       0.183820
     1416.200000       0.188330
     1416.300000       0.192890
     1416.400000       0.197470
     1416.500000       0.202100
     1416.600000       0.206750
     1416.700000       0.211430
     1416.800000       0.216150
     1416.900000       0.220890
     1417.000000       0.225670
     1417.100000       0.230480
     1417.200000       0.235330
     1417.300000       0.240230
     1417.400000       0.245160
     1417.500000       0.250140
     1417.600000       0.255170
     1417.700000       0.260250
     1417.800000       0.265400
     1417.900000       0.270610
     1418.000000       0.275900
     1418.100000       0.281270
     1418.200000       0.286730
     1418.300000       0.292300
     1418.400000       0.297990
     1418.500000       0.303790
     1418.600000       0.309740
     1418.700000       0.315820
     1418.800000       0.322050
     1418.900000       0.328420
     1419.000000       0.334930
     1419.100000       0.341590
     1419.200000       0.348410
     1419.300000       0.355400
     1419.400000       0.362560
     1419.500000       0.369910
     1419.600000       0.377460
     1419.700000       0.385190
     1419.800000       0.393100
     1419.900000       0.401170
     1420.000000       0.409400
     1420.100000       0.417770
     1420.200000       0.426280
     1420.300000       0.434940
     1420.400000       0.443730
     1420.500000       0.452640
     1420.600000       0.461690
     1420.700000       0.470820
     1420.800000       0.480020
     1420.900000       0.489230
     1421.000000       0.498420
     1421.100000       0.507560
     1421.200000       0.516600
     1421.300000       0.525530
     1421.400000       0.534270
     1421.500000       0.542800
     1421.600000       0.551100
     1421.700000       0.559200
     1421.800000       0.567140
     1421.900000       0.574940
     1422.000000       0.582670
     1422.100000       0.590350
     1422.200000       0.598020
     1422.300000       0.605740
     1422.400000       0.613510
     1422.500000       0.621400
     1422.600000       0.629430
     1422.700000       0.637610
     1422.800000       0.645970
     1422.900000       0.654490
     1423.000000       0.663210
     1423.100000       0.672130
     1423.200000       0.681270
     1423.300000       0.690660
     1423.400000       0.700300
     1423.500000       0.710240
     1423.600000       0.720460
     1423.700000       0.730890
     1423.800000       0.741470
     1423.900000       0.752070
     1424.000000       0.762620
     1424.100000       0.773020
     1424.200000       0.783200
     1424.300000       0.793070
     1424.400000       0.802500
     1424.500000       0.811420
     1424.600000       0.819750
     1424.700000       0.827530
     1424.800000       0.834830
     1424.900000       0.841710
     1425.000000       0.848210
     1425.100000       0.854380
     1425.200000       0.860290
     1425.300000       0.865970
     1425.400000       0.871460
     1425.500000       0.876800
     1425.600000       0.882020
     1425.700000       0.887130
     1425.800000       0.892130
     1425.900000       0.897010
     1426.000000       0.901770
     1426.100000       0.906400
     1426.200000       0.910900
     1426.300000       0.915260
     1426.400000       0.919470
     1426.500000       0.923530
     1426.600000       0.927410
     1426.700000       0.931110
     1426.800000       0.934640
     1426.900000       0.937970
     1427.000000       0.941100
     1427.100000       0.944030
     1427.200000       0.946730
     1427.300000       0.949190
     1427.400000       0.951390
     1427.500000       0.953320
     1427.600000       0.954950
     1427.700000       0.956320
     1427.800000       0.957470
     1427.900000       0.958410
     1428.000000       0.959190
     1428.100000       0.959830
     1428.200000       0.960350
     1428.300000       0.960790
     1428.400000       0.961160
     1428.500000       0.961490
     1428.600000       0.961810
     1428.700000       0.962120
     1428.800000       0.962430
     1428.900000       0.962770
     1429.000000       0.963130
     1429.100000       0.963540
     1429.200000       0.964000
     1429.300000       0.964530
     1429.400000       0.965140
     1429.500000       0.965840
     1429.600000       0.966650
     1429.700000       0.967550
     1429.800000       0.968520
     1429.900000       0.969540
     1430.000000       0.970590
     1430.100000       0.971660
     1430.200000       0.972710
     1430.300000       0.973740
     1430.400000       0.974730
     1430.500000       0.975660
     1430.600000       0.976510
     1430.700000       0.977270
     1430.800000       0.977960
     1430.900000       0.978560
     1431.000000       0.979070
     1431.100000       0.979480
     1431.200000       0.979800
     1431.300000       0.980020
     1431.400000       0.980130
     1431.500000       0.980120
     1431.600000       0.979990
     1431.700000       0.979750
     1431.800000       0.979410
     1431.900000       0.978990
     1432.000000       0.978490
     1432.100000       0.977920
     1432.200000       0.977300
     1432.300000       0.976640
     1432.400000       0.975940
     1432.500000       0.975210
     1432.600000       0.974460
     1432.700000       0.973690
     1432.800000       0.972890
     1432.900000       0.972080
     1433.000000       0.971240
     1433.100000       0.970380
     1433.200000       0.969500
     1433.300000       0.968590
     1433.400000       0.967650
     1433.500000       0.966690
     1433.600000       0.965690
     1433.700000       0.964670
     1433.800000       0.963610
     1433.900000       0.962540
     1434.000000       0.961440
     1434.100000       0.960330
     1434.200000       0.959190
     1434.300000       0.958040
     1434.400000       0.956870
     1434.500000       0.955680
     1434.600000       0.954490
     1434.700000       0.953280
     1434.800000       0.952050
     1434.900000       0.950820
     1435.000000       0.949580
     1435.100000       0.948330
     1435.200000       0.947070
     1435.300000       0.945810
     1435.400000       0.944540
     1435.500000       0.943260
     1435.600000       0.941980
     1435.700000       0.940690
     1435.800000       0.939410
     1435.900000       0.938130
     1436.000000       0.936850
     1436.100000       0.935570
     1436.200000       0.934310
     1436.300000       0.933050
     1436.400000       0.931810
     1436.500000       0.930590
     1436.600000       0.929380
     1436.700000       0.928190
     1436.800000       0.927020
     1436.900000       0.925870
     1437.000000       0.924750
     1437.100000       0.923650
     1437.200000       0.922580
     1437.300000       0.921530
     1437.400000       0.920520
     1437.500000       0.919540
     1437.600000       0.918600
     1437.700000       0.917690
     1437.800000       0.916810
     1437.900000       0.915970
     1438.000000       0.915150
     1438.100000       0.914360
     1438.200000       0.913600
     1438.300000       0.912860
     1438.400000       0.912150
     1438.500000       0.911460
     1438.600000       0.910800
     1438.700000       0.910160
     1438.800000       0.909540
     1438.900000       0.908940
     1439.000000       0.908370
     1439.100000       0.907810
     1439.200000       0.907270
     1439.300000       0.906750
     1439.400000       0.906250
     1439.500000       0.905770
     1439.600000       0.905310
     1439.700000       0.904870
     1439.800000       0.904440
     1439.900000       0.904020
     1440.000000       0.903630
     1440.100000       0.903240
     1440.200000       0.902870
     1440.300000       0.902510
     1440.400000       0.902160
     1440.500000       0.901820
     1440.600000       0.901490
     1440.700000       0.901170
     1440.800000       0.900860
     1440.900000       0.900570
     1441.000000       0.900290
     1441.100000       0.900030
     1441.200000       0.899790
     1441.300000       0.899560
     1441.400000       0.899350
     1441.500000       0.899170
     1441.600000       0.899010
     1441.700000       0.898880
     1441.800000       0.898760
     1441.900000       0.898660
     1442.000000       0.898580
     1442.100000       0.898510
     1442.200000       0.898450
     1442.300000       0.898400
     1442.400000       0.898360
     1442.500000       0.898330
     1442.600000       0.898300
     1442.700000       0.898280
     1442.800000       0.898280
     1442.900000       0.898290
     1443.000000       0.898320
     1443.100000       0.898380
     1443.200000       0.898470
     1443.300000       0.898590
     1443.400000       0.898760
     1443.500000       0.898970
     1443.600000       0.899230
     1443.700000       0.899530
     1443.800000       0.899860
     1443.900000       0.900210
     1444.000000       0.900570
     1444.100000       0.900930
     1444.200000       0.901280
     1444.300000       0.901600
     1444.400000       0.901900
     1444.500000       0.902150
     1444.600000       0.902360
     1444.700000       0.902510
     1444.800000       0.902620
     1444.900000       0.902690
     1445.000000       0.902710
     1445.100000       0.902700
     1445.200000       0.902650
     1445.300000       0.902560
     1445.400000       0.902430
     1445.500000       0.902270
     1445.600000       0.902080
     1445.700000       0.901850
     1445.800000       0.901600
     1445.900000       0.901340
     1446.000000       0.901050
     1446.100000       0.900760
     1446.200000       0.900460
     1446.300000       0.900160
     1446.400000       0.899870
     1446.500000       0.899580
     1446.600000       0.899300
     1446.700000       0.899050
     1446.800000       0.898810
     1446.900000       0.898580
     1447.000000       0.898390
     1447.100000       0.898220
     1447.200000       0.898070
     1447.300000       0.897960
     1447.400000       0.897890
     1447.500000       0.897850
     1447.600000       0.897860
     1447.700000       0.897920
     1447.800000       0.898010
     1447.900000       0.898150
     1448.000000       0.898330
     1448.100000       0.898540
     1448.200000       0.898800
     1448.300000       0.899100
     1448.400000       0.899450
     1448.500000       0.899840
     1448.600000       0.900270
     1448.700000       0.900750
     1448.800000       0.901270
     1448.900000       0.901830
     1449.000000       0.902430
     1449.100000       0.903070
     1449.200000       0.903740
     1449.300000       0.904450
     1449.400000       0.905200
     1449.500000       0.905990
     1449.600000       0.906820
     1449.700000       0.907680
     1449.800000       0.908570
     1449.900000       0.909490
     1450.000000       0.910430
     1450.100000       0.911390
     1450.200000       0.912380
     1450.300000       0.913370
     1450.400000       0.914380
     1450.500000       0.915400
     1450.600000       0.916430
     1450.700000       0.917470
     1450.800000       0.918510
     1450.900000       0.919550
     1451.000000       0.920600
     1451.100000       0.921650
     1451.200000       0.922690
     1451.300000       0.923740
     1451.400000       0.924780
     1451.500000       0.925810
     1451.600000       0.926840
     1451.700000       0.927870
     1451.800000       0.928880
     1451.900000       0.929880
     1452.000000       0.930860
     1452.100000       0.931830
     1452.200000       0.932780
     1452.300000       0.933710
     1452.400000       0.934620
     1452.500000       0.935500
     1452.600000       0.936350
     1452.700000       0.937170
     1452.800000       0.937970
     1452.900000       0.938750
     1453.000000       0.939500
     1453.100000       0.940240
     1453.200000       0.940960
     1453.300000       0.941660
     1453.400000       0.942350
     1453.500000       0.943030
     1453.600000       0.943690
     1453.700000       0.944350
     1453.800000       0.945000
     1453.900000       0.945660
     1454.000000       0.946320
     1454.100000       0.946980
     1454.200000       0.947670
     1454.300000       0.948370
     1454.400000       0.949090
     1454.500000       0.949840
     1454.600000       0.950620
     1454.700000       0.951430
     1454.800000       0.952260
     1454.900000       0.953100
     1455.000000       0.953950
     1455.100000       0.954810
     1455.200000       0.955670
     1455.300000       0.956520
     1455.400000       0.957360
     1455.500000       0.958180
     1455.600000       0.958980
     1455.700000       0.959760
     1455.800000       0.960510
     1455.900000       0.961250
     1456.000000       0.961970
     1456.100000       0.962660
     1456.200000       0.963330
     1456.300000       0.963990
     1456.400000       0.964620
     1456.500000       0.965220
     1456.600000       0.965800
     1456.700000       0.966360
     1456.800000       0.966900
     1456.900000       0.967420
     1457.000000       0.967920
     1457.100000       0.968410
     1457.200000       0.968880
     1457.300000       0.969330
     1457.400000       0.969780
     1457.500000       0.970210
     1457.600000       0.970630
     1457.700000       0.971040
     1457.800000       0.971430
     1457.900000       0.971820
     1458.000000       0.972200
     1458.100000       0.972560
     1458.200000       0.972920
     1458.300000       0.973270
     1458.400000       0.973600
     1458.500000       0.973930
     1458.600000       0.974250
     1458.700000       0.974560
     1458.800000       0.974870
     1458.900000       0.975170
     1459.000000       0.975490
     1459.100000       0.975800
     1459.200000       0.976130
     1459.300000       0.976470
     1459.400000       0.976830
     1459.500000       0.977210
     1459.600000       0.977610
     1459.700000       0.978030
     1459.800000       0.978480
     1459.900000       0.978940
     1460.000000       0.979420
     1460.100000       0.979910
     1460.200000       0.980400
     1460.300000       0.980910
     1460.400000       0.981430
     1460.500000       0.981950
     1460.600000       0.982480
     1460.700000       0.983010
     1460.800000       0.983550
     1460.900000       0.984090
     1461.000000       0.984640
     1461.100000       0.985190
     1461.200000       0.985750
     1461.300000       0.986310
     1461.400000       0.986890
     1461.500000       0.987470
     1461.600000       0.988060
     1461.700000       0.988650
     1461.800000       0.989260
     1461.900000       0.989870
     1462.000000       0.990490
     1462.100000       0.991120
     1462.200000       0.991750
     1462.300000       0.992390
     1462.400000       0.993030
     1462.500000       0.993680
     1462.600000       0.994340
     1462.700000       0.995000
     1462.800000       0.995640
     1462.900000       0.996280
     1463.000000       0.996880
     1463.100000       0.997460
     1463.200000       0.997990
     1463.300000       0.998480
     1463.400000       0.998910
     1463.500000       0.999270
     1463.600000       0.999560
     1463.700000       0.999770
     1463.800000       0.999910
     1463.900000       0.999990
     1464.000000       1.000000
     1464.100000       0.999950
     1464.200000       0.999830
     1464.300000       0.999650
     1464.400000       0.999410
     1464.500000       0.999100
     1464.600000       0.998720
     1464.700000       0.998290
     1464.800000       0.997820
     1464.900000       0.997310
     1465.000000       0.996770
     1465.100000       0.996220
     1465.200000       0.995670
     1465.300000       0.995110
     1465.400000       0.994570
     1465.500000       0.994050
     1465.600000       0.993560
     1465.700000       0.993090
     1465.800000       0.992650
     1465.900000       0.992230
     1466.000000       0.991830
     1466.100000       0.991440
     1466.200000       0.991070
     1466.300000       0.990710
     1466.400000       0.990350
     1466.500000       0.990010
     1466.600000       0.989660
     1466.700000       0.989320
     1466.800000       0.988980
     1466.900000       0.988640
     1467.000000       0.988290
     1467.100000       0.987940
