24,    channel 24 SRF extracted from SRF_FY-3F_MERSI-III.zip(FY3F_MERSI_SRF_CH24_Pub.txt) (received Nov 2023)
Number of data points:
330
Wavenumber (cm-1)   Filter response
      862.068500       0.009770
      862.440300       0.011217
      862.812300       0.012877
      863.184700       0.014794
      863.557600       0.016766
      863.930600       0.018517
      864.304200       0.021086
      864.678100       0.023574
      865.052200       0.025832
      865.426900       0.027872
      865.801900       0.029905
      866.174700       0.032746
      866.550400       0.035631
      866.926500       0.037639
      867.302900       0.039723
      867.679500       0.043111
      868.056800       0.046636
      868.431900       0.050704
      868.809800       0.054559
      869.188100       0.058973
      869.564200       0.062937
      869.943200       0.067890
      870.322500       0.072382
      870.699900       0.076846
      871.079900       0.081346
      871.460400       0.088044
      871.838800       0.093314
      872.220000       0.100451
      872.599200       0.107195
      872.981100       0.114830
      873.363400       0.122729
      873.743700       0.132850
      874.126700       0.140470
      874.507600       0.150773
      874.891500       0.161079
      875.273200       0.172054
      875.657800       0.183829
      876.040400       0.198182
      876.423200       0.213513
      876.808900       0.230735
      877.192500       0.246253
      877.579000       0.260361
      877.963300       0.275655
      878.348000       0.290769
      878.735700       0.304597
      879.121200       0.316042
      879.506900       0.326338
      879.893300       0.338544
      880.282400       0.352762
      880.669500       0.364812
      881.056900       0.377436
      881.444500       0.391242
      881.835300       0.403607
      882.223700       0.418065
      882.612700       0.432484
      883.002000       0.448376
      883.391700       0.464846
      883.781700       0.479769
      884.172200       0.494055
      884.565600       0.510536
      884.956700       0.525889
      885.348300       0.541527
      885.740400       0.554544
      886.132700       0.569867
      886.525400       0.584590
      886.918700       0.598209
      887.312100       0.613131
      887.706100       0.627651
      888.100400       0.641869
      888.495200       0.655685
      888.887700       0.669801
      889.283300       0.683716
      889.679100       0.698633
      890.075300       0.710241
      890.472000       0.725257
      890.869100       0.738066
      891.266500       0.751777
      891.661800       0.763782
      892.060100       0.776434
      892.458700       0.787225
      892.857800       0.800750
      893.257100       0.809101
      893.654300       0.818382
      894.054600       0.828672
      894.455300       0.834810
      894.853700       0.841515
      895.255100       0.848102
      895.656900       0.853357
      896.056500       0.861254
      896.459100       0.866866
      896.862200       0.871653
      897.263000       0.879383
      897.666900       0.886589
      898.068400       0.893875
      898.473100       0.897925
      898.875500       0.899512
      899.281000       0.903528
      899.684200       0.905776
      900.090400       0.908231
      900.494400       0.911561
      900.901500       0.914049
      901.306300       0.918212
      901.714300       0.922014
      902.119900       0.924201
      902.526000       0.927085
      902.935100       0.928330
      903.342000       0.928410
      903.749200       0.928781
      904.159500       0.930379
      904.567700       0.932074
      904.976200       0.934052
      905.387700       0.934040
      905.797100       0.936856
      906.206800       0.937403
      906.619600       0.937858
      907.030100       0.938579
      907.441200       0.938460
      907.852400       0.936846
      908.264300       0.938115
      908.676500       0.936541
      909.091900       0.936446
      909.505000       0.936424
      909.918400       0.933864
      910.332200       0.932866
      910.746600       0.931871
      911.161300       0.928200
      911.576400       0.925640
      911.992000       0.924177
      912.407900       0.922632
      912.824200       0.921013
      913.241000       0.918848
      913.658200       0.918065
      914.076000       0.917033
      914.494100       0.914914
      914.912500       0.912960
      915.331400       0.911105
      915.750700       0.909715
      916.170500       0.908064
      916.590800       0.907240
      917.011400       0.905390
      917.432400       0.906678
      917.851200       0.904330
      918.273100       0.903697
      918.695500       0.905043
      919.118200       0.905255
      919.541400       0.905644
      919.962200       0.907191
      920.386200       0.907756
      920.810600       0.909035
      921.235600       0.908892
      921.658300       0.910785
      922.083900       0.912414
      922.510200       0.911826
      922.934000       0.913721
      923.361000       0.912956
      923.788600       0.913787
      924.213800       0.917980
      924.642100       0.917653
      925.068300       0.919227
      925.497500       0.921111
      925.927200       0.922502
      926.354500       0.923761
      926.785000       0.924795
      927.213300       0.923654
      927.644800       0.922823
      928.073700       0.922344
      928.506200       0.922485
      928.936200       0.922711
      929.369400       0.924083
      929.800200       0.924314
      930.231500       0.925592
      930.666000       0.927222
      931.098300       0.928150
      931.533700       0.929865
      931.966800       0.931138
      932.400300       0.932149
      932.836900       0.935174
      933.271500       0.935568
      933.706300       0.938015
      934.141600       0.940682
      934.580200       0.943043
      935.016500       0.944488
      935.453000       0.947109
      935.890100       0.947423
      936.330400       0.950216
      936.768500       0.951696
      937.206900       0.953519
      937.645700       0.954300
      938.085100       0.956470
      938.527900       0.958458
      938.968100       0.962526
      939.408800       0.963127
      939.849900       0.964760
      940.291600       0.967939
      940.733600       0.972755
      941.176200       0.976272
      941.619200       0.979610
      942.062600       0.981741
      942.506500       0.985547
      942.950700       0.987925
      943.395700       0.987855
      943.840900       0.988310
      944.286700       0.989314
      944.733000       0.990659
      945.179600       0.992720
      945.626700       0.993118
      946.074300       0.995146
      946.522400       0.997426
      946.970800       0.999079
      947.417000       1.000000
      947.866400       0.996823
      948.316400       0.996589
      948.766700       0.996020
      949.217600       0.994057
      949.668900       0.993203
      950.117900       0.991479
      950.570100       0.989256
      951.022800       0.989382
      951.475900       0.987628
      951.926800       0.988198
      952.380800       0.989575
      952.835600       0.990152
      953.287700       0.990420
      953.743400       0.991893
      954.199400       0.995460
      954.653000       0.997579
      955.109900       0.999006
      955.567500       0.998550
      956.022500       0.995643
      956.480900       0.995198
      956.936900       0.993866
      957.396200       0.990895
      957.853300       0.987642
      958.313600       0.985940
      958.771400       0.984255
      959.232600       0.985319
      959.691500       0.983287
      960.153800       0.980841
      960.613600       0.975661
      961.077000       0.968418
      961.537600       0.954600
      962.002000       0.937691
      962.463600       0.918454
      962.925900       0.895777
      963.391700       0.871666
      963.854900       0.847307
      964.321400       0.821564
      964.785700       0.797276
      965.250200       0.774474
      965.718600       0.750979
      966.184000       0.727772
      966.650300       0.705288
      967.116800       0.683314
      967.587100       0.662781
      968.054700       0.642221
      968.522700       0.622761
      968.991400       0.602272
      969.463400       0.582352
      969.933100       0.564303
      970.403100       0.546725
      970.873800       0.530103
      971.344900       0.516146
      971.816400       0.501167
      972.288400       0.486907
      972.764100       0.475708
      973.237300       0.461960
      973.710800       0.448615
      974.184900       0.435235
      974.659400       0.420471
      975.134500       0.405388
      975.610000       0.391767
      976.086200       0.377579
      976.562700       0.363025
      977.040000       0.347287
      977.517600       0.331948
      977.995700       0.317777
      978.474400       0.303624
      978.953500       0.288432
      979.433100       0.272774
      979.913400       0.258045
      980.391000       0.244436
      980.872100       0.230266
      981.353800       0.215392
      981.836000       0.201968
      982.318700       0.189182
      982.802000       0.177172
      983.282800       0.165415
      983.767000       0.154767
      984.251800       0.144323
      984.737200       0.135367
      985.223000       0.126135
      985.706200       0.117628
      986.193100       0.108892
      986.680500       0.100690
      987.168600       0.093066
      987.653700       0.086116
      988.142700       0.079171
      988.632200       0.073183
      989.119000       0.067108
      989.609600       0.061561
      990.097500       0.057158
      990.589200       0.052380
      991.081400       0.047939
      991.570800       0.043832
      992.064100       0.039447
      992.554500       0.036389
      993.048900       0.034090
      993.543700       0.031651
      994.035800       0.029782
      994.531700       0.028433
      995.024800       0.026333
      995.521900       0.024661
      996.016000       0.023130
      996.510800       0.021271
      997.009400       0.019930
      997.505300       0.017886
      998.004900       0.016501
      998.501900       0.015401
      999.002600       0.014552
      999.500500       0.013437
      999.999100       0.012759
     1000.501400       0.011533
     1001.001100       0.010650
     1001.501400       0.009408
     1002.005300       0.008930
     1002.506600       0.008499
     1003.008400       0.007833
     1003.510600       0.007496
     1004.017000       0.006829
     1004.520300       0.006960
