94,   94, MVIRI VIS channel from srf_MET5_2002348_2002349_1801-Release_S10EL_10.dat
Number of data points:
806
Wavenumber (cm-1)   Filter response
     8350.730700       0.000000
     8357.710000       0.000000
     8364.701000       0.000000
     8371.703600       0.000002
     8378.718100       0.000004
     8385.744200       0.000009
     8392.782200       0.000017
     8399.832000       0.000028
     8406.893700       0.000042
     8413.967200       0.000061
     8421.052600       0.000084
     8428.150000       0.000113
     8435.259400       0.000148
     8442.380800       0.000189
     8449.514200       0.000236
     8456.659600       0.000290
     8463.817200       0.000352
     8470.986900       0.000421
     8478.168700       0.000499
     8485.362700       0.000585
     8492.569000       0.000680
     8499.787500       0.000785
     8507.018300       0.000899
     8514.261400       0.001022
     8521.516800       0.001156
     8528.784600       0.001300
     8536.064900       0.001455
     8543.357500       0.001621
     8550.662700       0.001799
     8557.980300       0.001988
     8565.310500       0.002188
     8572.653200       0.002401
     8580.008600       0.002626
     8587.376600       0.002863
     8594.757200       0.003114
     8602.150500       0.003377
     8609.556600       0.003653
     8616.975400       0.003942
     8624.407100       0.004245
     8631.851500       0.004562
     8639.308900       0.004893
     8646.779100       0.005238
     8654.262200       0.005597
     8661.758300       0.005970
     8669.267400       0.006358
     8676.789600       0.006761
     8684.324800       0.007178
     8691.873100       0.007611
     8699.434500       0.008059
     8707.009100       0.008522
     8714.596900       0.009001
     8722.198000       0.009495
     8729.812300       0.010005
     8737.439900       0.010531
     8745.080900       0.011074
     8752.735200       0.011632
     8760.403000       0.012206
     8768.084200       0.012797
     8775.778900       0.013405
     8783.487000       0.014029
     8791.208800       0.014670
     8798.944100       0.015328
     8806.693100       0.016003
     8814.455700       0.016695
     8822.232000       0.017405
     8830.022100       0.018131
     8837.825900       0.018876
     8845.643500       0.019637
     8853.475000       0.020417
     8861.320300       0.021215
     8869.179600       0.022030
     8877.052800       0.022863
     8884.940000       0.023715
     8892.841300       0.024585
     8900.756600       0.025473
     8908.686000       0.026380
     8916.629500       0.027305
     8924.587200       0.028248
     8932.559200       0.029211
     8940.545400       0.030193
     8948.545900       0.031193
     8956.560700       0.032213
     8964.589900       0.033252
     8972.633500       0.034310
     8980.691500       0.035388
     8988.764000       0.036485
     8996.851100       0.037601
     9004.952700       0.038738
     9013.068900       0.039894
     9021.199800       0.041070
     9029.345400       0.042266
     9037.505600       0.043482
     9045.680700       0.044718
     9053.870500       0.045975
     9062.075200       0.047252
     9070.294800       0.048549
     9078.529300       0.049867
     9086.778700       0.051206
     9095.043200       0.052566
     9103.322700       0.053946
     9111.617300       0.055348
     9119.927000       0.056770
     9128.251900       0.058214
     9136.592100       0.059679
     9144.947400       0.061164
     9153.318100       0.062672
     9161.704100       0.064201
     9170.105500       0.065752
     9178.522300       0.067324
     9186.954500       0.068918
     9195.402300       0.070534
     9203.865600       0.072172
     9212.344500       0.073832
     9220.839100       0.075514
     9229.349300       0.077218
     9237.875300       0.078945
     9246.417000       0.080694
     9254.974500       0.082465
     9263.547900       0.084259
     9272.137200       0.086075
     9280.742500       0.087914
     9289.363700       0.089776
     9298.000900       0.091661
     9306.654300       0.093568
     9315.323700       0.095498
     9324.009300       0.097451
     9332.711200       0.099428
     9341.429200       0.101427
     9350.163600       0.103450
     9358.914400       0.105495
     9367.681500       0.107564
     9376.465100       0.109657
     9385.265100       0.111772
     9394.081700       0.113911
     9402.914900       0.116074
     9411.764700       0.118260
     9420.631200       0.120470
     9429.514400       0.122703
     9438.414300       0.124960
     9447.331100       0.127240
     9456.264800       0.129544
     9465.215300       0.131872
     9474.182900       0.134223
     9483.167400       0.136599
     9492.169000       0.138998
     9501.187600       0.141421
     9510.223500       0.143867
     9519.276500       0.146338
     9528.346800       0.148832
     9537.434400       0.151350
     9546.539400       0.153892
     9555.661700       0.156458
     9564.801500       0.159047
     9573.958800       0.161661
     9583.133700       0.164298
     9592.326100       0.166958
     9601.536200       0.169643
     9610.764100       0.172351
     9620.009600       0.175083
     9629.273000       0.177839
     9638.554200       0.180618
     9647.853400       0.183422
     9657.170400       0.186248
     9666.505600       0.189098
     9675.858700       0.191972
     9685.230000       0.194868
     9694.619500       0.197789
     9704.027200       0.200732
     9713.453100       0.203699
     9722.897400       0.206689
     9732.360100       0.209702
     9741.841200       0.212738
     9751.340800       0.215797
     9760.859000       0.218879
     9770.395700       0.221983
     9779.951100       0.225110
     9789.525200       0.228260
     9799.118100       0.231433
     9808.729800       0.234627
     9818.360300       0.237844
     9828.009800       0.241083
     9837.678300       0.244345
     9847.365800       0.247628
     9857.072400       0.250933
     9866.798200       0.254259
     9876.543200       0.257607
     9886.307500       0.260977
     9896.091000       0.264367
     9905.894000       0.267779
     9915.716400       0.271212
     9925.558300       0.274665
     9935.419800       0.278140
     9945.300800       0.281634
     9955.201600       0.285149
     9965.122100       0.288684
     9975.062300       0.292239
     9985.022500       0.295814
     9995.002500       0.299409
    10005.002500       0.303023
    10015.022500       0.306656
    10025.062700       0.310308
    10035.122900       0.313979
    10045.203400       0.317668
    10055.304200       0.321376
    10065.425300       0.325102
    10075.566800       0.328846
    10085.728700       0.332608
    10095.911200       0.336387
    10106.114200       0.340184
    10116.337900       0.343997
    10126.582300       0.347828
    10136.847400       0.351675
    10147.133400       0.355538
    10157.440300       0.359418
    10167.768200       0.363313
    10178.117000       0.367224
    10188.487000       0.371150
    10198.878100       0.375091
    10209.290500       0.379047
    10219.724100       0.383017
    10230.179000       0.387002
    10240.655400       0.391000
    10251.153300       0.395012
    10261.672700       0.399038
    10272.213700       0.403076
    10282.776300       0.407127
    10293.360800       0.411191
    10303.967000       0.415267
    10314.595200       0.419355
    10325.245200       0.423454
    10335.917300       0.427564
    10346.611500       0.431686
    10357.327800       0.435817
    10368.066400       0.439959
    10378.827200       0.444112
    10389.610400       0.448273
    10400.416000       0.452444
    10411.244100       0.456624
    10422.094800       0.460812
    10432.968200       0.465009
    10443.864200       0.469214
    10454.783100       0.473426
    10465.724800       0.477645
    10476.689400       0.481871
    10487.677000       0.486104
    10498.687700       0.490343
    10509.721500       0.494587
    10520.778500       0.498837
    10531.858900       0.503092
    10542.962600       0.507351
    10554.089700       0.511615
    10565.240400       0.515883
    10576.414600       0.520154
    10587.612500       0.524429
    10598.834100       0.528706
    10610.079600       0.532986
    10621.348900       0.537267
    10632.642200       0.541551
    10643.959600       0.545835
    10655.301000       0.550121
    10666.666700       0.554406
    10678.056600       0.558692
    10689.470900       0.562978
    10700.909600       0.567263
    10712.372800       0.571546
    10723.860600       0.575828
    10735.373100       0.580109
    10746.910300       0.584387
    10758.472300       0.588662
    10770.059200       0.592934
    10781.671200       0.597203
    10793.308100       0.601467
    10804.970300       0.605728
    10816.657700       0.609983
    10828.370300       0.614234
    10840.108400       0.618478
    10851.871900       0.622717
    10863.661100       0.626950
    10875.475800       0.631176
    10887.316300       0.635394
    10899.182600       0.639605
    10911.074700       0.643808
    10922.992900       0.648003
    10934.937100       0.652189
    10946.907500       0.656365
    10958.904100       0.660532
    10970.927000       0.664689
    10982.976400       0.668835
    10995.052200       0.672971
    11007.154700       0.677095
    11019.283700       0.681208
    11031.439600       0.685308
    11043.622300       0.689397
    11055.832000       0.693472
    11068.068600       0.697534
    11080.332400       0.701582
    11092.623400       0.705616
    11104.941700       0.709636
    11117.287400       0.713641
    11129.660500       0.717631
    11142.061300       0.721605
    11154.489700       0.725563
    11166.945800       0.729504
    11179.429800       0.733429
    11191.941800       0.737337
    11204.481800       0.741226
    11217.049900       0.745098
    11229.646300       0.748952
    11242.270900       0.752787
    11254.924000       0.756603
    11267.605600       0.760399
    11280.315800       0.764175
    11293.054800       0.767932
    11305.822500       0.771667
    11318.619100       0.775382
    11331.444800       0.779075
    11344.299500       0.782747
    11357.183400       0.786397
    11370.096600       0.790024
    11383.039300       0.793629
    11396.011400       0.797210
    11409.013100       0.800768
    11422.044500       0.804302
    11435.105800       0.807813
    11448.196900       0.811299
    11461.318100       0.814760
    11474.469300       0.818196
    11487.650800       0.821606
    11500.862600       0.824991
    11514.104800       0.828350
    11527.377500       0.831682
    11540.680900       0.834988
    11554.015000       0.838267
    11567.380000       0.841519
    11580.775900       0.844743
    11594.202900       0.847939
    11607.661100       0.851107
    11621.150500       0.854247
    11634.671300       0.857358
    11648.223600       0.860440
    11661.807600       0.863492
    11675.423200       0.866515
    11689.070700       0.869509
    11702.750100       0.872472
    11716.461600       0.875406
    11730.205300       0.878308
    11743.981200       0.881180
    11757.789500       0.884021
    11771.630400       0.886830
    11785.503800       0.889609
    11799.410000       0.892355
    11813.349100       0.895070
    11827.321100       0.897752
    11841.326200       0.900402
    11855.364600       0.903020
    11869.436200       0.905605
    11883.541300       0.908157
    11897.680000       0.910676
    11911.852300       0.913161
    11926.058400       0.915613
    11940.298500       0.918032
    11954.572600       0.920416
    11968.880900       0.922767
    11983.223500       0.925084
    11997.600500       0.927366
    12012.012000       0.929614
    12026.458200       0.931828
    12040.939200       0.934006
    12055.455100       0.936150
    12070.006000       0.938260
    12084.592100       0.940334
    12099.213600       0.942373
    12113.870400       0.944376
    12128.562800       0.946345
    12143.290800       0.948278
    12158.054700       0.950175
    12172.854500       0.952037
    12187.690400       0.953864
    12202.562500       0.955654
    12217.471000       0.957409
    12232.415900       0.959128
    12247.397400       0.960811
    12262.415700       0.962458
    12277.470800       0.964069
    12292.563000       0.965645
    12307.692300       0.967184
    12322.858900       0.968687
    12338.062900       0.970154
    12353.304500       0.971585
    12368.583800       0.972980
    12383.900900       0.974339
    12399.256000       0.975662
    12414.649300       0.976950
    12430.080800       0.978201
    12445.550700       0.979416
    12461.059200       0.980595
    12476.606400       0.981738
    12492.192400       0.982846
    12507.817400       0.983918
    12523.481500       0.984954
    12539.185000       0.985954
    12554.927800       0.986919
    12570.710200       0.987849
    12586.532400       0.988743
    12602.394500       0.989602
    12618.296500       0.990425
    12634.238800       0.991214
    12650.221400       0.991967
    12666.244500       0.992686
    12682.308200       0.993370
    12698.412700       0.994020
    12714.558200       0.994635
    12730.744700       0.995215
    12746.972600       0.995762
    12763.241900       0.996274
    12779.552700       0.996753
    12795.905300       0.997198
    12812.299800       0.997609
    12828.736400       0.997987
    12845.215200       0.998332
    12861.736300       0.998644
    12878.300100       0.998923
    12894.906500       0.999169
    12911.555800       0.999383
    12928.248200       0.999565
    12944.983800       0.999715
    12961.762800       0.999833
    12978.585300       0.999920
    12995.451600       0.999976
    13012.361700       1.000000
    13029.316000       0.999994
    13046.314400       0.999957
    13063.357300       0.999889
    13080.444700       0.999792
    13097.576900       0.999665
    13114.754100       0.999508
    13131.976400       0.999322
    13149.243900       0.999108
    13166.556900       0.998864
    13183.915600       0.998592
    13201.320100       0.998292
    13218.770700       0.997964
    13236.267400       0.997609
    13253.810500       0.997226
    13271.400100       0.996817
    13289.036500       0.996381
    13306.719900       0.995919
    13324.450400       0.995430
    13342.228200       0.994917
    13360.053400       0.994377
    13377.926400       0.993813
    13395.847300       0.993225
    13413.816200       0.992612
    13431.833400       0.991975
    13449.899100       0.991314
    13468.013500       0.990630
    13486.176700       0.989924
    13504.388900       0.989195
    13522.650400       0.988444
    13540.961400       0.987670
    13559.322000       0.986876
    13577.732500       0.986061
    13596.193100       0.985224
    13614.703900       0.984368
    13633.265200       0.983492
    13651.877100       0.982596
    13670.540000       0.981681
    13689.253900       0.980747
    13708.019200       0.979795
    13726.836000       0.978825
    13745.704500       0.977838
    13764.624900       0.976833
    13783.597500       0.975811
    13802.622500       0.974773
    13821.700100       0.973720
    13840.830400       0.972650
    13860.013900       0.971566
    13879.250500       0.970466
    13898.540700       0.969353
    13917.884500       0.968225
    13937.282200       0.967084
    13956.734100       0.965930
    13976.240400       0.964764
    13995.801300       0.963585
    14015.417000       0.962394
    14035.087700       0.961192
    14054.813800       0.959978
    14074.595400       0.958755
    14094.432700       0.957521
    14114.326000       0.956277
    14134.275600       0.955024
    14154.281700       0.953762
    14174.344400       0.952491
    14194.464200       0.951213
    14214.641100       0.949927
    14234.875400       0.948634
    14255.167500       0.947333
    14275.517500       0.946027
    14295.925700       0.944714
    14316.392300       0.943396
    14336.917600       0.942073
    14357.501800       0.940745
    14378.145200       0.939413
    14398.848100       0.938077
    14419.610700       0.936737
    14440.433200       0.935395
    14461.316000       0.934049
    14482.259200       0.932702
    14503.263200       0.931352
    14524.328200       0.930001
    14545.454500       0.928649
    14566.642400       0.927297
    14587.892000       0.925944
    14609.203800       0.924591
    14630.577900       0.923239
    14652.014700       0.921887
    14673.514300       0.920537
    14695.077100       0.919189
    14716.703500       0.917842
    14738.393500       0.916498
    14760.147600       0.915157
    14781.966000       0.913819
    14803.849000       0.912484
    14825.796900       0.911154
    14847.809900       0.909827
    14869.888500       0.908505
    14892.032800       0.907188
    14914.243100       0.905877
    14936.519800       0.904571
    14958.863100       0.903271
    14981.273400       0.901977
    15003.750900       0.900690
    15026.296000       0.899409
    15048.909000       0.898136
    15071.590100       0.896871
    15094.339600       0.895614
    15117.158000       0.894364
    15140.045400       0.893123
    15163.002300       0.891891
    15186.028900       0.890668
    15209.125500       0.889455
    15232.292500       0.888250
    15255.530100       0.887056
    15278.838800       0.885872
    15302.218800       0.884699
    15325.670500       0.883535
    15349.194200       0.882383
    15372.790200       0.881242
    15396.458800       0.880113
    15420.200500       0.878995
    15444.015400       0.877889
    15467.904100       0.876794
    15491.866800       0.875712
    15515.903800       0.874643
    15540.015500       0.873586
    15564.202300       0.872542
    15588.464500       0.871511
    15612.802500       0.870493
    15637.216600       0.869488
    15661.707100       0.868497
    15686.274500       0.867519
    15710.919100       0.866555
    15735.641200       0.865605
    15760.441300       0.864669
    15785.319700       0.863747
    15810.276700       0.862840
    15835.312700       0.861946
    15860.428200       0.861067
    15885.623500       0.860203
    15910.899000       0.859353
    15936.255000       0.858518
    15961.691900       0.857697
    15987.210200       0.856891
    16012.810200       0.856100
    16038.492400       0.855324
    16064.257000       0.854562
    16090.104600       0.853816
    16116.035500       0.853084
    16142.050000       0.852367
    16168.148700       0.851665
    16194.332000       0.850977
    16220.600200       0.850305
    16246.953700       0.849647
    16273.393000       0.849003
    16299.918500       0.848375
    16326.530600       0.847761
    16353.229800       0.847161
    16380.016400       0.846576
    16406.890900       0.846005
    16433.853700       0.845448
    16460.905300       0.844905
    16488.046200       0.844376
    16515.276600       0.843861
    16542.597200       0.843359
    16570.008300       0.842871
    16597.510400       0.842396
    16625.103900       0.841934
    16652.789300       0.841485
    16680.567100       0.841049
    16708.437800       0.840625
    16736.401700       0.840214
    16764.459300       0.839815
    16792.611300       0.839427
    16820.857900       0.839051
    16849.199700       0.838687
    16877.637100       0.838333
    16906.170800       0.837990
    16934.801000       0.837658
    16963.528400       0.837335
    16992.353400       0.837023
    17021.276600       0.836720
    17050.298400       0.836426
    17079.419300       0.836142
    17108.639900       0.835865
    17137.960600       0.835597
    17167.382000       0.835337
    17196.904600       0.835084
    17226.528900       0.834838
    17256.255400       0.834598
    17286.084700       0.834365
