23,    channel 23 SRF extracted from SRF_FY-3F_MERSI-III.zip(FY3F_MERSI_SRF_CH23_Pub.txt) (received Nov 2023)
Number of data points:
229
Wavenumber (cm-1)   Filter response
     1124.542700       0.007226
     1124.860400       0.007724
     1125.176300       0.009012
     1125.492400       0.009468
     1125.808700       0.009053
     1126.125000       0.008887
     1126.444000       0.008015
     1126.761100       0.008139
     1127.078200       0.008223
     1127.395500       0.008139
     1127.713100       0.008264
     1128.030800       0.008430
     1128.351000       0.008430
     1128.669300       0.007770
     1128.987700       0.006690
     1129.306300       0.005070
     1129.625000       0.002492
     1129.944300       0.003488
     1130.263400       0.002492
     1130.583000       0.003488
     1130.902600       0.003987
     1131.222600       0.007641
     1131.542600       0.011130
     1131.863000       0.014784
     1132.181300       0.018106
     1132.502100       0.021262
     1132.823100       0.025415
     1133.144300       0.030897
     1133.465700       0.034884
     1133.787600       0.039037
     1134.109400       0.043688
     1134.429100       0.047508
     1134.751400       0.055980
     1135.073900       0.063953
     1135.396700       0.071761
     1135.717200       0.076246
     1136.040500       0.083056
     1136.364000       0.092193
     1136.687700       0.104319
     1137.009000       0.112292
     1137.333200       0.125581
     1137.657400       0.135548
     1137.979600       0.150332
     1138.304300       0.165615
     1138.626800       0.177242
     1138.952000       0.191528
     1139.277400       0.208970
     1139.600800       0.224419
     1139.926700       0.240199
     1140.250300       0.258472
     1140.576500       0.275083
     1140.900700       0.293189
     1141.227300       0.310631
     1141.552100       0.328904
     1141.879200       0.349169
     1142.204200       0.372259
     1142.531900       0.395183
     1142.857400       0.419269
     1143.182900       0.445515
     1143.511300       0.471761
     1143.839900       0.500831
     1144.163700       0.522924
     1144.492800       0.545847
     1144.819600       0.568272
     1145.146700       0.590698
     1145.476100       0.613787
     1145.803800       0.637375
     1146.131300       0.655316
     1146.459100       0.677907
     1146.789800       0.700831
     1147.118200       0.722757
     1147.446700       0.744352
     1147.775500       0.764120
     1148.104500       0.781395
     1148.436400       0.800000
     1148.765900       0.817442
     1149.095600       0.834552
     1149.425400       0.850664
     1149.755700       0.864950
     1150.086000       0.877575
     1150.416600       0.890698
     1150.747300       0.902658
     1151.078600       0.911794
     1151.409800       0.919103
     1151.741200       0.926744
     1152.072900       0.934552
     1152.404900       0.944518
     1152.737400       0.947841
     1153.069800       0.951827
     1153.402400       0.957475
     1153.735400       0.962459
     1154.068400       0.967608
     1154.401700       0.970764
     1154.735300       0.971761
     1155.066700       0.976080
     1155.400600       0.980233
     1155.735100       0.982890
     1156.069500       0.984718
     1156.404200       0.983389
     1156.739200       0.982392
     1157.071800       0.980233
     1157.407300       0.982724
     1157.742800       0.983056
     1158.078800       0.987708
     1158.412500       0.989036
     1158.748700       0.990366
     1159.085400       0.991196
     1159.419800       0.992525
     1159.756700       0.991030
     1160.094000       0.990532
     1160.429000       0.986545
     1160.766600       0.987043
     1161.102300       0.987542
     1161.440300       0.987043
     1161.778800       0.989036
     1162.114900       0.989036
     1162.453800       0.987043
     1162.790400       0.985216
     1163.129700       0.981562
     1163.467000       0.981728
     1163.806600       0.978904
     1164.144200       0.975748
     1164.482100       0.973422
     1164.822500       0.972259
     1165.160900       0.971096
     1165.501800       0.972093
     1165.840600       0.971595
     1166.179600       0.974253
     1166.521100       0.974585
     1166.860600       0.975083
     1167.202800       0.973754
     1167.542700       0.974751
     1167.882900       0.973256
     1168.223100       0.970598
     1168.566400       0.971761
     1168.907200       0.977741
     1169.248200       0.980565
     1169.589400       0.981728
     1169.933500       0.983389
     1170.275300       0.983555
     1170.617400       0.983555
     1170.959700       0.977076
     1171.302100       0.966943
     1171.647500       0.961960
     1171.990400       0.962459
     1172.333500       0.957309
     1172.676900       0.957309
     1173.020700       0.958638
     1173.364600       0.965116
     1173.708800       0.972924
     1174.053000       0.976246
     1174.397600       0.977409
     1174.742500       0.981562
     1175.087600       0.987209
     1175.433000       0.989369
     1175.778700       0.990864
     1176.124500       0.991694
     1176.470400       0.994352
     1176.816800       0.995847
     1177.163300       1.000000
     1177.510200       0.998007
     1177.857200       0.996346
     1178.204500       0.993356
     1178.549400       0.990033
     1178.897200       0.986213
     1179.245000       0.982724
     1179.593300       0.973422
     1179.941800       0.966113
     1180.287900       0.956146
     1180.636900       0.946512
     1180.986000       0.932724
     1181.335600       0.920266
     1181.682700       0.904983
     1182.032700       0.887708
     1182.382800       0.868106
     1182.733200       0.851993
     1183.081400       0.829402
     1183.432200       0.804153
     1183.783300       0.776578
     1184.132100       0.749169
     1184.483700       0.722093
     1184.832900       0.697010
     1185.185000       0.668771
     1185.537400       0.646844
     1185.887700       0.625249
     1186.240600       0.601495
     1186.590800       0.578904
     1186.944200       0.555316
     1187.295100       0.529402
     1187.649000       0.505814
     1188.000500       0.480233
     1188.355000       0.452990
     1188.706700       0.428239
     1189.061600       0.404319
     1189.414100       0.382226
     1189.766700       0.360299
     1190.122400       0.337542
     1190.475600       0.314784
     1190.831700       0.296678
     1191.185400       0.278571
     1191.539400       0.260465
     1191.896200       0.244352
     1192.250500       0.225914
     1192.605100       0.211794
     1192.962900       0.195183
     1193.318000       0.180565
     1193.673400       0.170266
     1194.029200       0.154153
     1194.387600       0.140365
     1194.743800       0.132226
     1195.100400       0.120266
     1195.456800       0.111296
     1195.813800       0.105316
     1196.170800       0.095017
     1196.530900       0.091860
     1196.888800       0.087043
     1197.246500       0.079900
     1197.604900       0.074751
     1197.963200       0.070930
     1198.321900       0.063621
     1198.680900       0.055482
     1199.040100       0.047342
     1199.399500       0.042193
     1199.759200       0.037375
     1200.119000       0.030565
     1200.479300       0.025747
     1200.839600       0.021927
     1201.200300       0.022591
     1201.561200       0.022591
