56,   56, MVIRI VIS channel from srf_MET5_1998078_1998079_1801-Release_S10EL_10.dat
Number of data points:
806
Wavenumber (cm-1)   Filter response
     8350.730700       0.000000
     8357.710000       0.000000
     8364.701000       0.000000
     8371.703600       0.000002
     8378.718100       0.000004
     8385.744200       0.000009
     8392.782200       0.000016
     8399.832000       0.000027
     8406.893700       0.000041
     8413.967200       0.000059
     8421.052600       0.000082
     8428.150000       0.000111
     8435.259400       0.000144
     8442.380800       0.000184
     8449.514200       0.000230
     8456.659600       0.000283
     8463.817200       0.000344
     8470.986900       0.000412
     8478.168700       0.000487
     8485.362700       0.000572
     8492.569000       0.000665
     8499.787500       0.000766
     8507.018300       0.000878
     8514.261400       0.000998
     8521.516800       0.001129
     8528.784600       0.001270
     8536.064900       0.001422
     8543.357500       0.001584
     8550.662700       0.001757
     8557.980300       0.001942
     8565.310500       0.002138
     8572.653200       0.002346
     8580.008600       0.002566
     8587.376600       0.002798
     8594.757200       0.003042
     8602.150500       0.003300
     8609.556600       0.003570
     8616.975400       0.003853
     8624.407100       0.004149
     8631.851500       0.004459
     8639.308900       0.004782
     8646.779100       0.005119
     8654.262200       0.005470
     8661.758300       0.005835
     8669.267400       0.006215
     8676.789600       0.006609
     8684.324800       0.007017
     8691.873100       0.007441
     8699.434500       0.007879
     8707.009100       0.008332
     8714.596900       0.008800
     8722.198000       0.009284
     8729.812300       0.009783
     8737.439900       0.010298
     8745.080900       0.010829
     8752.735200       0.011375
     8760.403000       0.011937
     8768.084200       0.012516
     8775.778900       0.013111
     8783.487000       0.013722
     8791.208800       0.014349
     8798.944100       0.014993
     8806.693100       0.015654
     8814.455700       0.016332
     8822.232000       0.017027
     8830.022100       0.017738
     8837.825900       0.018467
     8845.643500       0.019214
     8853.475000       0.019977
     8861.320300       0.020758
     8869.179600       0.021557
     8877.052800       0.022373
     8884.940000       0.023207
     8892.841300       0.024060
     8900.756600       0.024930
     8908.686000       0.025818
     8916.629500       0.026725
     8924.587200       0.027650
     8932.559200       0.028594
     8940.545400       0.029556
     8948.545900       0.030536
     8956.560700       0.031536
     8964.589900       0.032554
     8972.633500       0.033592
     8980.691500       0.034648
     8988.764000       0.035724
     8996.851100       0.036819
     9004.952700       0.037933
     9013.068900       0.039067
     9021.199800       0.040220
     9029.345400       0.041393
     9037.505600       0.042586
     9045.680700       0.043799
     9053.870500       0.045032
     9062.075200       0.046284
     9070.294800       0.047558
     9078.529300       0.048851
     9086.778700       0.050165
     9095.043200       0.051499
     9103.322700       0.052853
     9111.617300       0.054229
     9119.927000       0.055625
     9128.251900       0.057042
     9136.592100       0.058480
     9144.947400       0.059939
     9153.318100       0.061419
     9161.704100       0.062920
     9170.105500       0.064443
     9178.522300       0.065987
     9186.954500       0.067552
     9195.402300       0.069139
     9203.865600       0.070748
     9212.344500       0.072378
     9220.839100       0.074031
     9229.349300       0.075705
     9237.875300       0.077401
     9246.417000       0.079119
     9254.974500       0.080860
     9263.547900       0.082622
     9272.137200       0.084407
     9280.742500       0.086215
     9289.363700       0.088044
     9298.000900       0.089897
     9306.654300       0.091772
     9315.323700       0.093669
     9324.009300       0.095589
     9332.711200       0.097532
     9341.429200       0.099498
     9350.163600       0.101487
     9358.914400       0.103498
     9367.681500       0.105533
     9376.465100       0.107591
     9385.265100       0.109672
     9394.081700       0.111776
     9402.914900       0.113904
     9411.764700       0.116054
     9420.631200       0.118228
     9429.514400       0.120426
     9438.414300       0.122646
     9447.331100       0.124890
     9456.264800       0.127158
     9465.215300       0.129449
     9474.182900       0.131764
     9483.167400       0.134102
     9492.169000       0.136464
     9501.187600       0.138849
     9510.223500       0.141258
     9519.276500       0.143691
     9528.346800       0.146147
     9537.434400       0.148627
     9546.539400       0.151130
     9555.661700       0.153657
     9564.801500       0.156208
     9573.958800       0.158783
     9583.133700       0.161381
     9592.326100       0.164002
     9601.536200       0.166648
     9610.764100       0.169316
     9620.009600       0.172009
     9629.273000       0.174725
     9638.554200       0.177464
     9647.853400       0.180227
     9657.170400       0.183013
     9666.505600       0.185823
     9675.858700       0.188656
     9685.230000       0.191513
     9694.619500       0.194392
     9704.027200       0.197295
     9713.453100       0.200221
     9722.897400       0.203170
     9732.360100       0.206142
     9741.841200       0.209138
     9751.340800       0.212155
     9760.859000       0.215196
     9770.395700       0.218260
     9779.951100       0.221346
     9789.525200       0.224454
     9799.118100       0.227586
     9808.729800       0.230739
     9818.360300       0.233915
     9828.009800       0.237112
     9837.678300       0.240332
     9847.365800       0.243574
     9857.072400       0.246837
     9866.798200       0.250123
     9876.543200       0.253429
     9886.307500       0.256757
     9896.091000       0.260107
     9905.894000       0.263477
     9915.716400       0.266869
     9925.558300       0.270281
     9935.419800       0.273715
     9945.300800       0.277168
     9955.201600       0.280642
     9965.122100       0.284137
     9975.062300       0.287651
     9985.022500       0.291185
     9995.002500       0.294739
    10005.002500       0.298312
    10015.022500       0.301905
    10025.062700       0.305517
    10035.122900       0.309147
    10045.203400       0.312797
    10055.304200       0.316465
    10065.425300       0.320151
    10075.566800       0.323856
    10085.728700       0.327578
    10095.911200       0.331318
    10106.114200       0.335076
    10116.337900       0.338851
    10126.582300       0.342643
    10136.847400       0.346451
    10147.133400       0.350276
    10157.440300       0.354118
    10167.768200       0.357975
    10178.117000       0.361848
    10188.487000       0.365737
    10198.878100       0.369641
    10209.290500       0.373560
    10219.724100       0.377494
    10230.179000       0.381442
    10240.655400       0.385405
    10251.153300       0.389381
    10261.672700       0.393371
    10272.213700       0.397375
    10282.776300       0.401391
    10293.360800       0.405420
    10303.967000       0.409462
    10314.595200       0.413516
    10325.245200       0.417581
    10335.917300       0.421659
    10346.611500       0.425747
    10357.327800       0.429847
    10368.066400       0.433957
    10378.827200       0.438077
    10389.610400       0.442208
    10400.416000       0.446348
    10411.244100       0.450497
    10422.094800       0.454656
    10432.968200       0.458823
    10443.864200       0.462998
    10454.783100       0.467181
    10465.724800       0.471372
    10476.689400       0.475570
    10487.677000       0.479776
    10498.687700       0.483988
    10509.721500       0.488206
    10520.778500       0.492429
    10531.858900       0.496659
    10542.962600       0.500893
    10554.089700       0.505133
    10565.240400       0.509376
    10576.414600       0.513624
    10587.612500       0.517876
    10598.834100       0.522131
    10610.079600       0.526388
    10621.348900       0.530648
    10632.642200       0.534911
    10643.959600       0.539175
    10655.301000       0.543441
    10666.666700       0.547707
    10678.056600       0.551975
    10689.470900       0.556242
    10700.909600       0.560510
    10712.372800       0.564777
    10723.860600       0.569042
    10735.373100       0.573307
    10746.910300       0.577570
    10758.472300       0.581831
    10770.059200       0.586089
    10781.671200       0.590345
    10793.308100       0.594597
    10804.970300       0.598845
    10816.657700       0.603090
    10828.370300       0.607329
    10840.108400       0.611564
    10851.871900       0.615794
    10863.661100       0.620018
    10875.475800       0.624236
    10887.316300       0.628447
    10899.182600       0.632651
    10911.074700       0.636849
    10922.992900       0.641038
    10934.937100       0.645219
    10946.907500       0.649392
    10958.904100       0.653556
    10970.927000       0.657710
    10982.976400       0.661855
    10995.052200       0.665990
    11007.154700       0.670114
    11019.283700       0.674227
    11031.439600       0.678329
    11043.622300       0.682419
    11055.832000       0.686497
    11068.068600       0.690562
    11080.332400       0.694615
    11092.623400       0.698654
    11104.941700       0.702679
    11117.287400       0.706691
    11129.660500       0.710687
    11142.061300       0.714669
    11154.489700       0.718636
    11166.945800       0.722587
    11179.429800       0.726522
    11191.941800       0.730440
    11204.481800       0.734342
    11217.049900       0.738226
    11229.646300       0.742093
    11242.270900       0.745942
    11254.924000       0.749773
    11267.605600       0.753585
    11280.315800       0.757377
    11293.054800       0.761151
    11305.822500       0.764904
    11318.619100       0.768638
    11331.444800       0.772351
    11344.299500       0.776042
    11357.183400       0.779713
    11370.096600       0.783362
    11383.039300       0.786989
    11396.011400       0.790594
    11409.013100       0.794176
    11422.044500       0.797736
    11435.105800       0.801272
    11448.196900       0.804784
    11461.318100       0.808272
    11474.469300       0.811736
    11487.650800       0.815176
    11500.862600       0.818590
    11514.104800       0.821979
    11527.377500       0.825343
    11540.680900       0.828681
    11554.015000       0.831992
    11567.380000       0.835277
    11580.775900       0.838535
    11594.202900       0.841766
    11607.661100       0.844970
    11621.150500       0.848146
    11634.671300       0.851295
    11648.223600       0.854415
    11661.807600       0.857506
    11675.423200       0.860569
    11689.070700       0.863602
    11702.750100       0.866607
    11716.461600       0.869582
    11730.205300       0.872527
    11743.981200       0.875442
    11757.789500       0.878327
    11771.630400       0.881181
    11785.503800       0.884004
    11799.410000       0.886797
    11813.349100       0.889558
    11827.321100       0.892288
    11841.326200       0.894986
    11855.364600       0.897653
    11869.436200       0.900288
    11883.541300       0.902890
    11897.680000       0.905460
    11911.852300       0.907997
    11926.058400       0.910501
    11940.298500       0.912973
    11954.572600       0.915411
    11968.880900       0.917816
    11983.223500       0.920188
    11997.600500       0.922526
    12012.012000       0.924830
    12026.458200       0.927101
    12040.939200       0.929337
    12055.455100       0.931539
    12070.006000       0.933708
    12084.592100       0.935841
    12099.213600       0.937940
    12113.870400       0.940004
    12128.562800       0.942034
    12143.290800       0.944029
    12158.054700       0.945989
    12172.854500       0.947914
    12187.690400       0.949804
    12202.562500       0.951659
    12217.471000       0.953478
    12232.415900       0.955263
    12247.397400       0.957011
    12262.415700       0.958725
    12277.470800       0.960403
    12292.563000       0.962046
    12307.692300       0.963653
    12322.858900       0.965225
    12338.062900       0.966761
    12353.304500       0.968262
    12368.583800       0.969727
    12383.900900       0.971156
    12399.256000       0.972550
    12414.649300       0.973909
    12430.080800       0.975231
    12445.550700       0.976519
    12461.059200       0.977771
    12476.606400       0.978987
    12492.192400       0.980169
    12507.817400       0.981315
    12523.481500       0.982425
    12539.185000       0.983500
    12554.927800       0.984541
    12570.710200       0.985546
    12586.532400       0.986516
    12602.394500       0.987451
    12618.296500       0.988352
    12634.238800       0.989217
    12650.221400       0.990049
    12666.244500       0.990845
    12682.308200       0.991607
    12698.412700       0.992335
    12714.558200       0.993029
    12730.744700       0.993689
    12746.972600       0.994315
    12763.241900       0.994907
    12779.552700       0.995466
    12795.905300       0.995991
    12812.299800       0.996483
    12828.736400       0.996942
    12845.215200       0.997368
    12861.736300       0.997761
    12878.300100       0.998122
    12894.906500       0.998450
    12911.555800       0.998746
    12928.248200       0.999010
    12944.983800       0.999243
    12961.762800       0.999444
    12978.585300       0.999614
    12995.451600       0.999752
    13012.361700       0.999860
    13029.316000       0.999937
    13046.314400       0.999983
    13063.357300       1.000000
    13080.444700       0.999987
    13097.576900       0.999944
    13114.754100       0.999871
    13131.976400       0.999770
    13149.243900       0.999639
    13166.556900       0.999480
    13183.915600       0.999293
    13201.320100       0.999078
    13218.770700       0.998835
    13236.267400       0.998565
    13253.810500       0.998267
    13271.400100       0.997943
    13289.036500       0.997592
    13306.719900       0.997215
    13324.450400       0.996812
    13342.228200       0.996384
    13360.053400       0.995930
    13377.926400       0.995452
    13395.847300       0.994948
    13413.816200       0.994421
    13431.833400       0.993870
    13449.899100       0.993295
    13468.013500       0.992697
    13486.176700       0.992076
    13504.388900       0.991432
    13522.650400       0.990766
    13540.961400       0.990079
    13559.322000       0.989370
    13577.732500       0.988640
    13596.193100       0.987890
    13614.703900       0.987119
    13633.265200       0.986328
    13651.877100       0.985518
    13670.540000       0.984688
    13689.253900       0.983840
    13708.019200       0.982973
    13726.836000       0.982088
    13745.704500       0.981186
    13764.624900       0.980266
    13783.597500       0.979330
    13802.622500       0.978377
    13821.700100       0.977408
    13840.830400       0.976424
    13860.013900       0.975424
    13879.250500       0.974409
    13898.540700       0.973380
    13917.884500       0.972337
    13937.282200       0.971281
    13956.734100       0.970211
    13976.240400       0.969129
    13995.801300       0.968034
    14015.417000       0.966927
    14035.087700       0.965809
    14054.813800       0.964680
    14074.595400       0.963540
    14094.432700       0.962390
    14114.326000       0.961230
    14134.275600       0.960060
    14154.281700       0.958882
    14174.344400       0.957695
    14194.464200       0.956499
    14214.641100       0.955296
    14234.875400       0.954086
    14255.167500       0.952869
    14275.517500       0.951645
    14295.925700       0.950415
    14316.392300       0.949180
    14336.917600       0.947939
    14357.501800       0.946694
    14378.145200       0.945444
    14398.848100       0.944190
    14419.610700       0.942932
    14440.433200       0.941672
    14461.316000       0.940408
    14482.259200       0.939143
    14503.263200       0.937875
    14524.328200       0.936606
    14545.454500       0.935335
    14566.642400       0.934064
    14587.892000       0.932793
    14609.203800       0.931521
    14630.577900       0.930250
    14652.014700       0.928980
    14673.514300       0.927711
    14695.077100       0.926443
    14716.703500       0.925178
    14738.393500       0.923915
    14760.147600       0.922654
    14781.966000       0.921397
    14803.849000       0.920143
    14825.796900       0.918893
    14847.809900       0.917647
    14869.888500       0.916406
    14892.032800       0.915170
    14914.243100       0.913938
    14936.519800       0.912713
    14958.863100       0.911493
    14981.273400       0.910280
    15003.750900       0.909073
    15026.296000       0.907874
    15048.909000       0.906681
    15071.590100       0.905496
    15094.339600       0.904319
    15117.158000       0.903150
    15140.045400       0.901990
    15163.002300       0.900838
    15186.028900       0.899696
    15209.125500       0.898562
    15232.292500       0.897439
    15255.530100       0.896325
    15278.838800       0.895222
    15302.218800       0.894129
    15325.670500       0.893047
    15349.194200       0.891975
    15372.790200       0.890915
    15396.458800       0.889867
    15420.200500       0.888830
    15444.015400       0.887805
    15467.904100       0.886792
    15491.866800       0.885791
    15515.903800       0.884803
    15540.015500       0.883827
    15564.202300       0.882865
    15588.464500       0.881916
    15612.802500       0.880980
    15637.216600       0.880057
    15661.707100       0.879148
    15686.274500       0.878253
    15710.919100       0.877371
    15735.641200       0.876504
    15760.441300       0.875651
    15785.319700       0.874812
    15810.276700       0.873987
    15835.312700       0.873177
    15860.428200       0.872382
    15885.623500       0.871601
    15910.899000       0.870835
    15936.255000       0.870084
    15961.691900       0.869347
    15987.210200       0.868626
    16012.810200       0.867920
    16038.492400       0.867228
    16064.257000       0.866552
    16090.104600       0.865891
    16116.035500       0.865245
    16142.050000       0.864614
    16168.148700       0.863998
    16194.332000       0.863397
    16220.600200       0.862811
    16246.953700       0.862240
    16273.393000       0.861684
    16299.918500       0.861143
    16326.530600       0.860616
    16353.229800       0.860105
    16380.016400       0.859608
    16406.890900       0.859125
    16433.853700       0.858657
    16460.905300       0.858204
    16488.046200       0.857764
    16515.276600       0.857339
    16542.597200       0.856927
    16570.008300       0.856530
    16597.510400       0.856145
    16625.103900       0.855775
    16652.789300       0.855417
    16680.567100       0.855072
    16708.437800       0.854741
    16736.401700       0.854422
    16764.459300       0.854115
    16792.611300       0.853820
    16820.857900       0.853537
    16849.199700       0.853266
    16877.637100       0.853006
    16906.170800       0.852758
    16934.801000       0.852520
    16963.528400       0.852292
    16992.353400       0.852075
    17021.276600       0.851867
    17050.298400       0.851669
    17079.419300       0.851480
    17108.639900       0.851300
    17137.960600       0.851129
    17167.382000       0.850965
    17196.904600       0.850809
    17226.528900       0.850661
    17256.255400       0.850519
    17286.084700       0.850384
