15, GOES 12.3um ABI FM4 SRF CWG processed March 10, 2016
Number of data points:
1415
Wavenumber (cm-1)   Filter response
      754.400000       0.001054
      754.500000       0.001119
      754.600000       0.001159
      754.700000       0.001197
      754.800000       0.001235
      754.900000       0.001274
      755.000000       0.001312
      755.100000       0.001351
      755.200000       0.001389
      755.300000       0.001428
      755.400000       0.001466
      755.500000       0.001596
      755.600000       0.001740
      755.700000       0.001885
      755.800000       0.002029
      755.900000       0.002173
      756.000000       0.002318
      756.100000       0.002463
      756.200000       0.002608
      756.300000       0.002761
      756.400000       0.002775
      756.500000       0.002675
      756.600000       0.002579
      756.700000       0.002482
      756.800000       0.002385
      756.900000       0.002288
      757.000000       0.002191
      757.100000       0.002094
      757.200000       0.001995
      757.300000       0.001932
      757.400000       0.002077
      757.500000       0.002214
      757.600000       0.002351
      757.700000       0.002488
      757.800000       0.002624
      757.900000       0.002761
      758.000000       0.002897
      758.100000       0.003034
      758.200000       0.003169
      758.300000       0.003252
      758.400000       0.003321
      758.500000       0.003390
      758.600000       0.003459
      758.700000       0.003527
      758.800000       0.003597
      758.900000       0.003666
      759.000000       0.003734
      759.100000       0.003805
      759.200000       0.003821
      759.300000       0.003774
      759.400000       0.003729
      759.500000       0.003685
      759.600000       0.003640
      759.700000       0.003596
      759.800000       0.003551
      759.900000       0.003507
      760.000000       0.003463
      760.100000       0.003416
      760.200000       0.003357
      760.300000       0.003297
      760.400000       0.003238
      760.500000       0.003178
      760.600000       0.003118
      760.700000       0.003059
      760.800000       0.002999
      760.900000       0.002940
      761.000000       0.002895
      761.100000       0.002996
      761.200000       0.003159
      761.300000       0.003322
      761.400000       0.003486
      761.500000       0.003649
      761.600000       0.003812
      761.700000       0.003976
      761.800000       0.004140
      761.900000       0.004304
      762.000000       0.004414
      762.100000       0.004456
      762.200000       0.004498
      762.300000       0.004541
      762.400000       0.004583
      762.500000       0.004625
      762.600000       0.004668
      762.700000       0.004711
      762.800000       0.004756
      762.900000       0.004754
      763.000000       0.004568
      763.100000       0.004362
      763.200000       0.004155
      763.300000       0.003949
      763.400000       0.003741
      763.500000       0.003534
      763.600000       0.003326
      763.700000       0.003118
      763.800000       0.002896
      763.900000       0.002985
      764.000000       0.003160
      764.100000       0.003335
      764.200000       0.003510
      764.300000       0.003684
      764.400000       0.003859
      764.500000       0.004035
      764.600000       0.004210
      764.700000       0.004387
      764.800000       0.004570
      764.900000       0.004762
      765.000000       0.004955
      765.100000       0.005148
      765.200000       0.005341
      765.300000       0.005534
      765.400000       0.005727
      765.500000       0.005921
      765.600000       0.006114
      765.700000       0.006310
      765.800000       0.006544
      765.900000       0.006778
      766.000000       0.007012
      766.100000       0.007247
      766.200000       0.007482
      766.300000       0.007717
      766.400000       0.007951
      766.500000       0.008186
      766.600000       0.008414
      766.700000       0.008513
      766.800000       0.008542
      766.900000       0.008572
      767.000000       0.008602
      767.100000       0.008632
      767.200000       0.008662
      767.300000       0.008693
      767.400000       0.008722
      767.500000       0.008753
      767.600000       0.008863
      767.700000       0.009165
      767.800000       0.009454
      767.900000       0.009745
      768.000000       0.010035
      768.100000       0.010324
      768.200000       0.010615
      768.300000       0.010906
      768.400000       0.011198
      768.500000       0.011508
      768.600000       0.011927
      768.700000       0.012363
      768.800000       0.012800
      768.900000       0.013236
      769.000000       0.013671
      769.100000       0.014108
      769.200000       0.014542
      769.300000       0.014976
      769.400000       0.015410
      769.500000       0.015861
      769.600000       0.016321
      769.700000       0.016783
      769.800000       0.017243
      769.900000       0.017704
      770.000000       0.018167
      770.100000       0.018629
      770.200000       0.019092
      770.300000       0.019556
      770.400000       0.020004
      770.500000       0.020429
      770.600000       0.020853
      770.700000       0.021278
      770.800000       0.021702
      770.900000       0.022126
      771.000000       0.022553
      771.100000       0.022978
      771.200000       0.023378
      771.300000       0.023788
      771.400000       0.024451
      771.500000       0.025216
      771.600000       0.025980
      771.700000       0.026745
      771.800000       0.027511
      771.900000       0.028278
      772.000000       0.029045
      772.100000       0.029817
      772.200000       0.030586
      772.300000       0.031355
      772.400000       0.032132
      772.500000       0.032919
      772.600000       0.033706
      772.700000       0.034493
      772.800000       0.035278
      772.900000       0.036059
      773.000000       0.036844
      773.100000       0.037624
      773.200000       0.038407
      773.300000       0.039184
      773.400000       0.040069
      773.500000       0.041127
      773.600000       0.042186
      773.700000       0.043246
      773.800000       0.044301
      773.900000       0.045358
      774.000000       0.046414
      774.100000       0.047449
      774.200000       0.048453
      774.300000       0.049456
      774.400000       0.050498
      774.500000       0.051865
      774.600000       0.053295
      774.700000       0.054730
      774.800000       0.056162
      774.900000       0.057594
      775.000000       0.059032
      775.100000       0.060472
      775.200000       0.061908
      775.300000       0.063351
      775.400000       0.064787
      775.500000       0.066337
      775.600000       0.068343
      775.700000       0.070386
      775.800000       0.072429
      775.900000       0.074474
      776.000000       0.076523
      776.100000       0.078576
      776.200000       0.080631
      776.300000       0.082689
      776.400000       0.084741
      776.500000       0.086793
      776.600000       0.088916
      776.700000       0.091155
      776.800000       0.093398
      776.900000       0.095637
      777.000000       0.097869
      777.100000       0.100108
      777.200000       0.102346
      777.300000       0.104585
      777.400000       0.106823
      777.500000       0.109057
      777.600000       0.111300
      777.700000       0.113823
      777.800000       0.116648
      777.900000       0.119466
      778.000000       0.122281
      778.100000       0.125094
      778.200000       0.127907
      778.300000       0.130715
      778.400000       0.133520
      778.500000       0.136323
      778.600000       0.139124
      778.700000       0.141934
      778.800000       0.145235
      778.900000       0.148814
      779.000000       0.152385
      779.100000       0.155950
      779.200000       0.159509
      779.300000       0.163070
      779.400000       0.166629
      779.500000       0.170184
      779.600000       0.173734
      779.700000       0.177280
      779.800000       0.180910
      779.900000       0.185107
      780.000000       0.189468
      780.100000       0.193825
      780.200000       0.198180
      780.300000       0.202532
      780.400000       0.206878
      780.500000       0.211194
      780.600000       0.215529
      780.700000       0.219832
      780.800000       0.224128
      780.900000       0.228646
      781.000000       0.233710
      781.100000       0.238825
      781.200000       0.243911
      781.300000       0.249003
      781.400000       0.254116
      781.500000       0.259224
      781.600000       0.264303
      781.700000       0.269403
      781.800000       0.274498
      781.900000       0.279540
      782.000000       0.284917
      782.100000       0.290534
      782.200000       0.296088
      782.300000       0.301638
      782.400000       0.307188
      782.500000       0.312738
      782.600000       0.318297
      782.700000       0.323859
      782.800000       0.329430
      782.900000       0.335006
      783.000000       0.340574
      783.100000       0.346315
      783.200000       0.352326
      783.300000       0.358352
      783.400000       0.364336
      783.500000       0.370360
      783.600000       0.376364
      783.700000       0.382346
      783.800000       0.388344
      783.900000       0.394345
      784.000000       0.400304
      784.100000       0.406242
      784.200000       0.412333
      784.300000       0.418743
      784.400000       0.425158
      784.500000       0.431610
      784.600000       0.437996
      784.700000       0.444371
      784.800000       0.450778
      784.900000       0.457136
      785.000000       0.463549
      785.100000       0.469897
      785.200000       0.476303
      785.300000       0.482691
      785.400000       0.489215
      785.500000       0.495715
      785.600000       0.502263
      785.700000       0.508811
      785.800000       0.515368
      785.900000       0.521898
      786.000000       0.528387
      786.100000       0.534955
      786.200000       0.541523
      786.300000       0.548085
      786.400000       0.554651
      786.500000       0.561225
      786.600000       0.567807
      786.700000       0.574444
      786.800000       0.581020
      786.900000       0.587592
      787.000000       0.594235
      787.100000       0.600808
      787.200000       0.607450
      787.300000       0.614032
      787.400000       0.620692
      787.500000       0.627290
      787.600000       0.633816
      787.700000       0.640194
      787.800000       0.646544
      787.900000       0.652822
      788.000000       0.659178
      788.100000       0.665527
      788.200000       0.671890
      788.300000       0.678165
      788.400000       0.684518
      788.500000       0.690922
      788.600000       0.697307
      788.700000       0.703618
      788.800000       0.709444
      788.900000       0.715025
      789.000000       0.720714
      789.100000       0.726207
      789.200000       0.731638
      789.300000       0.737226
      789.400000       0.742852
      789.500000       0.748464
      789.600000       0.754175
      789.700000       0.759772
      789.800000       0.765494
      789.900000       0.771150
      790.000000       0.776353
      790.100000       0.781329
      790.200000       0.786394
      790.300000       0.791284
      790.400000       0.796247
      790.500000       0.801184
      790.600000       0.806126
      790.700000       0.811047
      790.800000       0.815965
      790.900000       0.820894
      791.000000       0.825818
      791.100000       0.830674
      791.200000       0.834760
      791.300000       0.838632
      791.400000       0.842455
      791.500000       0.846238
      791.600000       0.850018
      791.700000       0.853788
      791.800000       0.857543
      791.900000       0.861281
      792.000000       0.865092
      792.100000       0.868838
      792.200000       0.872563
      792.300000       0.876281
      792.400000       0.879580
      792.500000       0.882676
      792.600000       0.885776
      792.700000       0.888879
      792.800000       0.891995
      792.900000       0.895110
      793.000000       0.898153
      793.100000       0.901206
      793.200000       0.904231
      793.300000       0.907328
      793.400000       0.910420
      793.500000       0.913336
      793.600000       0.915878
      793.700000       0.918131
      793.800000       0.920337
      793.900000       0.922694
      794.000000       0.925045
      794.100000       0.927390
      794.200000       0.929740
      794.300000       0.932086
      794.400000       0.934427
      794.500000       0.936776
      794.600000       0.939118
      794.700000       0.941470
      794.800000       0.943445
      794.900000       0.945361
      795.000000       0.947192
      795.100000       0.949006
      795.200000       0.950702
      795.300000       0.952498
      795.400000       0.954271
      795.500000       0.956035
      795.600000       0.957791
      795.700000       0.959524
      795.800000       0.961239
      795.900000       0.962822
      796.000000       0.963797
      796.100000       0.964497
      796.200000       0.965181
      796.300000       0.965850
      796.400000       0.966498
      796.500000       0.967135
      796.600000       0.967763
      796.700000       0.968280
      796.800000       0.968524
      796.900000       0.968598
      797.000000       0.968678
      797.100000       0.968716
      797.200000       0.968492
      797.300000       0.968110
      797.400000       0.967617
      797.500000       0.967239
      797.600000       0.966864
      797.700000       0.966506
      797.800000       0.966097
      797.900000       0.965595
      798.000000       0.965179
      798.100000       0.964811
      798.200000       0.964499
      798.300000       0.964192
      798.400000       0.963714
      798.500000       0.963138
      798.600000       0.962564
      798.700000       0.961983
      798.800000       0.961531
      798.900000       0.961002
      799.000000       0.960512
      799.100000       0.960029
      799.200000       0.959556
      799.300000       0.959075
      799.400000       0.958574
      799.500000       0.958076
      799.600000       0.957481
      799.700000       0.956859
      799.800000       0.956279
      799.900000       0.955614
      800.000000       0.955061
      800.100000       0.954388
      800.200000       0.953717
      800.300000       0.953098
      800.400000       0.952445
      800.500000       0.951812
      800.600000       0.951202
      800.700000       0.950558
      800.800000       0.949753
      800.900000       0.948816
      801.000000       0.947918
      801.100000       0.947029
      801.200000       0.946007
      801.300000       0.945096
      801.400000       0.944064
      801.500000       0.943040
      801.600000       0.942007
      801.700000       0.941069
      801.800000       0.940024
      801.900000       0.938815
      802.000000       0.937737
      802.100000       0.936671
      802.200000       0.935608
      802.300000       0.934457
      802.400000       0.933368
      802.500000       0.932337
      802.600000       0.931572
      802.700000       0.930903
      802.800000       0.930238
      802.900000       0.929584
      803.000000       0.928930
      803.100000       0.928270
      803.200000       0.927669
      803.300000       0.927259
      803.400000       0.926863
      803.500000       0.926471
      803.600000       0.925968
      803.700000       0.925575
      803.800000       0.925185
      803.900000       0.924787
      804.000000       0.924392
      804.100000       0.923991
      804.200000       0.923599
      804.300000       0.923206
      804.400000       0.922835
      804.500000       0.922632
      804.600000       0.922361
      804.700000       0.922124
      804.800000       0.921923
      804.900000       0.921776
      805.000000       0.921667
      805.100000       0.921632
      805.200000       0.921706
      805.300000       0.921669
      805.400000       0.921794
      805.500000       0.921982
      805.600000       0.922283
      805.700000       0.922597
      805.800000       0.922900
      805.900000       0.923196
      806.000000       0.923604
      806.100000       0.923918
      806.200000       0.924324
      806.300000       0.924602
      806.400000       0.924866
      806.500000       0.925150
      806.600000       0.925339
      806.700000       0.925424
      806.800000       0.925649
      806.900000       0.925642
      807.000000       0.925687
      807.100000       0.925730
      807.200000       0.925664
      807.300000       0.925607
      807.400000       0.925601
      807.500000       0.925595
      807.600000       0.925529
      807.700000       0.925499
      807.800000       0.925494
      807.900000       0.925358
      808.000000       0.925329
      808.100000       0.925368
      808.200000       0.925419
      808.300000       0.925524
      808.400000       0.925701
      808.500000       0.925934
      808.600000       0.926441
      808.700000       0.926896
      808.800000       0.927369
      808.900000       0.927784
      809.000000       0.928326
      809.100000       0.928779
      809.200000       0.929280
      809.300000       0.929897
      809.400000       0.930507
      809.500000       0.931142
      809.600000       0.931814
      809.700000       0.932562
      809.800000       0.933266
      809.900000       0.933989
      810.000000       0.934739
      810.100000       0.935522
      810.200000       0.936194
      810.300000       0.936993
      810.400000       0.937811
      810.500000       0.938907
      810.600000       0.940062
      810.700000       0.941323
      810.800000       0.942481
      810.900000       0.943618
      811.000000       0.944792
      811.100000       0.945811
      811.200000       0.946697
      811.300000       0.947794
      811.400000       0.948748
      811.500000       0.949791
      811.600000       0.950673
      811.700000       0.951628
      811.800000       0.952450
      811.900000       0.953278
      812.000000       0.954182
      812.100000       0.954998
      812.200000       0.955812
      812.300000       0.956642
      812.400000       0.957526
      812.500000       0.958323
      812.600000       0.959118
      812.700000       0.959911
      812.800000       0.960672
      812.900000       0.961279
      813.000000       0.961814
      813.100000       0.962338
      813.200000       0.962933
      813.300000       0.963426
      813.400000       0.963890
      813.500000       0.964348
      813.600000       0.964793
      813.700000       0.965217
      813.800000       0.965612
      813.900000       0.966002
      814.000000       0.966403
      814.100000       0.966993
      814.200000       0.967394
      814.300000       0.967897
      814.400000       0.968391
      814.500000       0.968841
      814.600000       0.969419
      814.700000       0.969981
      814.800000       0.970537
      814.900000       0.971097
      815.000000       0.971648
      815.100000       0.972254
      815.200000       0.972848
      815.300000       0.973504
      815.400000       0.974166
      815.500000       0.974901
      815.600000       0.975634
      815.700000       0.976286
      815.800000       0.977006
      815.900000       0.977710
      816.000000       0.978398
      816.100000       0.979073
      816.200000       0.979748
      816.300000       0.980344
      816.400000       0.980981
