8,   SBG channel 8 from srf_082024.csv
Number of data points:
1648
Wavenumber (cm-1)   Filter response
      774.473400       0.000495
      774.533300       0.000498
      774.593300       0.000501
      774.653300       0.000505
      774.713400       0.000508
      774.773400       0.000512
      774.833400       0.000515
      774.893500       0.000519
      774.953500       0.000522
      775.013500       0.000526
      775.073600       0.000530
      775.133700       0.000533
      775.193800       0.000537
      775.253900       0.000541
      775.314000       0.000545
      775.374100       0.000548
      775.434300       0.000552
      775.494300       0.000556
      775.554500       0.000560
      775.614700       0.000564
      775.674800       0.000568
      775.735000       0.000572
      775.795200       0.000576
      775.855400       0.000580
      775.915600       0.000584
      775.975800       0.000588
      776.036000       0.000592
      776.096300       0.000597
      776.156500       0.000601
      776.216700       0.000605
      776.277000       0.000609
      776.337300       0.000614
      776.397500       0.000618
      776.457800       0.000623
      776.518100       0.000627
      776.578400       0.000632
      776.638700       0.000636
      776.699000       0.000641
      776.759400       0.000645
      776.819700       0.000650
      776.880100       0.000655
      776.940400       0.000660
      777.000800       0.000664
      777.061200       0.000669
      777.121500       0.000674
      777.181900       0.000679
      777.242300       0.000684
      777.302800       0.000689
      777.363200       0.000694
      777.423600       0.000699
      777.484000       0.000704
      777.544500       0.000710
      777.605000       0.000715
      777.665500       0.000720
      777.726000       0.000725
      777.786400       0.000731
      777.846900       0.000736
      777.907500       0.000742
      777.968000       0.000747
      778.028500       0.000753
      778.089000       0.000758
      778.149600       0.000764
      778.210100       0.000770
      778.270700       0.000776
      778.331300       0.000782
      778.391800       0.000788
      778.452500       0.000794
      778.513000       0.000799
      778.573700       0.000806
      778.634300       0.000812
      778.694900       0.000818
      778.755600       0.000824
      778.816200       0.000830
      778.876900       0.000837
      778.937500       0.000843
      778.998200       0.000850
      779.058900       0.000856
      779.119600       0.000863
      779.180300       0.000870
      779.241000       0.000876
      779.301800       0.000883
      779.362500       0.000890
      779.423200       0.000897
      779.483900       0.000904
      779.544700       0.000911
      779.605500       0.000918
      779.666300       0.000925
      779.727100       0.000932
      779.787900       0.000940
      779.848700       0.000947
      779.909500       0.000954
      779.970300       0.000962
      780.031200       0.000970
      780.092000       0.000977
      780.152900       0.000985
      780.213700       0.000993
      780.274700       0.001001
      780.335600       0.001009
      780.396400       0.001017
      780.457300       0.001025
      780.518200       0.001033
      780.579200       0.001041
      780.640100       0.001050
      780.701000       0.001058
      780.762000       0.001067
      780.823000       0.001075
      780.884000       0.001084
      780.944900       0.001093
      781.005900       0.001101
      781.066900       0.001110
      781.127900       0.001119
      781.189000       0.001129
      781.250000       0.001138
      781.311000       0.001147
      781.372100       0.001156
      781.433200       0.001166
      781.494300       0.001175
      781.555300       0.001185
      781.616400       0.001195
      781.677500       0.001205
      781.738600       0.001215
      781.799700       0.001225
      781.860800       0.001235
      781.922000       0.001245
      781.983100       0.001256
      782.044300       0.001266
      782.105400       0.001277
      782.166600       0.001287
      782.227800       0.001298
      782.289000       0.001309
      782.350200       0.001320
      782.411400       0.001331
      782.472700       0.001342
      782.533800       0.001354
      782.595100       0.001365
      782.656300       0.001377
      782.717600       0.001388
      782.778900       0.001400
      782.840100       0.001412
      782.901400       0.001424
      782.962700       0.001436
      783.024000       0.001449
      783.085300       0.001461
      783.146700       0.001474
      783.208100       0.001486
      783.269300       0.001499
      783.330700       0.001512
      783.392100       0.001525
      783.453500       0.001538
      783.514900       0.001552
      783.576200       0.001565
      783.637700       0.001579
      783.699000       0.001593
      783.760500       0.001607
      783.821900       0.001621
      783.883400       0.001635
      783.944800       0.001649
      784.006300       0.001664
      784.067700       0.001678
      784.129200       0.001693
      784.190700       0.001708
      784.252200       0.001723
      784.313700       0.001738
      784.375200       0.001754
      784.436800       0.001770
      784.498400       0.001785
      784.559800       0.001801
      784.621400       0.001818
      784.683000       0.001834
      784.744600       0.001850
      784.806200       0.001867
      784.867700       0.001884
      784.929400       0.001901
      784.991000       0.001918
      785.052600       0.001935
      785.114200       0.001953
      785.175900       0.001971
      785.237500       0.001989
      785.299200       0.002007
      785.360900       0.002025
      785.422500       0.002044
      785.484300       0.002063
      785.546000       0.002081
      785.607700       0.002101
      785.669400       0.002120
      785.731100       0.002140
      785.792800       0.002159
      785.854600       0.002179
      785.916400       0.002200
      785.978100       0.002220
      786.039900       0.002241
      786.101700       0.002262
      786.163500       0.002283
      786.225300       0.002304
      786.287100       0.002326
      786.349000       0.002348
      786.410800       0.002370
      786.472700       0.002392
      786.534500       0.002415
      786.596400       0.002438
      786.658300       0.002461
      786.720200       0.002484
      786.782000       0.002508
      786.844000       0.002532
      786.905900       0.002556
      786.967800       0.002580
      787.029700       0.002605
      787.091700       0.002630
      787.153600       0.002655
      787.215600       0.002681
      787.277600       0.002707
      787.339500       0.002733
      787.401600       0.002759
      787.463600       0.002786
      787.525600       0.002813
      787.587600       0.002840
      787.649700       0.002868
      787.711700       0.002896
      787.773700       0.002924
      787.835800       0.002953
      787.897900       0.002982
      787.960000       0.003011
      788.022100       0.003041
      788.084200       0.003071
      788.146300       0.003102
      788.208400       0.003132
      788.270600       0.003163
      788.332600       0.003195
      788.394800       0.003227
      788.457000       0.003259
      788.519200       0.003291
      788.581400       0.003324
      788.643500       0.003358
      788.705700       0.003391
      788.767900       0.003425
      788.830100       0.003460
      788.892400       0.003495
      788.954700       0.003530
      789.016900       0.003566
      789.079100       0.003602
      789.141400       0.003639
      789.203700       0.003676
      789.266000       0.003714
      789.328300       0.003752
      789.390600       0.003790
      789.452900       0.003829
      789.515200       0.003868
      789.577600       0.003908
      789.640000       0.003948
      789.702300       0.003989
      789.764600       0.004031
      789.827000       0.004072
      789.889400       0.004115
      789.951800       0.004158
      790.014200       0.004201
      790.076700       0.004245
      790.139000       0.004289
      790.201500       0.004334
      790.263900       0.004380
      790.326400       0.004426
      790.388900       0.004473
      790.451400       0.004520
      790.513900       0.004568
      790.576300       0.004616
      790.638900       0.004665
      790.701400       0.004715
      790.763900       0.004765
      790.826400       0.004816
      790.889000       0.004868
      790.951500       0.004920
      791.014000       0.004973
      791.076700       0.005026
      791.139200       0.005080
      791.201800       0.005135
      791.264500       0.005191
      791.327000       0.005247
      791.389700       0.005304
      791.452300       0.005362
      791.515000       0.005420
      791.577600       0.005480
      791.640300       0.005540
      791.703000       0.005600
      791.765600       0.005662
      791.828400       0.005724
      791.891000       0.005787
      791.953700       0.005851
      792.016400       0.005916
      792.079200       0.005981
      792.142000       0.006048
      792.204700       0.006115
      792.267500       0.006183
      792.330200       0.006252
      792.393000       0.006322
      792.455800       0.006393
      792.518600       0.006465
      792.581500       0.006538
      792.644200       0.006612
      792.707100       0.006686
      792.769900       0.006762
      792.832800       0.006839
      792.895600       0.006916
      792.958500       0.006995
      793.021400       0.007075
      793.084300       0.007156
      793.147200       0.007237
      793.210100       0.007321
      793.273100       0.007405
      793.336000       0.007490
      793.398900       0.007576
      793.461900       0.007664
      793.524800       0.007752
      793.587800       0.007842
      793.650800       0.007934
      793.713800       0.008026
      793.776800       0.008120
      793.839800       0.008214
      793.902800       0.008311
      793.965800       0.008408
      794.028900       0.008507
      794.091900       0.008607
      794.155000       0.008709
      794.218100       0.008812
      794.281200       0.008916
      794.344300       0.009022
      794.407300       0.009129
      794.470500       0.009238
      794.533600       0.009348
      794.596700       0.009460
      794.659900       0.009573
      794.723000       0.009688
      794.786200       0.009805
      794.849400       0.009923
      794.912500       0.010043
      794.975700       0.010164
      795.038900       0.010288
      795.102200       0.010413
      795.165400       0.010539
      795.228600       0.010668
      795.291900       0.010798
      795.355100       0.010931
      795.418400       0.011065
      795.481600       0.011200
      795.545000       0.011338
      795.608200       0.011478
      795.671600       0.011620
      795.734900       0.011764
      795.798200       0.011910
      795.861600       0.012058
      795.924900       0.012209
      795.988200       0.012361
      796.051600       0.012516
      796.115000       0.012672
      796.178300       0.012832
      796.241800       0.012993
      796.305200       0.013157
      796.368500       0.013323
      796.432000       0.013492
      796.495400       0.013663
      796.558900       0.013836
      796.622300       0.014013
      796.685800       0.014191
      796.749300       0.014373
      796.812700       0.014557
      796.876300       0.014744
      796.939800       0.014933
      797.003300       0.015126
      797.066800       0.015321
      797.130300       0.015519
      797.193900       0.015720
      797.257400       0.015924
      797.321000       0.016132
      797.384600       0.016342
      797.448200       0.016555
      797.511800       0.016772
      797.575400       0.016992
      797.639000       0.017216
      797.702600       0.017442
      797.766200       0.017672
      797.829900       0.017906
      797.893600       0.018143
      797.957300       0.018384
      798.020900       0.018629
      798.084600       0.018877
      798.148300       0.019129
      798.212000       0.019385
      798.275700       0.019645
      798.339500       0.019909
      798.403200       0.020177
      798.466900       0.020449
      798.530700       0.020725
      798.594500       0.021006
      798.658300       0.021291
      798.722000       0.021581
      798.785800       0.021875
      798.849700       0.022173
      798.913500       0.022477
      798.977300       0.022785
      799.041100       0.023098
      799.105000       0.023415
      799.168900       0.023738
      799.232700       0.024066
      799.296600       0.024399
      799.360500       0.024738
      799.424400       0.025082
      799.488300       0.025431
      799.552200       0.025786
      799.616200       0.026146
      799.680100       0.026513
      799.744100       0.026885
      799.808000       0.027263
      799.872000       0.027648
      799.936000       0.028038
      800.000000       0.028435
      800.064000       0.028838
      800.128000       0.029248
      800.192100       0.029664
      800.256000       0.030087
      800.320100       0.030517
      800.384200       0.030954
      800.448200       0.031398
      800.512300       0.031849
      800.576400       0.032308
      800.640500       0.032774
      800.704600       0.033248
      800.768700       0.033730
      800.832800       0.034219
      800.897000       0.034717
      800.961200       0.035223
      801.025300       0.035737
      801.089500       0.036260
      801.153600       0.036792
      801.217800       0.037332
      801.282100       0.037882
      801.346300       0.038440
      801.410500       0.039008
      801.474700       0.039586
      801.538900       0.040173
      801.603200       0.040770
      801.667500       0.041377
      801.731800       0.041994
      801.796000       0.042622
      801.860400       0.043260
      801.924600       0.043909
      801.989000       0.044569
      802.053200       0.045240
      802.117600       0.045923
      802.181900       0.046617
      802.246300       0.047323
      802.310700       0.048041
      802.375000       0.048771
      802.439500       0.049514
      802.503800       0.050269
      802.568200       0.051038
      802.632600       0.051819
      802.697000       0.052614
      802.761500       0.053423
      802.825900       0.054245
      802.890400       0.055082
      802.954800       0.055933
      803.019300       0.056799
      803.083900       0.057680
      803.148300       0.058576
      803.212900       0.059488
      803.277300       0.060415
      803.341900       0.061358
      803.406500       0.062318
      803.471000       0.063295
      803.535600       0.064288
      803.600100       0.065299
      803.664700       0.066328
      803.729300       0.067374
      803.793900       0.068439
      803.858500       0.069522
      803.923200       0.070624
      803.987800       0.071746
      804.052400       0.072887
      804.117100       0.074048
      804.181700       0.075229
      804.246400       0.076432
      804.311200       0.077655
      804.375800       0.078900
      804.440600       0.080166
      804.505200       0.081455
      804.569900       0.082766
      804.634600       0.084101
      804.699500       0.085459
      804.764200       0.086841
      804.829000       0.088247
      804.893700       0.089678
      804.958500       0.091134
      805.023400       0.092616
      805.088200       0.094123
      805.153000       0.095658
      805.217800       0.097219
      805.282700       0.098808
      805.347500       0.100424
      805.412400       0.102069
      805.477200       0.103743
      805.542200       0.105447
      805.607000       0.107180
      805.671900       0.108944
      805.736800       0.110738
      805.801800       0.112564
      805.866700       0.114422
      805.931600       0.116313
      805.996600       0.118236
      806.061600       0.120193
      806.126600       0.122184
      806.191500       0.124210
      806.256500       0.126271
      806.321500       0.128368
      806.386600       0.130502
      806.451700       0.132672
      806.516700       0.134879
      806.581700       0.137124
      806.646700       0.139408
      806.711900       0.141731
      806.776900       0.144094
      806.842000       0.146497
      806.907200       0.148942
      806.972200       0.151428
      807.037400       0.153956
      807.102500       0.156528
      807.167700       0.159143
      807.232800       0.161802
      807.298000       0.164505
      807.363200       0.167254
      807.428300       0.170050
      807.493500       0.172891
      807.558700       0.175780
      807.624000       0.178717
      807.689200       0.181702
      807.754500       0.184736
      807.819700       0.187820
      807.884900       0.190954
      807.950300       0.194139
      808.015500       0.197375
      808.080800       0.200663
      808.146100       0.204004
      808.211400       0.207398
      808.276800       0.210845
      808.342000       0.214347
      808.407500       0.217904
      808.472800       0.221515
      808.538100       0.225183
      808.603600       0.228907
      808.668900       0.232688
      808.734400       0.236526
      808.799700       0.240422
      808.865200       0.244376
      808.930500       0.248388
      808.996000       0.252460
      809.061500       0.256590
      809.127000       0.260781
      809.192400       0.265031
      809.257900       0.269342
      809.323400       0.273713
      809.388900       0.278145
      809.454400       0.282638
      809.520000       0.287192
      809.585400       0.291808
      809.651100       0.296485
      809.716600       0.301224
      809.782200       0.306024
      809.847800       0.310886
      809.913300       0.315810
      809.978900       0.320795
      810.044600       0.325841
      810.110200       0.330948
      810.175800       0.336117
      810.241500       0.341347
      810.307100       0.346636
      810.372700       0.351987
      810.438500       0.357396
      810.504100       0.362866
      810.569800       0.368394
      810.635500       0.373980
      810.701200       0.379624
      810.767000       0.385324
      810.832700       0.391081
      810.898500       0.396894
      810.964200       0.402761
      811.030000       0.408682
      811.095800       0.414656
      811.161600       0.420681
      811.227400       0.426758
      811.293200       0.432883
      811.359000       0.439057
      811.424900       0.445278
      811.490700       0.451545
      811.556600       0.457857
      811.622400       0.464211
      811.688400       0.470606
      811.754200       0.477041
      811.820100       0.483515
      811.886000       0.490025
      811.951900       0.496569
      812.017900       0.503147
      812.083800       0.509755
      812.149800       0.516393
      812.215700       0.523058
      812.281700       0.529747
      812.347700       0.536460
      812.413700       0.543193
      812.479700       0.549945
      812.545700       0.556714
      812.611800       0.563496
      812.677700       0.570290
      812.743800       0.577094
      812.809900       0.583904
      812.876000       0.590719
      812.942100       0.597537
      813.008100       0.604353
      813.074200       0.611167
      813.140300       0.617976
      813.206500       0.624776
      813.272600       0.631566
      813.338700       0.638343
      813.404900       0.645104
      813.471100       0.651847
      813.537300       0.658569
