14, GOES-R 11.2um ABI SRF CWG processed version 3 March 10, 2016
Number of data points:
1383
Wavenumber (cm-1)   Filter response
      823.600000       0.001087
      823.700000       0.001183
      823.800000       0.001273
      823.900000       0.001370
      824.000000       0.001457
      824.100000       0.001472
      824.200000       0.001482
      824.300000       0.001487
      824.400000       0.001493
      824.500000       0.001502
      824.600000       0.001511
      824.700000       0.001516
      824.800000       0.001522
      824.900000       0.001532
      825.000000       0.001533
      825.100000       0.001525
      825.200000       0.001510
      825.300000       0.001498
      825.400000       0.001483
      825.500000       0.001471
      825.600000       0.001457
      825.700000       0.001444
      825.800000       0.001430
      825.900000       0.001416
      826.000000       0.001400
      826.100000       0.001367
      826.200000       0.001334
      826.300000       0.001302
      826.400000       0.001269
      826.500000       0.001237
      826.600000       0.001204
      826.700000       0.001166
      826.800000       0.001131
      826.900000       0.001098
      827.000000       0.001068
      827.100000       0.001125
      827.200000       0.001195
      827.300000       0.001260
      827.400000       0.001326
      827.500000       0.001392
      827.600000       0.001457
      827.700000       0.001524
      827.800000       0.001588
      827.900000       0.001650
      828.000000       0.001707
      828.100000       0.001712
      828.200000       0.001713
      828.300000       0.001714
      828.400000       0.001708
      828.500000       0.001709
      828.600000       0.001710
      828.700000       0.001704
      828.800000       0.001705
      828.900000       0.001706
      829.000000       0.001713
      829.100000       0.001807
      829.200000       0.001913
      829.300000       0.002025
      829.400000       0.002129
      829.500000       0.002235
      829.600000       0.002340
      829.700000       0.002449
      829.800000       0.002560
      829.900000       0.002666
      830.000000       0.002766
      830.100000       0.002751
      830.200000       0.002724
      830.300000       0.002703
      830.400000       0.002675
      830.500000       0.002647
      830.600000       0.002627
      830.700000       0.002598
      830.800000       0.002574
      830.900000       0.002549
      831.000000       0.002508
      831.100000       0.002384
      831.200000       0.002246
      831.300000       0.002109
      831.400000       0.001971
      831.500000       0.001833
      831.600000       0.001695
      831.700000       0.001557
      831.800000       0.001411
      831.900000       0.001267
      832.000000       0.001154
      832.100000       0.001307
      832.200000       0.001484
      832.300000       0.001662
      832.400000       0.001835
      832.500000       0.002009
      832.600000       0.002176
      832.700000       0.002343
      832.800000       0.002502
      832.900000       0.002663
      833.000000       0.002808
      833.100000       0.002859
      833.200000       0.002888
      833.300000       0.002922
      833.400000       0.002956
      833.500000       0.002986
      833.600000       0.003018
      833.700000       0.003053
      833.800000       0.003086
      833.900000       0.003117
      834.000000       0.003137
      834.100000       0.003076
      834.200000       0.002996
      834.300000       0.002915
      834.400000       0.002835
      834.500000       0.002754
      834.600000       0.002674
      834.700000       0.002587
      834.800000       0.002503
      834.900000       0.002409
      835.000000       0.002322
      835.100000       0.002440
      835.200000       0.002562
      835.300000       0.002685
      835.400000       0.002808
      835.500000       0.002922
      835.600000       0.003046
      835.700000       0.003160
      835.800000       0.003275
      835.900000       0.003391
      836.000000       0.003495
      836.100000       0.003546
      836.200000       0.003575
      836.300000       0.003615
      836.400000       0.003654
      836.500000       0.003689
      836.600000       0.003723
      836.700000       0.003762
      836.800000       0.003801
      836.900000       0.003840
      837.000000       0.003887
      837.100000       0.004012
      837.200000       0.004140
      837.300000       0.004277
      837.400000       0.004412
      837.500000       0.004543
      837.600000       0.004671
      837.700000       0.004804
      837.800000       0.004938
      837.900000       0.005067
      838.000000       0.005193
      838.100000       0.005261
      838.200000       0.005332
      838.300000       0.005399
      838.400000       0.005469
      838.500000       0.005538
      838.600000       0.005606
      838.700000       0.005674
      838.800000       0.006196
      838.900000       0.006633
      839.000000       0.007077
      839.100000       0.007516
      839.200000       0.007917
      839.300000       0.007762
      839.400000       0.007473
      839.500000       0.007189
      839.600000       0.006901
      839.700000       0.006613
      839.800000       0.006329
      839.900000       0.006041
      840.000000       0.005751
      840.100000       0.005466
      840.200000       0.005182
      840.300000       0.004906
      840.400000       0.004629
      840.500000       0.004350
      840.600000       0.004073
      840.700000       0.003794
      840.800000       0.003515
      840.900000       0.003239
      841.000000       0.002980
      841.100000       0.003014
      841.200000       0.003256
      841.300000       0.003506
      841.400000       0.003766
      841.500000       0.004017
      841.600000       0.004268
      841.700000       0.004520
      841.800000       0.004772
      841.900000       0.005036
      842.000000       0.005430
      842.100000       0.006006
      842.200000       0.006577
      842.300000       0.007149
      842.400000       0.007720
      842.500000       0.008290
      842.600000       0.008863
      842.700000       0.009421
      842.800000       0.009998
      842.900000       0.010524
      843.000000       0.010970
      843.100000       0.011418
      843.200000       0.011962
      843.300000       0.012406
      843.400000       0.012853
      843.500000       0.013299
      843.600000       0.013746
      843.700000       0.014192
      843.800000       0.014634
      843.900000       0.014808
      844.000000       0.015029
      844.100000       0.015200
      844.200000       0.015428
      844.300000       0.015590
      844.400000       0.015766
      844.500000       0.015983
      844.600000       0.016177
      844.700000       0.016407
      844.800000       0.016685
      844.900000       0.016984
      845.000000       0.017284
      845.100000       0.017584
      845.200000       0.017885
      845.300000       0.018188
      845.400000       0.018492
      845.500000       0.018796
      845.600000       0.019117
      845.700000       0.019572
      845.800000       0.020025
      845.900000       0.020480
      846.000000       0.020933
      846.100000       0.021383
      846.200000       0.021752
      846.300000       0.022071
      846.400000       0.022390
      846.500000       0.022766
      846.600000       0.023124
      846.700000       0.023449
      846.800000       0.023842
      846.900000       0.024350
      847.000000       0.024788
      847.100000       0.025212
      847.200000       0.025663
      847.300000       0.026156
      847.400000       0.026585
      847.500000       0.027011
      847.600000       0.027437
      847.700000       0.027925
      847.800000       0.028385
      847.900000       0.028817
      848.000000       0.029329
      848.100000       0.029873
      848.200000       0.030484
      848.300000       0.031050
      848.400000       0.031642
      848.500000       0.032168
      848.600000       0.032756
      848.700000       0.033331
      848.800000       0.033928
      848.900000       0.034482
      849.000000       0.035085
      849.100000       0.035647
      849.200000       0.036261
      849.300000       0.036847
      849.400000       0.037603
      849.500000       0.038412
      849.600000       0.039150
      849.700000       0.039893
      849.800000       0.040696
      849.900000       0.041466
      850.000000       0.042205
      850.100000       0.042954
      850.200000       0.043790
      850.300000       0.044687
      850.400000       0.045577
      850.500000       0.046583
      850.600000       0.047759
      850.700000       0.049027
      850.800000       0.050299
      850.900000       0.051613
      851.000000       0.052948
      851.100000       0.054220
      851.200000       0.055493
      851.300000       0.056766
      851.400000       0.058039
      851.500000       0.059313
      851.600000       0.060742
      851.700000       0.062415
      851.800000       0.064165
      851.900000       0.065874
      852.000000       0.067574
      852.100000       0.069329
      852.200000       0.071051
      852.300000       0.072758
      852.400000       0.074532
      852.500000       0.076273
      852.600000       0.078027
      852.700000       0.079971
      852.800000       0.082120
      852.900000       0.084298
      853.000000       0.086477
      853.100000       0.088657
      853.200000       0.090829
      853.300000       0.093013
      853.400000       0.095172
      853.500000       0.097463
      853.600000       0.100023
      853.700000       0.101580
      853.800000       0.104214
      853.900000       0.106798
      854.000000       0.110264
      854.100000       0.112893
      854.200000       0.115463
      854.300000       0.118003
      854.400000       0.121124
      854.500000       0.124149
      854.600000       0.126694
      854.700000       0.129252
      854.800000       0.131897
      854.900000       0.135371
      855.000000       0.139206
      855.100000       0.142959
      855.200000       0.145984
      855.300000       0.149699
      855.400000       0.153516
      855.500000       0.156410
      855.600000       0.160177
      855.700000       0.164049
      855.800000       0.166936
      855.900000       0.170957
      856.000000       0.175420
      856.100000       0.180142
      856.200000       0.184941
      856.300000       0.189445
      856.400000       0.193822
      856.500000       0.198347
      856.600000       0.202822
      856.700000       0.207330
      856.800000       0.211845
      856.900000       0.216260
      857.000000       0.221463
      857.100000       0.227319
      857.200000       0.232597
      857.300000       0.237744
      857.400000       0.243677
      857.500000       0.248886
      857.600000       0.254556
      857.700000       0.260062
      857.800000       0.265114
      857.900000       0.270446
      858.000000       0.275710
      858.100000       0.281188
      858.200000       0.286456
      858.300000       0.292270
      858.400000       0.297717
      858.500000       0.303196
      858.600000       0.309069
      858.700000       0.314190
      858.800000       0.320086
      858.900000       0.325417
      859.000000       0.330987
      859.100000       0.336752
      859.200000       0.342203
      859.300000       0.348862
      859.400000       0.354790
      859.500000       0.360744
      859.600000       0.366702
      859.700000       0.372663
      859.800000       0.378592
      859.900000       0.384567
      860.000000       0.390545
      860.100000       0.396523
      860.200000       0.402478
      860.300000       0.409218
      860.400000       0.415689
      860.500000       0.422335
      860.600000       0.428427
      860.700000       0.435062
      860.800000       0.441414
      860.900000       0.448147
      861.000000       0.454242
      861.100000       0.460559
      861.200000       0.466778
      861.300000       0.472960
      861.400000       0.479516
      861.500000       0.485530
      861.600000       0.491913
      861.700000       0.498009
      861.800000       0.504410
      861.900000       0.510637
      862.000000       0.517429
      862.100000       0.523529
      862.200000       0.529909
      862.300000       0.535847
      862.400000       0.542312
      862.500000       0.548496
      862.600000       0.554665
      862.700000       0.560922
      862.800000       0.566874
      862.900000       0.572529
      863.000000       0.578921
      863.100000       0.584598
      863.200000       0.590193
      863.300000       0.596345
      863.400000       0.602227
      863.500000       0.607773
      863.600000       0.613535
      863.700000       0.619793
      863.800000       0.625358
      863.900000       0.630882
      864.000000       0.636420
      864.100000       0.641279
      864.200000       0.646360
      864.300000       0.651086
      864.400000       0.656626
      864.500000       0.661824
      864.600000       0.666789
      864.700000       0.671905
      864.800000       0.676204
      864.900000       0.680530
      865.000000       0.685387
      865.100000       0.689836
      865.200000       0.693767
      865.300000       0.697426
      865.400000       0.700764
      865.500000       0.704702
      865.600000       0.708689
      865.700000       0.712341
      865.800000       0.715686
      865.900000       0.719667
      866.000000       0.723658
      866.100000       0.727453
      866.200000       0.730640
      866.300000       0.734581
      866.400000       0.738532
      866.500000       0.742391
      866.600000       0.745454
      866.700000       0.748425
      866.800000       0.751397
      866.900000       0.754245
      867.000000       0.756385
      867.100000       0.759276
      867.200000       0.762178
      867.300000       0.765000
      867.400000       0.767813
      867.500000       0.770628
      867.600000       0.773445
      867.700000       0.776056
      867.800000       0.778147
      867.900000       0.780916
      868.000000       0.783329
      868.100000       0.785042
      868.200000       0.787340
      868.300000       0.789498
      868.400000       0.791196
      868.500000       0.792893
      868.600000       0.795299
      868.700000       0.797290
      868.800000       0.798971
      868.900000       0.801455
      869.000000       0.803294
      869.100000       0.804987
      869.200000       0.806692
      869.300000       0.808425
      869.400000       0.809820
      869.500000       0.810891
      869.600000       0.812325
      869.700000       0.813521
      869.800000       0.815275
      869.900000       0.816569
      870.000000       0.817944
      870.100000       0.819822
      870.200000       0.821113
      870.300000       0.822655
      870.400000       0.824552
      870.500000       0.825598
      870.600000       0.826459
      870.700000       0.827321
      870.800000       0.828177
      870.900000       0.829024
      871.000000       0.829864
      871.100000       0.830698
      871.200000       0.831524
      871.300000       0.832340
      871.400000       0.833144
      871.500000       0.833937
      871.600000       0.834717
      871.700000       0.835483
      871.800000       0.836258
      871.900000       0.836311
      872.000000       0.836741
      872.100000       0.837468
      872.200000       0.838189
      872.300000       0.838049
      872.400000       0.838608
      872.500000       0.839243
      872.600000       0.839862
      872.700000       0.839716
      872.800000       0.840398
      872.900000       0.841139
      873.000000       0.841726
      873.100000       0.842165
      873.200000       0.843585
      873.300000       0.844626
      873.400000       0.845452
      873.500000       0.846428
      873.600000       0.847481
      873.700000       0.849064
      873.800000       0.849977
      873.900000       0.851203
      874.000000       0.852165
      874.100000       0.853385
      874.200000       0.854985
      874.300000       0.855814
      874.400000       0.857094
      874.500000       0.857872
      874.600000       0.858471
      874.700000       0.859288
      874.800000       0.860623
      874.900000       0.861286
      875.000000       0.862097
      875.100000       0.863349
      875.200000       0.863976
      875.300000       0.864841
      875.400000       0.866051
      875.500000       0.866641
      875.600000       0.867208
      875.700000       0.868272
      875.800000       0.869273
      875.900000       0.869829
      876.000000       0.870371
      876.100000       0.870911
      876.200000       0.871450
      876.300000       0.872066
      876.400000       0.873343
      876.500000       0.874057
      876.600000       0.874603
      876.700000       0.875150
      876.800000       0.875698
      876.900000       0.876245
      877.000000       0.876997
      877.100000       0.878261
      877.200000       0.878874
      877.300000       0.879428
      877.400000       0.880005
      877.500000       0.880591
      877.600000       0.881189
      877.700000       0.881794
      877.800000       0.882404
      877.900000       0.883013
      878.000000       0.883623
      878.100000       0.884319
      878.200000       0.884979
      878.300000       0.886181
      878.400000       0.887236
      878.500000       0.888577
      878.600000       0.889516
      878.700000       0.890170
      878.800000       0.891560
      878.900000       0.892309
      879.000000       0.893043
      879.100000       0.894453
      879.200000       0.895261
      879.300000       0.896704
      879.400000       0.897418
      879.500000       0.898106
      879.600000       0.899503
      879.700000       0.900063
      879.800000       0.900827
      879.900000       0.902098
      880.000000       0.902585
      880.100000       0.903421
      880.200000       0.904571
      880.300000       0.905382
      880.400000       0.906570
      880.500000       0.907061
      880.600000       0.907955
      880.700000       0.909048
      880.800000       0.909437
      880.900000       0.910444
      881.000000       0.911427
      881.100000       0.911918
      881.200000       0.913131
      881.300000       0.914118
      881.400000       0.915362
      881.500000       0.916431
      881.600000       0.917160
      881.700000       0.918652
      881.800000       0.919840
      881.900000       0.920747
      882.000000       0.922574
      882.100000       0.923824
      882.200000       0.924887
      882.300000       0.925982
      882.400000       0.927205
      882.500000       0.929041
      882.600000       0.930292
      882.700000       0.931371
      882.800000       0.932473
      882.900000       0.933590
      883.000000       0.934710
      883.100000       0.935817
      883.200000       0.937222
      883.300000       0.938980
      883.400000       0.940077
      883.500000       0.941099
      883.600000       0.941652
      883.700000       0.941964
      883.800000       0.942868
      883.900000       0.943776
      884.000000       0.944665
      884.100000       0.945536
      884.200000       0.946389
      884.300000       0.947224
      884.400000       0.948043
      884.500000       0.948848
      884.600000       0.949645
      884.700000       0.950438
      884.800000       0.951230
      884.900000       0.952021
      885.000000       0.952730
      885.100000       0.953275
      885.200000       0.953785
      885.300000       0.954372
      885.400000       0.955677
      885.500000       0.956436
