   4  ,noaa_12_hirs_04.flt
Number of data points:
102
Wavenumber (cm-1)   Filter response
      673.810000       0.000000
      674.400000       0.000050
      674.990000       0.000048
      675.580000       0.000045
      676.160000       0.001030
      676.750000       0.001035
      677.340000       0.001709
      677.920000       0.002561
      678.510000       0.003426
      679.100000       0.003449
      679.690000       0.003471
      680.280000       0.004460
      680.860000       0.004689
      681.450000       0.005548
      682.040000       0.006518
      682.630000       0.006596
      683.220000       0.007421
      683.800000       0.008549
      684.380000       0.008326
      684.980000       0.009764
      685.560000       0.010943
      686.160000       0.015229
      686.750000       0.018419
      687.350000       0.023628
      687.950000       0.028875
      688.540000       0.036244
      689.140000       0.046348
      689.730000       0.059706
      690.330000       0.075943
      690.940000       0.093607
      691.510000       0.116600
      692.110000       0.140930
      692.720000       0.175810
      693.320000       0.209940
      693.860000       0.253370
      694.440000       0.293950
      695.030000       0.340190
      695.630000       0.388290
      696.220000       0.432450
      696.820000       0.476700
      697.400000       0.532820
      698.000000       0.581580
      698.590000       0.633460
      699.190000       0.681180
      699.790000       0.735430
      700.380000       0.792100
      700.980000       0.838960
      701.570000       0.889720
      702.170000       0.935130
      702.760000       0.966060
      703.350000       0.987100
      703.970000       1.000000
      704.560000       0.997060
      705.160000       0.982950
      705.750000       0.964070
      706.350000       0.940720
      706.940000       0.907890
      707.540000       0.879790
      708.140000       0.840680
      708.740000       0.802500
      709.330000       0.750400
      709.930000       0.706060
      710.520000       0.645920
      711.120000       0.571210
      711.720000       0.505140
      712.310000       0.424500
      712.900000       0.369110
      713.470000       0.293450
      714.080000       0.249010
      714.670000       0.198070
      715.270000       0.158680
      715.850000       0.129250
      716.430000       0.101950
      717.020000       0.079478
      717.600000       0.061365
      718.180000       0.050629
      718.770000       0.040918
      719.350000       0.034447
      719.940000       0.030457
      720.520000       0.026755
      721.110000       0.023825
      721.680000       0.018483
      722.270000       0.017264
      722.850000       0.016510
      723.440000       0.015432
      724.070000       0.014872
      724.660000       0.013286
      725.250000       0.012339
      725.840000       0.012361
      726.420000       0.011078
      727.000000       0.009461
      727.590000       0.009475
      728.180000       0.007517
      728.770000       0.007524
      729.360000       0.006209
      729.950000       0.006211
      730.540000       0.004383
      731.120000       0.004375
      731.710000       0.002374
      732.300000       0.002364
      732.890000       0.000022
      733.880000       0.000000
