7,    channel 7 : SRF extracted from ECA_EXAA_AUX_CC35_M_00000000T000000Z_99999999T999999Z_0001.nc (January 2022)
Number of data points:
300
Wavenumber (cm-1)   Filter response
      732.600800       0.000194
      733.137800       0.000199
      733.675700       0.000205
      734.214400       0.000214
      734.753900       0.000224
      735.294100       0.000233
      735.835100       0.000243
      736.377000       0.000250
      736.919700       0.000256
      737.463100       0.000261
      738.007400       0.000266
      738.552400       0.000272
      739.098300       0.000280
      739.645000       0.000290
      740.192400       0.000300
      740.740700       0.000310
      741.289900       0.000315
      741.839800       0.000317
      742.390500       0.000312
      742.942100       0.000303
      743.494400       0.000293
      744.047700       0.000282
      744.601600       0.000272
      745.156500       0.000264
      745.712200       0.000259
      746.268700       0.000254
      746.826000       0.000251
      747.384200       0.000249
      747.943200       0.000246
      748.503000       0.000244
      749.063700       0.000240
      749.625200       0.000236
      750.187600       0.000230
      750.750800       0.000223
      751.314800       0.000216
      751.879700       0.000210
      752.445400       0.000205
      753.012100       0.000203
      753.579500       0.000206
      754.147800       0.000210
      754.717000       0.000215
      755.287000       0.000219
      755.857900       0.000220
      756.429600       0.000215
      757.002300       0.000206
      757.575700       0.000191
      758.150100       0.000175
      758.725300       0.000156
      759.301500       0.000140
      759.878400       0.000124
      760.456300       0.000110
      761.035000       0.000094
      761.614600       0.000076
      762.195100       0.000054
      762.776600       0.000029
      763.358800       0.000003
      763.942000       0.000023
      764.526000       0.000044
      765.111000       0.000059
      765.696800       0.000067
      766.283500       0.000072
      766.871200       0.000077
      767.459700       0.000086
      768.049100       0.000105
      768.639500       0.000138
      769.230800       0.000189
      769.822900       0.000258
      770.416100       0.000346
      771.010000       0.000450
      771.604900       0.000567
      772.200800       0.000694
      772.797500       0.000827
      773.395200       0.000965
      773.993800       0.001108
      774.593300       0.001253
      775.193800       0.001419
      775.795200       0.001602
      776.397500       0.001807
      777.000800       0.002045
      777.605000       0.002336
      778.210100       0.002677
      778.816200       0.003071
      779.423200       0.003553
      780.031200       0.004116
      780.640100       0.004742
      781.250000       0.005488
      781.860800       0.006374
      782.472700       0.007376
      783.085300       0.008558
      783.699000       0.009981
      784.313700       0.011651
      784.929400       0.013615
      785.546000       0.016021
      786.163500       0.018902
      786.782000       0.022293
      787.401600       0.026402
      788.022100       0.031309
      788.643500       0.037072
      789.266000       0.043967
      789.889400       0.052144
      790.513900       0.061788
      791.139200       0.072927
      791.765600       0.085939
      792.393000       0.101160
      793.021400       0.118770
      793.650800       0.139060
      794.281200       0.162150
      794.912500       0.188160
      795.545000       0.216980
      796.178300       0.248600
      796.812700       0.283050
      797.448200       0.319730
      798.084600       0.358270
      798.722000       0.398240
      799.360500       0.438670
      800.000000       0.479160
      800.640500       0.519110
      801.282100       0.558110
      801.924600       0.595780
      802.568200       0.631440
      803.212900       0.664960
      803.858500       0.696100
      804.505200       0.724580
      805.153000       0.750450
      805.801800       0.773620
      806.451700       0.794270
      807.102500       0.808710
      807.754500       0.820970
      808.407500       0.831360
      809.061500       0.840130
      809.716600       0.847900
      810.372700       0.853930
      811.030000       0.858460
      811.688400       0.862310
      812.347700       0.865100
      813.008100       0.866950
      813.669700       0.868280
      814.332300       0.869110
      814.995900       0.869650
      815.660600       0.870730
      816.326500       0.871880
      816.993500       0.873020
      817.661500       0.874030
      818.330600       0.875350
      819.000800       0.876940
      819.672100       0.878430
      820.344500       0.879730
      821.018100       0.880800
      821.692700       0.881790
      822.368400       0.882740
      823.045300       0.883600
      823.723200       0.884570
      824.402300       0.885190
      825.082500       0.885520
      825.763900       0.885610
      826.446200       0.885570
      827.129800       0.885490
      827.814600       0.885540
      828.500400       0.885420
      829.187400       0.885110
      829.875500       0.884390
      830.564800       0.884570
      831.255200       0.884880
      831.946700       0.885080
      832.639500       0.885050
      833.333300       0.885430
      834.028400       0.886320
      834.724500       0.887910
      835.421900       0.889610
      836.120400       0.891470
      836.820100       0.893350
      837.521000       0.895350
      838.223000       0.897290
      838.926100       0.898960
      839.630600       0.900970
      840.336200       0.904870
      841.042800       0.910800
      841.750900       0.916640
      842.460000       0.922570
      843.170300       0.928370
      843.881800       0.933790
      844.594600       0.938810
      845.308500       0.943180
      846.023700       0.946830
      846.740000       0.950420
      847.457600       0.953500
      848.176500       0.956340
      848.896500       0.959400
      849.617600       0.962120
      850.340100       0.965560
      851.063800       0.969900
      851.788800       0.973650
      852.515000       0.977800
      853.242300       0.982000
      853.970900       0.985980
      854.700900       0.990130
      855.432000       0.993700
      856.164400       0.996770
      856.898000       0.999320
      857.632900       1.000000
      858.369100       0.999250
      859.106500       0.996580
      859.845200       0.990760
      860.585200       0.980150
      861.326500       0.964900
      862.068900       0.944990
      862.812700       0.920250
      863.557900       0.890620
      864.304300       0.855880
      865.051900       0.815800
      865.800800       0.770730
      866.551100       0.721360
      867.302700       0.668280
      868.055500       0.612370
      868.809700       0.554800
      869.565200       0.496140
      870.322000       0.437110
      871.080200       0.379040
      871.839500       0.323810
      872.600300       0.272380
      873.362500       0.225410
      874.125900       0.183470
      874.890600       0.146820
      875.656700       0.115680
      876.424200       0.089770
      877.193000       0.068675
      877.963100       0.051854
      878.734600       0.038716
      879.507500       0.028636
      880.281700       0.021018
      881.057300       0.015335
      881.834200       0.011129
      882.612500       0.008044
      883.392300       0.005804
      884.173300       0.004190
      884.955700       0.003021
      885.739600       0.002182
      886.524800       0.001578
      887.311400       0.001142
      888.099400       0.000828
      888.888900       0.000600
      889.679700       0.000435
      890.472000       0.000317
      891.265600       0.000231
      892.060700       0.000170
      892.857200       0.000126
      893.655100       0.000094
      894.454300       0.000071
      895.255100       0.000053
      896.057400       0.000040
      896.861000       0.000029
      897.666000       0.000021
      898.472600       0.000015
      899.280600       0.000011
      900.090000       0.000008
      900.900900       0.000006
      901.713300       0.000004
      902.527100       0.000003
      903.342400       0.000002
      904.159100       0.000002
      904.977400       0.000001
      905.797100       0.000001
      906.618300       0.000000
      907.441000       0.000000
      908.265200       0.000000
      909.090900       0.000000
      909.918200       0.000000
      910.746800       0.000000
      911.577000       0.000000
      912.408800       0.000000
      913.242000       0.000000
      914.076800       0.000000
      914.913100       0.000000
      915.750900       0.000000
      916.590300       0.000000
      917.431200       0.000000
      918.273600       0.000000
      919.117600       0.000000
      919.963200       0.000000
      920.810400       0.000000
      921.658900       0.000000
      922.509200       0.000000
      923.361000       0.000000
      924.214400       0.000000
      925.069300       0.000000
      925.925900       0.000000
      926.784100       0.000000
      927.643800       0.000000
      928.505100       0.000000
      929.368000       0.000000
      930.232500       0.000000
      931.098700       0.000000
      931.966500       0.000000
      932.835800       0.000000
      933.706800       0.000000
      934.579500       0.000000
      935.453700       0.000000
      936.329600       0.000000
      937.207100       0.000000
      938.086300       0.000000
