33,   33, MVIRI VIS channel from srf_MET7_2001258_2001259_1801-Release_S10EE_10.dat
Number of data points:
793
Wavenumber (cm-1)   Filter response
     8442.380800       0.000000
     8449.514200       0.000000
     8456.659600       0.000004
     8463.817200       0.000053
     8470.986900       0.000158
     8478.168700       0.000316
     8485.362700       0.000526
     8492.569000       0.000786
     8499.787500       0.001095
     8507.018300       0.001452
     8514.261400       0.001855
     8521.516800       0.002303
     8528.784600       0.002794
     8536.064900       0.003328
     8543.357500       0.003903
     8550.662700       0.004518
     8557.980300       0.005173
     8565.310500       0.005865
     8572.653200       0.006594
     8580.008600       0.007359
     8587.376600       0.008160
     8594.757200       0.008994
     8602.150500       0.009862
     8609.556600       0.010763
     8616.975400       0.011695
     8624.407100       0.012658
     8631.851500       0.013652
     8639.308900       0.014675
     8646.779100       0.015727
     8654.262200       0.016807
     8661.758300       0.017915
     8669.267400       0.019051
     8676.789600       0.020212
     8684.324800       0.021400
     8691.873100       0.022614
     8699.434500       0.023853
     8707.009100       0.025117
     8714.596900       0.026405
     8722.198000       0.027717
     8729.812300       0.029052
     8737.439900       0.030411
     8745.080900       0.031793
     8752.735200       0.033198
     8760.403000       0.034625
     8768.084200       0.036074
     8775.778900       0.037545
     8783.487000       0.039038
     8791.208800       0.040552
     8798.944100       0.042087
     8806.693100       0.043644
     8814.455700       0.045221
     8822.232000       0.046820
     8830.022100       0.048439
     8837.825900       0.050078
     8845.643500       0.051738
     8853.475000       0.053419
     8861.320300       0.055120
     8869.179600       0.056841
     8877.052800       0.058582
     8884.940000       0.060344
     8892.841300       0.062126
     8900.756600       0.063928
     8908.686000       0.065750
     8916.629500       0.067592
     8924.587200       0.069454
     8932.559200       0.071337
     8940.545400       0.073239
     8948.545900       0.075162
     8956.560700       0.077105
     8964.589900       0.079069
     8972.633500       0.081053
     8980.691500       0.083057
     8988.764000       0.085082
     8996.851100       0.087127
     9004.952700       0.089193
     9013.068900       0.091279
     9021.199800       0.093386
     9029.345400       0.095514
     9037.505600       0.097663
     9045.680700       0.099833
     9053.870500       0.102024
     9062.075200       0.104236
     9070.294800       0.106470
     9078.529300       0.108724
     9086.778700       0.111001
     9095.043200       0.113299
     9103.322700       0.115618
     9111.617300       0.117959
     9119.927000       0.120322
     9128.251900       0.122707
     9136.592100       0.125114
     9144.947400       0.127543
     9153.318100       0.129994
     9161.704100       0.132467
     9170.105500       0.134963
     9178.522300       0.137481
     9186.954500       0.140022
     9195.402300       0.142585
     9203.865600       0.145171
     9212.344500       0.147780
     9220.839100       0.150412
     9229.349300       0.153067
     9237.875300       0.155744
     9246.417000       0.158445
     9254.974500       0.161169
     9263.547900       0.163916
     9272.137200       0.166686
     9280.742500       0.169480
     9289.363700       0.172297
     9298.000900       0.175137
     9306.654300       0.178001
     9315.323700       0.180888
     9324.009300       0.183798
     9332.711200       0.186733
     9341.429200       0.189690
     9350.163600       0.192671
     9358.914400       0.195676
     9367.681500       0.198704
     9376.465100       0.201756
     9385.265100       0.204831
     9394.081700       0.207930
     9402.914900       0.211052
     9411.764700       0.214198
     9420.631200       0.217367
     9429.514400       0.220560
     9438.414300       0.223776
     9447.331100       0.227015
     9456.264800       0.230278
     9465.215300       0.233564
     9474.182900       0.236873
     9483.167400       0.240205
     9492.169000       0.243560
     9501.187600       0.246938
     9510.223500       0.250339
     9519.276500       0.253762
     9528.346800       0.257209
     9537.434400       0.260678
     9546.539400       0.264169
     9555.661700       0.267682
     9564.801500       0.271218
     9573.958800       0.274776
     9583.133700       0.278356
     9592.326100       0.281957
     9601.536200       0.285580
     9610.764100       0.289224
     9620.009600       0.292890
     9629.273000       0.296577
     9638.554200       0.300285
     9647.853400       0.304014
     9657.170400       0.307762
     9666.505600       0.311532
     9675.858700       0.315322
     9685.230000       0.319132
     9694.619500       0.322961
     9704.027200       0.326810
     9713.453100       0.330678
     9722.897400       0.334566
     9732.360100       0.338472
     9741.841200       0.342397
     9751.340800       0.346340
     9760.859000       0.350301
     9770.395700       0.354281
     9779.951100       0.358277
     9789.525200       0.362291
     9799.118100       0.366323
     9808.729800       0.370370
     9818.360300       0.374435
     9828.009800       0.378515
     9837.678300       0.382611
     9847.365800       0.386723
     9857.072400       0.390850
     9866.798200       0.394992
     9876.543200       0.399148
     9886.307500       0.403320
     9896.091000       0.407505
     9905.894000       0.411703
     9915.716400       0.415915
     9925.558300       0.420139
     9935.419800       0.424377
     9945.300800       0.428626
     9955.201600       0.432888
     9965.122100       0.437161
     9975.062300       0.441444
     9985.022500       0.445739
     9995.002500       0.450045
    10005.002500       0.454360
    10015.022500       0.458685
    10025.062700       0.463019
    10035.122900       0.467362
    10045.203400       0.471714
    10055.304200       0.476073
    10065.425300       0.480441
    10075.566800       0.484815
    10085.728700       0.489196
    10095.911200       0.493584
    10106.114200       0.497978
    10116.337900       0.502378
    10126.582300       0.506782
    10136.847400       0.511192
    10147.133400       0.515606
    10157.440300       0.520023
    10167.768200       0.524445
    10178.117000       0.528869
    10188.487000       0.533296
    10198.878100       0.537725
    10209.290500       0.542156
    10219.724100       0.546588
    10230.179000       0.551020
    10240.655400       0.555454
    10251.153300       0.559887
    10261.672700       0.564320
    10272.213700       0.568752
    10282.776300       0.573182
    10293.360800       0.577611
    10303.967000       0.582037
    10314.595200       0.586461
    10325.245200       0.590881
    10335.917300       0.595298
    10346.611500       0.599711
    10357.327800       0.604119
    10368.066400       0.608522
    10378.827200       0.612919
    10389.610400       0.617311
    10400.416000       0.621696
    10411.244100       0.626074
    10422.094800       0.630445
    10432.968200       0.634808
    10443.864200       0.639163
    10454.783100       0.643509
    10465.724800       0.647846
    10476.689400       0.652173
    10487.677000       0.656490
    10498.687700       0.660797
    10509.721500       0.665092
    10520.778500       0.669377
    10531.858900       0.673649
    10542.962600       0.677909
    10554.089700       0.682156
    10565.240400       0.686389
    10576.414600       0.690609
    10587.612500       0.694815
    10598.834100       0.699007
    10610.079600       0.703183
    10621.348900       0.707344
    10632.642200       0.711488
    10643.959600       0.715617
    10655.301000       0.719728
    10666.666700       0.723823
    10678.056600       0.727899
    10689.470900       0.731958
    10700.909600       0.735998
    10712.372800       0.740019
    10723.860600       0.744021
    10735.373100       0.748003
    10746.910300       0.751964
    10758.472300       0.755905
    10770.059200       0.759825
    10781.671200       0.763724
    10793.308100       0.767600
    10804.970300       0.771455
    10816.657700       0.775287
    10828.370300       0.779096
    10840.108400       0.782881
    10851.871900       0.786642
    10863.661100       0.790380
    10875.475800       0.794093
    10887.316300       0.797780
    10899.182600       0.801443
    10911.074700       0.805080
    10922.992900       0.808691
    10934.937100       0.812275
    10946.907500       0.815833
    10958.904100       0.819363
    10970.927000       0.822867
    10982.976400       0.826342
    10995.052200       0.829789
    11007.154700       0.833208
    11019.283700       0.836598
    11031.439600       0.839959
    11043.622300       0.843290
    11055.832000       0.846592
    11068.068600       0.849864
    11080.332400       0.853105
    11092.623400       0.856316
    11104.941700       0.859496
    11117.287400       0.862644
    11129.660500       0.865761
    11142.061300       0.868847
    11154.489700       0.871900
    11166.945800       0.874921
    11179.429800       0.877910
    11191.941800       0.880865
    11204.481800       0.883788
    11217.049900       0.886677
    11229.646300       0.889533
    11242.270900       0.892355
    11254.924000       0.895143
    11267.605600       0.897897
    11280.315800       0.900617
    11293.054800       0.903301
    11305.822500       0.905951
    11318.619100       0.908567
    11331.444800       0.911146
    11344.299500       0.913691
    11357.183400       0.916199
    11370.096600       0.918673
    11383.039300       0.921110
    11396.011400       0.923511
    11409.013100       0.925876
    11422.044500       0.928204
    11435.105800       0.930497
    11448.196900       0.932752
    11461.318100       0.934971
    11474.469300       0.937153
    11487.650800       0.939298
    11500.862600       0.941406
    11514.104800       0.943476
    11527.377500       0.945509
    11540.680900       0.947505
    11554.015000       0.949464
    11567.380000       0.951385
    11580.775900       0.953268
    11594.202900       0.955114
    11607.661100       0.956922
    11621.150500       0.958693
    11634.671300       0.960425
    11648.223600       0.962120
    11661.807600       0.963777
    11675.423200       0.965396
    11689.070700       0.966977
    11702.750100       0.968520
    11716.461600       0.970026
    11730.205300       0.971493
    11743.981200       0.972923
    11757.789500       0.974315
    11771.630400       0.975668
    11785.503800       0.976985
    11799.410000       0.978263
    11813.349100       0.979504
    11827.321100       0.980707
    11841.326200       0.981872
    11855.364600       0.983000
    11869.436200       0.984090
    11883.541300       0.985143
    11897.680000       0.986159
    11911.852300       0.987137
    11926.058400       0.988079
    11940.298500       0.988983
    11954.572600       0.989851
    11968.880900       0.990681
    11983.223500       0.991475
    11997.600500       0.992233
    12012.012000       0.992954
    12026.458200       0.993639
    12040.939200       0.994288
    12055.455100       0.994901
    12070.006000       0.995478
    12084.592100       0.996019
    12099.213600       0.996525
    12113.870400       0.996996
    12128.562800       0.997432
    12143.290800       0.997833
    12158.054700       0.998199
    12172.854500       0.998530
    12187.690400       0.998828
    12202.562500       0.999091
    12217.471000       0.999320
    12232.415900       0.999516
    12247.397400       0.999679
    12262.415700       0.999808
    12277.470800       0.999905
    12292.563000       0.999969
    12307.692300       1.000000
    12322.858900       0.999999
    12338.062900       0.999967
    12353.304500       0.999903
    12368.583800       0.999807
    12383.900900       0.999681
    12399.256000       0.999524
    12414.649300       0.999336
    12430.080800       0.999118
    12445.550700       0.998870
    12461.059200       0.998593
    12476.606400       0.998287
    12492.192400       0.997951
    12507.817400       0.997587
    12523.481500       0.997195
    12539.185000       0.996775
    12554.927800       0.996327
    12570.710200       0.995852
    12586.532400       0.995350
    12602.394500       0.994822
    12618.296500       0.994267
    12634.238800       0.993686
    12650.221400       0.993080
    12666.244500       0.992449
    12682.308200       0.991793
    12698.412700       0.991113
    12714.558200       0.990408
    12730.744700       0.989680
    12746.972600       0.988929
    12763.241900       0.988155
    12779.552700       0.987358
    12795.905300       0.986539
    12812.299800       0.985699
    12828.736400       0.984837
    12845.215200       0.983954
    12861.736300       0.983051
    12878.300100       0.982128
    12894.906500       0.981185
    12911.555800       0.980223
    12928.248200       0.979242
    12944.983800       0.978243
    12961.762800       0.977226
    12978.585300       0.976191
    12995.451600       0.975139
    13012.361700       0.974070
    13029.316000       0.972985
    13046.314400       0.971885
    13063.357300       0.970769
    13080.444700       0.969637
    13097.576900       0.968492
    13114.754100       0.967332
    13131.976400       0.966159
    13149.243900       0.964972
    13166.556900       0.963773
    13183.915600       0.962561
    13201.320100       0.961337
    13218.770700       0.960103
    13236.267400       0.958857
    13253.810500       0.957600
    13271.400100       0.956334
    13289.036500       0.955058
    13306.719900       0.953772
    13324.450400       0.952478
    13342.228200       0.951176
    13360.053400       0.949866
    13377.926400       0.948548
    13395.847300       0.947224
    13413.816200       0.945893
    13431.833400       0.944556
    13449.899100       0.943214
    13468.013500       0.941866
    13486.176700       0.940514
    13504.388900       0.939158
    13522.650400       0.937798
    13540.961400       0.936434
    13559.322000       0.935068
    13577.732500       0.933699
    13596.193100       0.932328
    13614.703900       0.930956
    13633.265200       0.929583
    13651.877100       0.928209
    13670.540000       0.926835
    13689.253900       0.925460
    13708.019200       0.924087
    13726.836000       0.922715
    13745.704500       0.921344
    13764.624900       0.919975
    13783.597500       0.918609
    13802.622500       0.917245
    13821.700100       0.915885
    13840.830400       0.914528
    13860.013900       0.913175
    13879.250500       0.911827
    13898.540700       0.910483
    13917.884500       0.909145
    13937.282200       0.907812
    13956.734100       0.906486
    13976.240400       0.905166
    13995.801300       0.903853
    14015.417000       0.902547
    14035.087700       0.901248
    14054.813800       0.899958
    14074.595400       0.898676
    14094.432700       0.897403
    14114.326000       0.896139
    14134.275600       0.894885
    14154.281700       0.893640
    14174.344400       0.892406
    14194.464200       0.891182
    14214.641100       0.889969
    14234.875400       0.888767
    14255.167500       0.887577
    14275.517500       0.886399
    14295.925700       0.885233
    14316.392300       0.884079
    14336.917600       0.882939
    14357.501800       0.881811
    14378.145200       0.880697
    14398.848100       0.879597
    14419.610700       0.878511
    14440.433200       0.877439
    14461.316000       0.876382
    14482.259200       0.875340
    14503.263200       0.874313
    14524.328200       0.873302
    14545.454500       0.872306
    14566.642400       0.871326
    14587.892000       0.870363
    14609.203800       0.869416
    14630.577900       0.868485
    14652.014700       0.867572
    14673.514300       0.866675
    14695.077100       0.865796
    14716.703500       0.864934
    14738.393500       0.864091
    14760.147600       0.863264
    14781.966000       0.862457
    14803.849000       0.861667
    14825.796900       0.860896
    14847.809900       0.860143
    14869.888500       0.859409
    14892.032800       0.858694
    14914.243100       0.857998
    14936.519800       0.857321
    14958.863100       0.856663
    14981.273400       0.856025
    15003.750900       0.855406
    15026.296000       0.854806
    15048.909000       0.854227
    15071.590100       0.853667
    15094.339600       0.853127
    15117.158000       0.852606
    15140.045400       0.852106
    15163.002300       0.851625
    15186.028900       0.851165
    15209.125500       0.850724
    15232.292500       0.850304
    15255.530100       0.849903
    15278.838800       0.849523
    15302.218800       0.849162
    15325.670500       0.848822
    15349.194200       0.848501
    15372.790200       0.848200
    15396.458800       0.847920
    15420.200500       0.847659
    15444.015400       0.847418
    15467.904100       0.847196
    15491.866800       0.846994
    15515.903800       0.846812
    15540.015500       0.846649
    15564.202300       0.846505
    15588.464500       0.846381
    15612.802500       0.846276
    15637.216600       0.846189
    15661.707100       0.846121
    15686.274500       0.846072
    15710.919100       0.846041
    15735.641200       0.846029
    15760.441300       0.846034
    15785.319700       0.846057
    15810.276700       0.846098
    15835.312700       0.846156
    15860.428200       0.846232
    15885.623500       0.846324
    15910.899000       0.846433
    15936.255000       0.846559
    15961.691900       0.846701
    15987.210200       0.846858
    16012.810200       0.847031
    16038.492400       0.847220
    16064.257000       0.847423
    16090.104600       0.847641
    16116.035500       0.847874
    16142.050000       0.848120
    16168.148700       0.848380
    16194.332000       0.848654
    16220.600200       0.848940
    16246.953700       0.849239
    16273.393000       0.849550
    16299.918500       0.849872
    16326.530600       0.850207
    16353.229800       0.850552
    16380.016400       0.850907
    16406.890900       0.851273
    16433.853700       0.851648
    16460.905300       0.852032
    16488.046200       0.852425
    16515.276600       0.852826
    16542.597200       0.853235
    16570.008300       0.853651
    16597.510400       0.854074
    16625.103900       0.854503
    16652.789300       0.854938
    16680.567100       0.855378
    16708.437800       0.855822
    16736.401700       0.856271
    16764.459300       0.856723
    16792.611300       0.857178
    16820.857900       0.857636
    16849.199700       0.858095
    16877.637100       0.858555
    16906.170800       0.859016
    16934.801000       0.859477
    16963.528400       0.859937
    16992.353400       0.860396
    17021.276600       0.860853
    17050.298400       0.861308
    17079.419300       0.861759
    17108.639900       0.862206
    17137.960600       0.862649
    17167.382000       0.863086
    17196.904600       0.863518
    17226.528900       0.863943
    17256.255400       0.864360
    17286.084700       0.864770
    17316.017300       0.865170
    17346.053800       0.865562
    17376.194600       0.865943
    17406.440400       0.866313
    17436.791600       0.866671
    17467.248900       0.867017
    17497.812800       0.867350
    17528.483800       0.867669
    17559.262500       0.867973
    17590.149500       0.868262
    17621.145400       0.868534
    17652.250700       0.868789
    17683.466000       0.869027
