11 , goes_09_sounder_11.flt
Number of data points:
1183
Wavenumber (cm-1)   Filter response
     1363.000000       0.000290
     1363.100000       0.000511
     1363.200000       0.000739
     1363.300000       0.000985
     1363.400000       0.001246
     1363.500000       0.001525
     1363.600000       0.001831
     1363.700000       0.002160
     1363.800000       0.002510
     1363.900000       0.002876
     1364.000000       0.003252
     1364.100000       0.003624
     1364.200000       0.003987
     1364.300000       0.004332
     1364.400000       0.004654
     1364.500000       0.004941
     1364.600000       0.005184
     1364.700000       0.005379
     1364.800000       0.005512
     1364.900000       0.005577
     1365.000000       0.005565
     1365.100000       0.005471
     1365.200000       0.005306
     1365.300000       0.005084
     1365.400000       0.004817
     1365.500000       0.004524
     1365.600000       0.004218
     1365.700000       0.003913
     1365.800000       0.003620
     1365.900000       0.003359
     1366.000000       0.003142
     1366.100000       0.002971
     1366.200000       0.002843
     1366.300000       0.002761
     1366.400000       0.002723
     1366.500000       0.002726
     1366.600000       0.002769
     1366.700000       0.002852
     1366.800000       0.002974
     1366.900000       0.003134
     1367.000000       0.003328
     1367.100000       0.003557
     1367.200000       0.003823
     1367.300000       0.004119
     1367.400000       0.004445
     1367.500000       0.004802
     1367.600000       0.005191
     1367.700000       0.005606
     1367.800000       0.006045
     1367.900000       0.006515
     1368.000000       0.007005
     1368.100000       0.007516
     1368.200000       0.008049
     1368.300000       0.008607
     1368.400000       0.009180
     1368.500000       0.009770
     1368.600000       0.010378
     1368.700000       0.011008
     1368.800000       0.011648
     1368.900000       0.012303
     1369.000000       0.012979
     1369.100000       0.013663
     1369.200000       0.014360
     1369.300000       0.015070
     1369.400000       0.015798
     1369.500000       0.016530
     1369.600000       0.017271
     1369.700000       0.018018
     1369.800000       0.018780
     1369.900000       0.019538
     1370.000000       0.020298
     1370.100000       0.021067
     1370.200000       0.021828
     1370.300000       0.022585
     1370.400000       0.023338
     1370.500000       0.024095
     1370.600000       0.024839
     1370.700000       0.025579
     1370.800000       0.026327
     1370.900000       0.027071
     1371.000000       0.027820
     1371.100000       0.028578
     1371.200000       0.029356
     1371.300000       0.030141
     1371.400000       0.030943
     1371.500000       0.031765
     1371.600000       0.032617
     1371.700000       0.033486
     1371.800000       0.034382
     1371.900000       0.035317
     1372.000000       0.036275
     1372.100000       0.037268
     1372.200000       0.038297
     1372.300000       0.039377
     1372.400000       0.040488
     1372.500000       0.041645
     1372.600000       0.042850
     1372.700000       0.044119
     1372.800000       0.045429
     1372.900000       0.046796
     1373.000000       0.048238
     1373.100000       0.049729
     1373.200000       0.051286
     1373.300000       0.052913
     1373.400000       0.054628
     1373.500000       0.056400
     1373.600000       0.058247
     1373.700000       0.060173
     1373.800000       0.062199
     1373.900000       0.064285
     1374.000000       0.066457
     1374.100000       0.068735
     1374.200000       0.071071
     1374.300000       0.073489
     1374.400000       0.075989
     1374.500000       0.078595
     1374.600000       0.081255
     1374.700000       0.083999
     1374.800000       0.086852
     1374.900000       0.089758
     1375.000000       0.092749
     1375.100000       0.095826
     1375.200000       0.099019
     1375.300000       0.102265
     1375.400000       0.105603
     1375.500000       0.109061
     1375.600000       0.112570
     1375.700000       0.116170
     1375.800000       0.119861
     1375.900000       0.123677
     1376.000000       0.127543
     1376.100000       0.131501
     1376.200000       0.135553
     1376.300000       0.139733
     1376.400000       0.143958
     1376.500000       0.148273
     1376.600000       0.152679
     1376.700000       0.157208
     1376.800000       0.161772
     1376.900000       0.166428
     1377.000000       0.171201
     1377.100000       0.176003
     1377.200000       0.180881
     1377.300000       0.185837
     1377.400000       0.190906
     1377.500000       0.195988
     1377.600000       0.201149
     1377.700000       0.206415
     1377.800000       0.211698
     1377.900000       0.217062
     1378.000000       0.222522
     1378.100000       0.228121
     1378.200000       0.233761
     1378.300000       0.239532
     1378.400000       0.245473
     1378.500000       0.251489
     1378.600000       0.257657
     1378.700000       0.263996
     1378.800000       0.270561
     1378.900000       0.277242
     1379.000000       0.284126
     1379.100000       0.291235
     1379.200000       0.298628
     1379.300000       0.306173
     1379.400000       0.313995
     1379.500000       0.322133
     1379.600000       0.330455
     1379.700000       0.339061
     1379.800000       0.347976
     1379.900000       0.357262
     1380.000000       0.366755
     1380.100000       0.376611
     1380.200000       0.386860
     1380.300000       0.397307
     1380.400000       0.408027
     1380.500000       0.419013
     1380.600000       0.430279
     1380.700000       0.441604
     1380.800000       0.453074
     1380.900000       0.464684
     1381.000000       0.476445
     1381.100000       0.488127
     1381.200000       0.499826
     1381.300000       0.511541
     1381.400000       0.523292
     1381.500000       0.534843
     1381.600000       0.546358
     1381.700000       0.557818
     1381.800000       0.569019
     1381.900000       0.580070
     1382.000000       0.591009
     1382.100000       0.601884
     1382.200000       0.612519
     1382.300000       0.623110
     1382.400000       0.633667
     1382.500000       0.644048
     1382.600000       0.654384
     1382.700000       0.664721
     1382.800000       0.675097
     1382.900000       0.685372
     1383.000000       0.695675
     1383.100000       0.706054
     1383.200000       0.716546
     1383.300000       0.726988
     1383.400000       0.737554
     1383.500000       0.748211
     1383.600000       0.758779
     1383.700000       0.769319
     1383.800000       0.779823
     1383.900000       0.790257
     1384.000000       0.800433
     1384.100000       0.810410
     1384.200000       0.820179
     1384.300000       0.829722
     1384.400000       0.838874
     1384.500000       0.847778
     1384.600000       0.856394
     1384.700000       0.864583
     1384.800000       0.872473
     1384.900000       0.880022
     1385.000000       0.887121
     1385.100000       0.893835
     1385.200000       0.900163
     1385.300000       0.906120
     1385.400000       0.911794
     1385.500000       0.917460
     1385.600000       0.923357
     1385.700000       0.929697
     1385.800000       0.936603
     1385.900000       0.944404
     1386.000000       0.953316
     1386.100000       0.963264
     1386.200000       0.973298
     1386.300000       0.981531
     1386.400000       0.986910
     1386.500000       0.990042
     1386.600000       0.992099
     1386.700000       0.993655
     1386.800000       0.994903
     1386.900000       0.995960
     1387.000000       0.996875
     1387.100000       0.997652
     1387.200000       0.998295
     1387.300000       0.998824
     1387.400000       0.999249
     1387.500000       0.999575
     1387.600000       0.999799
     1387.700000       0.999940
     1387.800000       1.000000
     1387.900000       0.999981
     1388.000000       0.999894
     1388.100000       0.999741
     1388.200000       0.999518
     1388.300000       0.999220
     1388.400000       0.998869
     1388.500000       0.998474
     1388.600000       0.998042
     1388.700000       0.997591
     1388.800000       0.997136
     1388.900000       0.996689
     1389.000000       0.996252
     1389.100000       0.995829
     1389.200000       0.995422
     1389.300000       0.995019
     1389.400000       0.994609
     1389.500000       0.994197
     1389.600000       0.993784
     1389.700000       0.993369
     1389.800000       0.992948
     1389.900000       0.992528
     1390.000000       0.992105
     1390.100000       0.991678
     1390.200000       0.991248
     1390.300000       0.990815
     1390.400000       0.990387
     1390.500000       0.989972
     1390.600000       0.989579
     1390.700000       0.989218
     1390.800000       0.988893
     1390.900000       0.988607
     1391.000000       0.988374
     1391.100000       0.988197
     1391.200000       0.988079
     1391.300000       0.988034
     1391.400000       0.988052
     1391.500000       0.988121
     1391.600000       0.988229
     1391.700000       0.988373
     1391.800000       0.988542
     1391.900000       0.988727
     1392.000000       0.988922
     1392.100000       0.989119
     1392.200000       0.989308
     1392.300000       0.989466
     1392.400000       0.989586
     1392.500000       0.989664
     1392.600000       0.989693
     1392.700000       0.989669
     1392.800000       0.989586
     1392.900000       0.989440
     1393.000000       0.989227
     1393.100000       0.988941
     1393.200000       0.988587
     1393.300000       0.988201
     1393.400000       0.987817
     1393.500000       0.987459
     1393.600000       0.987156
     1393.700000       0.986934
     1393.800000       0.986802
     1393.900000       0.986766
     1394.000000       0.986828
     1394.100000       0.986989
     1394.200000       0.987248
     1394.300000       0.987579
     1394.400000       0.987956
     1394.500000       0.988356
     1394.600000       0.988766
     1394.700000       0.989158
     1394.800000       0.989513
     1394.900000       0.989811
     1395.000000       0.990037
     1395.100000       0.990175
     1395.200000       0.990223
     1395.300000       0.990190
     1395.400000       0.990082
     1395.500000       0.989901
     1395.600000       0.989653
     1395.700000       0.989340
     1395.800000       0.988968
     1395.900000       0.988538
     1396.000000       0.988050
     1396.100000       0.987502
     1396.200000       0.986891
     1396.300000       0.986227
     1396.400000       0.985524
     1396.500000       0.984803
     1396.600000       0.984084
     1396.700000       0.983392
     1396.800000       0.982750
     1396.900000       0.982181
     1397.000000       0.981711
     1397.100000       0.981361
     1397.200000       0.981150
     1397.300000       0.981069
     1397.400000       0.981081
     1397.500000       0.981148
     1397.600000       0.981230
     1397.700000       0.981288
     1397.800000       0.981282
     1397.900000       0.981172
     1398.000000       0.980919
     1398.100000       0.980483
     1398.200000       0.979831
     1398.300000       0.978957
     1398.400000       0.977892
     1398.500000       0.976674
     1398.600000       0.975343
     1398.700000       0.973936
     1398.800000       0.972495
     1398.900000       0.971062
     1399.000000       0.969679
     1399.100000       0.968392
     1399.200000       0.967240
     1399.300000       0.966231
     1399.400000       0.965349
     1399.500000       0.964568
     1399.600000       0.963859
     1399.700000       0.963196
     1399.800000       0.962555
     1399.900000       0.961909
     1400.000000       0.961232
     1400.100000       0.960494
     1400.200000       0.959681
     1400.300000       0.958794
     1400.400000       0.957855
     1400.500000       0.956894
     1400.600000       0.955938
     1400.700000       0.955013
     1400.800000       0.954143
     1400.900000       0.953360
     1401.000000       0.952688
     1401.100000       0.952153
     1401.200000       0.951776
     1401.300000       0.951549
     1401.400000       0.951451
     1401.500000       0.951458
     1401.600000       0.951551
     1401.700000       0.951707
     1401.800000       0.951903
     1401.900000       0.952117
     1402.000000       0.952328
     1402.100000       0.952514
     1402.200000       0.952656
     1402.300000       0.952759
     1402.400000       0.952828
     1402.500000       0.952863
     1402.600000       0.952864
     1402.700000       0.952836
     1402.800000       0.952777
     1402.900000       0.952685
     1403.000000       0.952567
     1403.100000       0.952420
     1403.200000       0.952245
     1403.300000       0.952024
     1403.400000       0.951759
     1403.500000       0.951439
     1403.600000       0.951058
     1403.700000       0.950598
     1403.800000       0.950067
     1403.900000       0.949453
     1404.000000       0.948744
     1404.100000       0.947975
     1404.200000       0.947159
     1404.300000       0.946331
     1404.400000       0.945511
     1404.500000       0.944754
     1404.600000       0.944085
     1404.700000       0.943526
     1404.800000       0.943125
     1404.900000       0.942875
     1405.000000       0.942752
     1405.100000       0.942726
     1405.200000       0.942772
     1405.300000       0.942844
     1405.400000       0.942898
     1405.500000       0.942910
     1405.600000       0.942884
     1405.700000       0.942830
     1405.800000       0.942757
     1405.900000       0.942686
     1406.000000       0.942627
     1406.100000       0.942588
     1406.200000       0.942559
     1406.300000       0.942543
     1406.400000       0.942536
     1406.500000       0.942536
     1406.600000       0.942539
     1406.700000       0.942545
     1406.800000       0.942549
     1406.900000       0.942550
     1407.000000       0.942546
     1407.100000       0.942534
     1407.200000       0.942512
     1407.300000       0.942487
     1407.400000       0.942458
     1407.500000       0.942432
     1407.600000       0.942426
     1407.700000       0.942458
     1407.800000       0.942546
     1407.900000       0.942707
     1408.000000       0.942958
     1408.100000       0.943303
     1408.200000       0.943735
     1408.300000       0.944233
     1408.400000       0.944782
     1408.500000       0.945363
     1408.600000       0.945966
     1408.700000       0.946578
     1408.800000       0.947181
     1408.900000       0.947763
     1409.000000       0.948309
     1409.100000       0.948805
     1409.200000       0.949252
     1409.300000       0.949668
     1409.400000       0.950059
     1409.500000       0.950404
     1409.600000       0.950653
     1409.700000       0.950757
     1409.800000       0.950665
     1409.900000       0.950331
     1410.000000       0.949707
     1410.100000       0.948775
     1410.200000       0.947540
     1410.300000       0.946075
     1410.400000       0.944453
     1410.500000       0.942755
     1410.600000       0.941056
     1410.700000       0.939447
     1410.800000       0.938002
     1410.900000       0.936800
     1411.000000       0.935923
     1411.100000       0.935437
     1411.200000       0.935360
     1411.300000       0.935638
     1411.400000       0.936189
     1411.500000       0.936947
     1411.600000       0.937844
     1411.700000       0.938798
     1411.800000       0.939798
     1411.900000       0.940903
     1412.000000       0.942187
     1412.100000       0.943652
     1412.200000       0.945105
     1412.300000       0.946309
     1412.400000       0.947122
     1412.500000       0.947634
     1412.600000       0.947927
     1412.700000       0.948092
     1412.800000       0.948181
     1412.900000       0.948222
     1413.000000       0.948233
     1413.100000       0.948233
     1413.200000       0.948225
     1413.300000       0.948211
     1413.400000       0.948183
     1413.500000       0.948133
     1413.600000       0.948057
     1413.700000       0.947950
     1413.800000       0.947810
     1413.900000       0.947639
     1414.000000       0.947439
     1414.100000       0.947215
     1414.200000       0.946970
     1414.300000       0.946719
     1414.400000       0.946475
     1414.500000       0.946247
     1414.600000       0.946047
     1414.700000       0.945883
     1414.800000       0.945761
     1414.900000       0.945683
     1415.000000       0.945655
     1415.100000       0.945679
     1415.200000       0.945761
     1415.300000       0.945887
     1415.400000       0.946053
     1415.500000       0.946252
     1415.600000       0.946477
     1415.700000       0.946719
     1415.800000       0.946971
     1415.900000       0.947228
     1416.000000       0.947483
     1416.100000       0.947723
     1416.200000       0.947944
     1416.300000       0.948142
     1416.400000       0.948314
     1416.500000       0.948462
     1416.600000       0.948588
     1416.700000       0.948696
     1416.800000       0.948778
     1416.900000       0.948842
     1417.000000       0.948886
     1417.100000       0.948914
     1417.200000       0.948920
     1417.300000       0.948907
     1417.400000       0.948870
     1417.500000       0.948801
     1417.600000       0.948702
     1417.700000       0.948578
     1417.800000       0.948430
     1417.900000       0.948258
     1418.000000       0.948065
     1418.100000       0.947856
     1418.200000       0.947633
     1418.300000       0.947403
     1418.400000       0.947176
     1418.500000       0.946961
     1418.600000       0.946760
     1418.700000       0.946582
     1418.800000       0.946436
     1418.900000       0.946324
     1419.000000       0.946239
     1419.100000       0.946189
     1419.200000       0.946172
     1419.300000       0.946171
     1419.400000       0.946188
     1419.500000       0.946221
     1419.600000       0.946270
     1419.700000       0.946320
     1419.800000       0.946381
     1419.900000       0.946447
     1420.000000       0.946508
     1420.100000       0.946566
     1420.200000       0.946625
     1420.300000       0.946686
     1420.400000       0.946737
     1420.500000       0.946779
     1420.600000       0.946808
     1420.700000       0.946818
     1420.800000       0.946792
     1420.900000       0.946735
     1421.000000       0.946638
     1421.100000       0.946483
     1421.200000       0.946268
     1421.300000       0.945985
     1421.400000       0.945630
     1421.500000       0.945195
     1421.600000       0.944687
     1421.700000       0.944101
     1421.800000       0.943434
     1421.900000       0.942693
     1422.000000       0.941883
     1422.100000       0.941010
     1422.200000       0.940078
     1422.300000       0.939093
     1422.400000       0.938064
     1422.500000       0.937001
     1422.600000       0.935917
     1422.700000       0.934819
     1422.800000       0.933719
     1422.900000       0.932628
     1423.000000       0.931556
     1423.100000       0.930510
     1423.200000       0.929504
     1423.300000       0.928547
     1423.400000       0.927634
     1423.500000       0.926753
     1423.600000       0.925898
     1423.700000       0.925065
     1423.800000       0.924238
     1423.900000       0.923413
     1424.000000       0.922584
     1424.100000       0.921741
     1424.200000       0.920872
     1424.300000       0.919980
     1424.400000       0.919085
     1424.500000       0.918199
     1424.600000       0.917345
     1424.700000       0.916546
     1424.800000       0.915818
     1424.900000       0.915179
     1425.000000       0.914649
     1425.100000       0.914248
