11,   11, MVIRI VIS channel from srf_MET2_1983168_1983169_1801-Release_S10EL_10.dat
Number of data points:
730
Wavenumber (cm-1)   Filter response
     8916.629500       0.000000
     8924.587200       0.000000
     8932.559200       0.000002
     8940.545400       0.000011
     8948.545900       0.000032
     8956.560700       0.000068
     8964.589900       0.000125
     8972.633500       0.000205
     8980.691500       0.000314
     8988.764000       0.000455
     8996.851100       0.000632
     9004.952700       0.000848
     9013.068900       0.001106
     9021.199800       0.001410
     9029.345400       0.001762
     9037.505600       0.002165
     9045.680700       0.002623
     9053.870500       0.003138
     9062.075200       0.003712
     9070.294800       0.004347
     9078.529300       0.005046
     9086.778700       0.005811
     9095.043200       0.006644
     9103.322700       0.007546
     9111.617300       0.008520
     9119.927000       0.009567
     9128.251900       0.010688
     9136.592100       0.011885
     9144.947400       0.013159
     9153.318100       0.014512
     9161.704100       0.015944
     9170.105500       0.017457
     9178.522300       0.019051
     9186.954500       0.020727
     9195.402300       0.022486
     9203.865600       0.024329
     9212.344500       0.026256
     9220.839100       0.028267
     9229.349300       0.030364
     9237.875300       0.032545
     9246.417000       0.034812
     9254.974500       0.037165
     9263.547900       0.039604
     9272.137200       0.042128
     9280.742500       0.044739
     9289.363700       0.047435
     9298.000900       0.050216
     9306.654300       0.053083
     9315.323700       0.056035
     9324.009300       0.059071
     9332.711200       0.062192
     9341.429200       0.065397
     9350.163600       0.068685
     9358.914400       0.072055
     9367.681500       0.075508
     9376.465100       0.079043
     9385.265100       0.082658
     9394.081700       0.086354
     9402.914900       0.090128
     9411.764700       0.093982
     9420.631200       0.097913
     9429.514400       0.101921
     9438.414300       0.106005
     9447.331100       0.110163
     9456.264800       0.114396
     9465.215300       0.118702
     9474.182900       0.123080
     9483.167400       0.127529
     9492.169000       0.132046
     9501.187600       0.136634
     9510.223500       0.141288
     9519.276500       0.146009
     9528.346800       0.150795
     9537.434400       0.155645
     9546.539400       0.160557
     9555.661700       0.165531
     9564.801500       0.170564
     9573.958800       0.175658
     9583.133700       0.180808
     9592.326100       0.186015
     9601.536200       0.191277
     9610.764100       0.196591
     9620.009600       0.201959
     9629.273000       0.207378
     9638.554200       0.212846
     9647.853400       0.218362
     9657.170400       0.223924
     9666.505600       0.229533
     9675.858700       0.235186
     9685.230000       0.240880
     9694.619500       0.246617
     9704.027200       0.252392
     9713.453100       0.258207
     9722.897400       0.264058
     9732.360100       0.269945
     9741.841200       0.275866
     9751.340800       0.281820
     9760.859000       0.287805
     9770.395700       0.293820
     9779.951100       0.299864
     9789.525200       0.305935
     9799.118100       0.312031
     9808.729800       0.318152
     9818.360300       0.324296
     9828.009800       0.330461
     9837.678300       0.336647
     9847.365800       0.342851
     9857.072400       0.349073
     9866.798200       0.355311
     9876.543200       0.361563
     9886.307500       0.367829
     9896.091000       0.374108
     9905.894000       0.380396
     9915.716400       0.386695
     9925.558300       0.393001
     9935.419800       0.399314
     9945.300800       0.405634
     9955.201600       0.411956
     9965.122100       0.418283
     9975.062300       0.424610
     9985.022500       0.430939
     9995.002500       0.437267
    10005.002500       0.443593
    10015.022500       0.449915
    10025.062700       0.456234
    10035.122900       0.462546
    10045.203400       0.468853
    10055.304200       0.475152
    10065.425300       0.481441
    10075.566800       0.487721
    10085.728700       0.493989
    10095.911200       0.500246
    10106.114200       0.506489
    10116.337900       0.512717
    10126.582300       0.518930
    10136.847400       0.525127
    10147.133400       0.531306
    10157.440300       0.537467
    10167.768200       0.543609
    10178.117000       0.549730
    10188.487000       0.555829
    10198.878100       0.561907
    10209.290500       0.567961
    10219.724100       0.573991
    10230.179000       0.579996
    10240.655400       0.585976
    10251.153300       0.591928
    10261.672700       0.597853
    10272.213700       0.603750
    10282.776300       0.609617
    10293.360800       0.615455
    10303.967000       0.621261
    10314.595200       0.627036
    10325.245200       0.632779
    10335.917300       0.638489
    10346.611500       0.644165
    10357.327800       0.649807
    10368.066400       0.655414
    10378.827200       0.660985
    10389.610400       0.666520
    10400.416000       0.672017
    10411.244100       0.677477
    10422.094800       0.682899
    10432.968200       0.688282
    10443.864200       0.693626
    10454.783100       0.698930
    10465.724800       0.704194
    10476.689400       0.709416
    10487.677000       0.714597
    10498.687700       0.719737
    10509.721500       0.724833
    10520.778500       0.729887
    10531.858900       0.734898
    10542.962600       0.739865
    10554.089700       0.744788
    10565.240400       0.749667
    10576.414600       0.754500
    10587.612500       0.759289
    10598.834100       0.764032
    10610.079600       0.768728
    10621.348900       0.773379
    10632.642200       0.777983
    10643.959600       0.782540
    10655.301000       0.787051
    10666.666700       0.791513
    10678.056600       0.795928
    10689.470900       0.800296
    10700.909600       0.804615
    10712.372800       0.808886
    10723.860600       0.813108
    10735.373100       0.817282
    10746.910300       0.821407
    10758.472300       0.825483
    10770.059200       0.829510
    10781.671200       0.833488
    10793.308100       0.837416
    10804.970300       0.841294
    10816.657700       0.845124
    10828.370300       0.848903
    10840.108400       0.852633
    10851.871900       0.856312
    10863.661100       0.859942
    10875.475800       0.863523
    10887.316300       0.867053
    10899.182600       0.870533
    10911.074700       0.873963
    10922.992900       0.877343
    10934.937100       0.880674
    10946.907500       0.883954
    10958.904100       0.887185
    10970.927000       0.890366
    10982.976400       0.893497
    10995.052200       0.896578
    11007.154700       0.899609
    11019.283700       0.902591
    11031.439600       0.905524
    11043.622300       0.908407
    11055.832000       0.911241
    11068.068600       0.914026
    11080.332400       0.916761
    11092.623400       0.919448
    11104.941700       0.922086
    11117.287400       0.924675
    11129.660500       0.927216
    11142.061300       0.929709
    11154.489700       0.932153
    11166.945800       0.934550
    11179.429800       0.936898
    11191.941800       0.939200
    11204.481800       0.941453
    11217.049900       0.943660
    11229.646300       0.945819
    11242.270900       0.947932
    11254.924000       0.949998
    11267.605600       0.952017
    11280.315800       0.953991
    11293.054800       0.955919
    11305.822500       0.957801
    11318.619100       0.959638
    11331.444800       0.961429
    11344.299500       0.963176
    11357.183400       0.964877
    11370.096600       0.966535
    11383.039300       0.968149
    11396.011400       0.969718
    11409.013100       0.971244
    11422.044500       0.972727
    11435.105800       0.974167
    11448.196900       0.975564
    11461.318100       0.976918
    11474.469300       0.978230
    11487.650800       0.979501
    11500.862600       0.980730
    11514.104800       0.981917
    11527.377500       0.983064
    11540.680900       0.984170
    11554.015000       0.985236
    11567.380000       0.986261
    11580.775900       0.987247
    11594.202900       0.988193
    11607.661100       0.989101
    11621.150500       0.989969
    11634.671300       0.990799
    11648.223600       0.991591
    11661.807600       0.992345
    11675.423200       0.993061
    11689.070700       0.993740
    11702.750100       0.994382
    11716.461600       0.994988
    11730.205300       0.995557
    11743.981200       0.996091
    11757.789500       0.996589
    11771.630400       0.997051
    11785.503800       0.997479
    11799.410000       0.997872
    11813.349100       0.998230
    11827.321100       0.998555
    11841.326200       0.998846
    11855.364600       0.999103
    11869.436200       0.999327
    11883.541300       0.999519
    11897.680000       0.999678
    11911.852300       0.999806
    11926.058400       0.999901
    11940.298500       0.999965
    11954.572600       0.999998
    11968.880900       1.000000
    11983.223500       0.999972
    11997.600500       0.999913
    12012.012000       0.999824
    12026.458200       0.999706
    12040.939200       0.999559
    12055.455100       0.999382
    12070.006000       0.999177
    12084.592100       0.998944
    12099.213600       0.998682
    12113.870400       0.998393
    12128.562800       0.998076
    12143.290800       0.997732
    12158.054700       0.997361
    12172.854500       0.996964
    12187.690400       0.996540
    12202.562500       0.996091
    12217.471000       0.995615
    12232.415900       0.995114
    12247.397400       0.994588
    12262.415700       0.994037
    12277.470800       0.993462
    12292.563000       0.992862
    12307.692300       0.992238
    12322.858900       0.991590
    12338.062900       0.990919
    12353.304500       0.990224
    12368.583800       0.989506
    12383.900900       0.988766
    12399.256000       0.988003
    12414.649300       0.987218
    12430.080800       0.986410
    12445.550700       0.985581
    12461.059200       0.984731
    12476.606400       0.983859
    12492.192400       0.982966
    12507.817400       0.982052
    12523.481500       0.981118
    12539.185000       0.980163
    12554.927800       0.979188
    12570.710200       0.978193
    12586.532400       0.977179
    12602.394500       0.976145
    12618.296500       0.975091
    12634.238800       0.974019
    12650.221400       0.972928
    12666.244500       0.971818
    12682.308200       0.970690
    12698.412700       0.969543
    12714.558200       0.968378
    12730.744700       0.967196
    12746.972600       0.965996
    12763.241900       0.964778
    12779.552700       0.963543
    12795.905300       0.962291
    12812.299800       0.961022
    12828.736400       0.959736
    12845.215200       0.958433
    12861.736300       0.957114
    12878.300100       0.955779
    12894.906500       0.954428
    12911.555800       0.953061
    12928.248200       0.951678
    12944.983800       0.950279
    12961.762800       0.948865
    12978.585300       0.947435
    12995.451600       0.945991
    13012.361700       0.944531
    13029.316000       0.943056
    13046.314400       0.941567
    13063.357300       0.940063
    13080.444700       0.938544
    13097.576900       0.937011
    13114.754100       0.935464
    13131.976400       0.933902
    13149.243900       0.932327
    13166.556900       0.930738
    13183.915600       0.929135
    13201.320100       0.927518
    13218.770700       0.925888
    13236.267400       0.924245
    13253.810500       0.922588
    13271.400100       0.920918
    13289.036500       0.919235
    13306.719900       0.917539
    13324.450400       0.915830
    13342.228200       0.914108
    13360.053400       0.912374
    13377.926400       0.910627
    13395.847300       0.908867
    13413.816200       0.907095
    13431.833400       0.905311
    13449.899100       0.903514
    13468.013500       0.901706
    13486.176700       0.899885
    13504.388900       0.898052
    13522.650400       0.896207
    13540.961400       0.894351
    13559.322000       0.892483
    13577.732500       0.890603
    13596.193100       0.888711
    13614.703900       0.886809
    13633.265200       0.884894
    13651.877100       0.882968
    13670.540000       0.881031
    13689.253900       0.879083
    13708.019200       0.877123
    13726.836000       0.875153
    13745.704500       0.873171
    13764.624900       0.871178
    13783.597500       0.869175
    13802.622500       0.867161
    13821.700100       0.865135
    13840.830400       0.863100
    13860.013900       0.861053
    13879.250500       0.858996
    13898.540700       0.856928
    13917.884500       0.854850
    13937.282200       0.852761
    13956.734100       0.850662
    13976.240400       0.848553
    13995.801300       0.846434
    14015.417000       0.844304
    14035.087700       0.842164
    14054.813800       0.840014
    14074.595400       0.837854
    14094.432700       0.835684
    14114.326000       0.833504
    14134.275600       0.831315
    14154.281700       0.829115
    14174.344400       0.826906
    14194.464200       0.824687
    14214.641100       0.822458
    14234.875400       0.820220
    14255.167500       0.817972
    14275.517500       0.815715
    14295.925700       0.813449
    14316.392300       0.811173
    14336.917600       0.808887
    14357.501800       0.806593
    14378.145200       0.804289
    14398.848100       0.801977
    14419.610700       0.799655
    14440.433200       0.797324
    14461.316000       0.794984
    14482.259200       0.792636
    14503.263200       0.790278
    14524.328200       0.787912
    14545.454500       0.785537
    14566.642400       0.783154
    14587.892000       0.780762
    14609.203800       0.778361
    14630.577900       0.775952
    14652.014700       0.773535
    14673.514300       0.771109
    14695.077100       0.768675
    14716.703500       0.766233
    14738.393500       0.763783
    14760.147600       0.761325
    14781.966000       0.758859
    14803.849000       0.756385
    14825.796900       0.753904
    14847.809900       0.751414
    14869.888500       0.748918
    14892.032800       0.746413
    14914.243100       0.743901
    14936.519800       0.741382
    14958.863100       0.738855
    14981.273400       0.736321
    15003.750900       0.733780
    15026.296000       0.731232
    15048.909000       0.728677
    15071.590100       0.726116
    15094.339600       0.723547
    15117.158000       0.720972
    15140.045400       0.718390
    15163.002300       0.715802
    15186.028900       0.713207
    15209.125500       0.710606
    15232.292500       0.707999
    15255.530100       0.705386
    15278.838800       0.702766
    15302.218800       0.700141
    15325.670500       0.697510
    15349.194200       0.694874
    15372.790200       0.692232
    15396.458800       0.689584
    15420.200500       0.686931
    15444.015400       0.684273
    15467.904100       0.681610
    15491.866800       0.678941
    15515.903800       0.676268
    15540.015500       0.673590
    15564.202300       0.670907
    15588.464500       0.668220
    15612.802500       0.665529
    15637.216600       0.662833
    15661.707100       0.660133
    15686.274500       0.657429
    15710.919100       0.654721
    15735.641200       0.652009
    15760.441300       0.649293
    15785.319700       0.646574
    15810.276700       0.643852
    15835.312700       0.641126
    15860.428200       0.638397
    15885.623500       0.635665
    15910.899000       0.632931
    15936.255000       0.630193
    15961.691900       0.627453
    15987.210200       0.624711
    16012.810200       0.621966
    16038.492400       0.619219
    16064.257000       0.616470
    16090.104600       0.613719
    16116.035500       0.610966
    16142.050000       0.608212
    16168.148700       0.605456
    16194.332000       0.602699
    16220.600200       0.599941
    16246.953700       0.597181
    16273.393000       0.594421
    16299.918500       0.591660
    16326.530600       0.588899
    16353.229800       0.586137
    16380.016400       0.583374
    16406.890900       0.580612
    16433.853700       0.577849
    16460.905300       0.575087
    16488.046200       0.572325
    16515.276600       0.569563
    16542.597200       0.566802
    16570.008300       0.564041
    16597.510400       0.561282
    16625.103900       0.558523
    16652.789300       0.555766
    16680.567100       0.553010
    16708.437800       0.550256
    16736.401700       0.547503
    16764.459300       0.544752
    16792.611300       0.542003
    16820.857900       0.539255
    16849.199700       0.536511
    16877.637100       0.533768
    16906.170800       0.531028
    16934.801000       0.528290
    16963.528400       0.525556
    16992.353400       0.522824
    17021.276600       0.520095
    17050.298400       0.517369
    17079.419300       0.514647
    17108.639900       0.511929
    17137.960600       0.509213
    17167.382000       0.506502
    17196.904600       0.503794
    17226.528900       0.501091
    17256.255400       0.498392
    17286.084700       0.495696
    17316.017300       0.493006
    17346.053800       0.490319
    17376.194600       0.487638
    17406.440400       0.484961
    17436.791600       0.482289
    17467.248900       0.479622
    17497.812800       0.476960
    17528.483800       0.474303
    17559.262500       0.471652
    17590.149500       0.469006
    17621.145400       0.466366
    17652.250700       0.463731
    17683.466000       0.461102
    17714.791900       0.458479
    17746.228900       0.455862
    17777.777800       0.453251
    17809.439000       0.450646
    17841.213200       0.448047
    17873.101000       0.445455
    17905.103000       0.442869
    17937.219700       0.440289
    17969.451900       0.437716
    18001.800200       0.435150
    18034.265100       0.432590
    18066.847300       0.430037
    18099.547500       0.427491
    18132.366300       0.424952
    18165.304300       0.422419
    18198.362100       0.419894
    18231.540600       0.417376
    18264.840200       0.414864
    18298.261700       0.412360
    18331.805700       0.409863
    18365.472900       0.407374
    18399.264000       0.404891
    18433.179700       0.402416
    18467.220700       0.399948
    18501.387600       0.397487
    18535.681200       0.395034
    18570.102100       0.392588
    18604.651200       0.390149
    18639.329000       0.387718
    18674.136300       0.385294
    18709.073900       0.382877
    18744.142500       0.380467
    18779.342700       0.378065
    18814.675400       0.375670
    18850.141400       0.373283
    18885.741300       0.370902
    18921.475900       0.368529
    18957.346000       0.366163
    18993.352300       0.363804
    19029.495700       0.361452
    19065.776900       0.359107
    19102.196800       0.356769
    19138.756000       0.354438
    19175.455400       0.352114
    19212.295900       0.349797
    19249.278200       0.347486
    19286.403100       0.345182
    19323.671500       0.342884
    19361.084200       0.340593
    19398.642100       0.338308
    19436.346000       0.336029
    19474.196700       0.333756
    19512.195100       0.331490
    19550.342100       0.329229
    19588.638600       0.326974
    19627.085400       0.324725
    19665.683400       0.322482
    19704.433500       0.320243
    19743.336600       0.318010
    19782.393700       0.315782
    19821.605600       0.313559
    19860.973200       0.311341
    19900.497500       0.309128
