48,   48, MVIRI VIS channel from srf_MET7_2003213_2003214_1801-Release_S10EE_10.dat
Number of data points:
793
Wavenumber (cm-1)   Filter response
     8442.380800       0.000000
     8449.514200       0.000000
     8456.659600       0.000004
     8463.817200       0.000054
     8470.986900       0.000160
     8478.168700       0.000321
     8485.362700       0.000534
     8492.569000       0.000798
     8499.787500       0.001112
     8507.018300       0.001474
     8514.261400       0.001883
     8521.516800       0.002337
     8528.784600       0.002836
     8536.064900       0.003378
     8543.357500       0.003961
     8550.662700       0.004585
     8557.980300       0.005249
     8565.310500       0.005952
     8572.653200       0.006691
     8580.008600       0.007468
     8587.376600       0.008280
     8594.757200       0.009126
     8602.150500       0.010006
     8609.556600       0.010920
     8616.975400       0.011865
     8624.407100       0.012842
     8631.851500       0.013850
     8639.308900       0.014887
     8646.779100       0.015954
     8654.262200       0.017049
     8661.758300       0.018173
     8669.267400       0.019324
     8676.789600       0.020502
     8684.324800       0.021707
     8691.873100       0.022937
     8699.434500       0.024193
     8707.009100       0.025474
     8714.596900       0.026780
     8722.198000       0.028110
     8729.812300       0.029463
     8737.439900       0.030841
     8745.080900       0.032241
     8752.735200       0.033664
     8760.403000       0.035111
     8768.084200       0.036579
     8775.778900       0.038069
     8783.487000       0.039582
     8791.208800       0.041116
     8798.944100       0.042672
     8806.693100       0.044249
     8814.455700       0.045847
     8822.232000       0.047466
     8830.022100       0.049106
     8837.825900       0.050766
     8845.643500       0.052448
     8853.475000       0.054150
     8861.320300       0.055872
     8869.179600       0.057615
     8877.052800       0.059379
     8884.940000       0.061163
     8892.841300       0.062967
     8900.756600       0.064791
     8908.686000       0.066636
     8916.629500       0.068501
     8924.587200       0.070386
     8932.559200       0.072292
     8940.545400       0.074218
     8948.545900       0.076164
     8956.560700       0.078131
     8964.589900       0.080118
     8972.633500       0.082126
     8980.691500       0.084154
     8988.764000       0.086203
     8996.851100       0.088272
     9004.952700       0.090362
     9013.068900       0.092473
     9021.199800       0.094605
     9029.345400       0.096758
     9037.505600       0.098932
     9045.680700       0.101127
     9053.870500       0.103343
     9062.075200       0.105581
     9070.294800       0.107840
     9078.529300       0.110120
     9086.778700       0.112422
     9095.043200       0.114746
     9103.322700       0.117091
     9111.617300       0.119458
     9119.927000       0.121847
     9128.251900       0.124259
     9136.592100       0.126692
     9144.947400       0.129147
     9153.318100       0.131625
     9161.704100       0.134125
     9170.105500       0.136648
     9178.522300       0.139193
     9186.954500       0.141761
     9195.402300       0.144352
     9203.865600       0.146965
     9212.344500       0.149602
     9220.839100       0.152261
     9229.349300       0.154943
     9237.875300       0.157649
     9246.417000       0.160377
     9254.974500       0.163129
     9263.547900       0.165904
     9272.137200       0.168702
     9280.742500       0.171524
     9289.363700       0.174369
     9298.000900       0.177238
     9306.654300       0.180130
     9315.323700       0.183046
     9324.009300       0.185985
     9332.711200       0.188948
     9341.429200       0.191934
     9350.163600       0.194944
     9358.914400       0.197977
     9367.681500       0.201034
     9376.465100       0.204115
     9385.265100       0.207219
     9394.081700       0.210347
     9402.914900       0.213498
     9411.764700       0.216673
     9420.631200       0.219872
     9429.514400       0.223094
     9438.414300       0.226339
     9447.331100       0.229607
     9456.264800       0.232900
     9465.215300       0.236215
     9474.182900       0.239553
     9483.167400       0.242915
     9492.169000       0.246299
     9501.187600       0.249706
     9510.223500       0.253137
     9519.276500       0.256589
     9528.346800       0.260065
     9537.434400       0.263563
     9546.539400       0.267084
     9555.661700       0.270627
     9564.801500       0.274191
     9573.958800       0.277778
     9583.133700       0.281387
     9592.326100       0.285018
     9601.536200       0.288670
     9610.764100       0.292343
     9620.009600       0.296038
     9629.273000       0.299754
     9638.554200       0.303490
     9647.853400       0.307248
     9657.170400       0.311026
     9666.505600       0.314824
     9675.858700       0.318642
     9685.230000       0.322480
     9694.619500       0.326338
     9704.027200       0.330215
     9713.453100       0.334112
     9722.897400       0.338027
     9732.360100       0.341961
     9741.841200       0.345914
     9751.340800       0.349884
     9760.859000       0.353873
     9770.395700       0.357880
     9779.951100       0.361903
     9789.525200       0.365945
     9799.118100       0.370003
     9808.729800       0.374077
     9818.360300       0.378168
     9828.009800       0.382274
     9837.678300       0.386397
     9847.365800       0.390535
     9857.072400       0.394687
     9866.798200       0.398855
     9876.543200       0.403037
     9886.307500       0.407233
     9896.091000       0.411443
     9905.894000       0.415666
     9915.716400       0.419902
     9925.558300       0.424151
     9935.419800       0.428412
     9945.300800       0.432685
     9955.201600       0.436970
     9965.122100       0.441266
     9975.062300       0.445573
     9985.022500       0.449891
     9995.002500       0.454218
    10005.002500       0.458556
    10015.022500       0.462902
    10025.062700       0.467258
    10035.122900       0.471622
    10045.203400       0.475994
    10055.304200       0.480374
    10065.425300       0.484762
    10075.566800       0.489156
    10085.728700       0.493557
    10095.911200       0.497964
    10106.114200       0.502377
    10116.337900       0.506795
    10126.582300       0.511217
    10136.847400       0.515645
    10147.133400       0.520076
    10157.440300       0.524511
    10167.768200       0.528948
    10178.117000       0.533389
    10188.487000       0.537831
    10198.878100       0.542276
    10209.290500       0.546722
    10219.724100       0.551169
    10230.179000       0.555616
    10240.655400       0.560063
    10251.153300       0.564510
    10261.672700       0.568955
    10272.213700       0.573400
    10282.776300       0.577842
    10293.360800       0.582282
    10303.967000       0.586720
    10314.595200       0.591154
    10325.245200       0.595585
    10335.917300       0.600011
    10346.611500       0.604433
    10357.327800       0.608850
    10368.066400       0.613261
    10378.827200       0.617667
    10389.610400       0.622066
    10400.416000       0.626458
    10411.244100       0.630842
    10422.094800       0.635219
    10432.968200       0.639587
    10443.864200       0.643947
    10454.783100       0.648298
    10465.724800       0.652639
    10476.689400       0.656969
    10487.677000       0.661289
    10498.687700       0.665598
    10509.721500       0.669896
    10520.778500       0.674181
    10531.858900       0.678454
    10542.962600       0.682714
    10554.089700       0.686961
    10565.240400       0.691194
    10576.414600       0.695412
    10587.612500       0.699616
    10598.834100       0.703805
    10610.079600       0.707978
    10621.348900       0.712135
    10632.642200       0.716276
    10643.959600       0.720400
    10655.301000       0.724506
    10666.666700       0.728594
    10678.056600       0.732664
    10689.470900       0.736716
    10700.909600       0.740748
    10712.372800       0.744761
    10723.860600       0.748754
    10735.373100       0.752727
    10746.910300       0.756679
    10758.472300       0.760609
    10770.059200       0.764518
    10781.671200       0.768405
    10793.308100       0.772269
    10804.970300       0.776111
    10816.657700       0.779930
    10828.370300       0.783725
    10840.108400       0.787495
    10851.871900       0.791242
    10863.661100       0.794964
    10875.475800       0.798660
    10887.316300       0.802331
    10899.182600       0.805976
    10911.074700       0.809595
    10922.992900       0.813187
    10934.937100       0.816752
    10946.907500       0.820290
    10958.904100       0.823800
    10970.927000       0.827283
    10982.976400       0.830737
    10995.052200       0.834162
    11007.154700       0.837558
    11019.283700       0.840924
    11031.439600       0.844262
    11043.622300       0.847569
    11055.832000       0.850845
    11068.068600       0.854091
    11080.332400       0.857307
    11092.623400       0.860491
    11104.941700       0.863644
    11117.287400       0.866764
    11129.660500       0.869853
    11142.061300       0.872910
    11154.489700       0.875933
    11166.945800       0.878924
    11179.429800       0.881882
    11191.941800       0.884807
    11204.481800       0.887698
    11217.049900       0.890555
    11229.646300       0.893378
    11242.270900       0.896167
    11254.924000       0.898921
    11267.605600       0.901641
    11280.315800       0.904325
    11293.054800       0.906974
    11305.822500       0.909588
    11318.619100       0.912167
    11331.444800       0.914710
    11344.299500       0.917217
    11357.183400       0.919687
    11370.096600       0.922122
    11383.039300       0.924520
    11396.011400       0.926882
    11409.013100       0.929207
    11422.044500       0.931495
    11435.105800       0.933746
    11448.196900       0.935960
    11461.318100       0.938137
    11474.469300       0.940276
    11487.650800       0.942378
    11500.862600       0.944443
    11514.104800       0.946469
    11527.377500       0.948459
    11540.680900       0.950410
    11554.015000       0.952323
    11567.380000       0.954199
    11580.775900       0.956036
    11594.202900       0.957835
    11607.661100       0.959596
    11621.150500       0.961320
    11634.671300       0.963004
    11648.223600       0.964651
    11661.807600       0.966259
    11675.423200       0.967829
    11689.070700       0.969361
    11702.750100       0.970855
    11716.461600       0.972310
    11730.205300       0.973727
    11743.981200       0.975106
    11757.789500       0.976446
    11771.630400       0.977749
    11785.503800       0.979013
    11799.410000       0.980239
    11813.349100       0.981427
    11827.321100       0.982577
    11841.326200       0.983689
    11855.364600       0.984763
    11869.436200       0.985800
    11883.541300       0.986798
    11897.680000       0.987759
    11911.852300       0.988683
    11926.058400       0.989569
    11940.298500       0.990418
    11954.572600       0.991230
    11968.880900       0.992005
    11983.223500       0.992742
    11997.600500       0.993443
    12012.012000       0.994108
    12026.458200       0.994735
    12040.939200       0.995327
    12055.455100       0.995882
    12070.006000       0.996401
    12084.592100       0.996885
    12099.213600       0.997332
    12113.870400       0.997745
    12128.562800       0.998122
    12143.290800       0.998464
    12158.054700       0.998771
    12172.854500       0.999043
    12187.690400       0.999281
    12202.562500       0.999484
    12217.471000       0.999654
    12232.415900       0.999790
    12247.397400       0.999892
    12262.415700       0.999961
    12277.470800       0.999997
    12292.563000       1.000000
    12307.692300       0.999971
    12322.858900       0.999909
    12338.062900       0.999815
    12353.304500       0.999690
    12368.583800       0.999533
    12383.900900       0.999345
    12399.256000       0.999126
    12414.649300       0.998877
    12430.080800       0.998597
    12445.550700       0.998288
    12461.059200       0.997948
    12476.606400       0.997580
    12492.192400       0.997182
    12507.817400       0.996756
    12523.481500       0.996302
    12539.185000       0.995819
    12554.927800       0.995309
    12570.710200       0.994771
    12586.532400       0.994207
    12602.394500       0.993615
    12618.296500       0.992998
    12634.238800       0.992355
    12650.221400       0.991686
    12666.244500       0.990992
    12682.308200       0.990273
    12698.412700       0.989530
    12714.558200       0.988763
    12730.744700       0.987972
    12746.972600       0.987158
    12763.241900       0.986320
    12779.552700       0.985461
    12795.905300       0.984579
    12812.299800       0.983676
    12828.736400       0.982751
    12845.215200       0.981806
    12861.736300       0.980840
    12878.300100       0.979854
    12894.906500       0.978848
    12911.555800       0.977824
    12928.248200       0.976780
    12944.983800       0.975718
    12961.762800       0.974638
    12978.585300       0.973541
    12995.451600       0.972426
    13012.361700       0.971295
    13029.316000       0.970147
    13046.314400       0.968984
    13063.357300       0.967805
    13080.444700       0.966612
    13097.576900       0.965404
    13114.754100       0.964182
    13131.976400       0.962946
    13149.243900       0.961697
    13166.556900       0.960436
    13183.915600       0.959162
    13201.320100       0.957877
    13218.770700       0.956580
    13236.267400       0.955272
    13253.810500       0.953954
    13271.400100       0.952625
    13289.036500       0.951288
    13306.719900       0.949941
    13324.450400       0.948585
    13342.228200       0.947221
    13360.053400       0.945850
    13377.926400       0.944471
    13395.847300       0.943085
    13413.816200       0.941693
    13431.833400       0.940295
    13449.899100       0.938891
    13468.013500       0.937483
    13486.176700       0.936070
    13504.388900       0.934652
    13522.650400       0.933231
    13540.961400       0.931807
    13559.322000       0.930380
    13577.732500       0.928951
    13596.193100       0.927519
    13614.703900       0.926086
    13633.265200       0.924652
    13651.877100       0.923218
    13670.540000       0.921783
    13689.253900       0.920349
    13708.019200       0.918915
    13726.836000       0.917482
    13745.704500       0.916051
    13764.624900       0.914622
    13783.597500       0.913195
    13802.622500       0.911772
    13821.700100       0.910351
    13840.830400       0.908934
    13860.013900       0.907521
    13879.250500       0.906113
    13898.540700       0.904709
    13917.884500       0.903311
    13937.282200       0.901918
    13956.734100       0.900532
    13976.240400       0.899151
    13995.801300       0.897778
    14015.417000       0.896412
    14035.087700       0.895054
    14054.813800       0.893704
    14074.595400       0.892362
    14094.432700       0.891028
    14114.326000       0.889704
    14134.275600       0.888389
    14154.281700       0.887085
    14174.344400       0.885790
    14194.464200       0.884506
    14214.641100       0.883232
    14234.875400       0.881970
    14255.167500       0.880720
    14275.517500       0.879481
    14295.925700       0.878254
    14316.392300       0.877040
    14336.917600       0.875839
    14357.501800       0.874651
    14378.145200       0.873476
    14398.848100       0.872315
    14419.610700       0.871168
    14440.433200       0.870035
    14461.316000       0.868916
    14482.259200       0.867813
    14503.263200       0.866724
    14524.328200       0.865651
    14545.454500       0.864594
    14566.642400       0.863552
    14587.892000       0.862526
    14609.203800       0.861517
    14630.577900       0.860524
    14652.014700       0.859547
    14673.514300       0.858588
    14695.077100       0.857646
    14716.703500       0.856721
    14738.393500       0.855814
    14760.147600       0.854925
    14781.966000       0.854053
    14803.849000       0.853199
    14825.796900       0.852364
    14847.809900       0.851547
    14869.888500       0.850748
    14892.032800       0.849968
    14914.243100       0.849207
    14936.519800       0.848465
    14958.863100       0.847742
    14981.273400       0.847037
    15003.750900       0.846352
    15026.296000       0.845687
    15048.909000       0.845040
    15071.590100       0.844413
    15094.339600       0.843806
    15117.158000       0.843218
    15140.045400       0.842650
    15163.002300       0.842101
    15186.028900       0.841572
    15209.125500       0.841063
    15232.292500       0.840574
    15255.530100       0.840104
    15278.838800       0.839654
    15302.218800       0.839223
    15325.670500       0.838812
    15349.194200       0.838421
    15372.790200       0.838049
    15396.458800       0.837697
    15420.200500       0.837365
    15444.015400       0.837051
    15467.904100       0.836758
    15491.866800       0.836483
    15515.903800       0.836227
    15540.015500       0.835991
    15564.202300       0.835773
    15588.464500       0.835574
    15612.802500       0.835394
    15637.216600       0.835232
    15661.707100       0.835089
    15686.274500       0.834963
    15710.919100       0.834856
    15735.641200       0.834767
    15760.441300       0.834695
    15785.319700       0.834641
    15810.276700       0.834603
    15835.312700       0.834583
    15860.428200       0.834580
    15885.623500       0.834593
    15910.899000       0.834622
    15936.255000       0.834668
    15961.691900       0.834729
    15987.210200       0.834805
    16012.810200       0.834897
    16038.492400       0.835003
    16064.257000       0.835125
    16090.104600       0.835260
    16116.035500       0.835409
    16142.050000       0.835572
    16168.148700       0.835748
    16194.332000       0.835937
    16220.600200       0.836138
    16246.953700       0.836352
    16273.393000       0.836577
    16299.918500       0.836813
    16326.530600       0.837061
    16353.229800       0.837319
    16380.016400       0.837587
    16406.890900       0.837864
    16433.853700       0.838151
    16460.905300       0.838447
    16488.046200       0.838751
    16515.276600       0.839062
    16542.597200       0.839382
    16570.008300       0.839707
    16597.510400       0.840040
    16625.103900       0.840378
    16652.789300       0.840721
    16680.567100       0.841069
    16708.437800       0.841422
    16736.401700       0.841778
    16764.459300       0.842137
    16792.611300       0.842499
    16820.857900       0.842863
    16849.199700       0.843229
    16877.637100       0.843595
    16906.170800       0.843962
    16934.801000       0.844328
    16963.528400       0.844693
    16992.353400       0.845057
    17021.276600       0.845419
    17050.298400       0.845777
    17079.419300       0.846133
    17108.639900       0.846484
    17137.960600       0.846830
    17167.382000       0.847171
    17196.904600       0.847506
    17226.528900       0.847834
    17256.255400       0.848154
    17286.084700       0.848467
    17316.017300       0.848770
    17346.053800       0.849064
    17376.194600       0.849348
    17406.440400       0.849621
    17436.791600       0.849881
    17467.248900       0.850130
    17497.812800       0.850365
    17528.483800       0.850586
    17559.262500       0.850793
    17590.149500       0.850984
    17621.145400       0.851158
    17652.250700       0.851316
    17683.466000       0.851456
