11 , goes_11_sounder_11.flt
Number of data points:
1185
Wavenumber (cm-1)   Filter response
     1370.600000       0.000000
     1370.700000       0.000000
     1370.800000       0.000000
     1370.900000       0.000004
     1371.000000       0.000000
     1371.100000       0.000050
     1371.200000       0.000244
     1371.300000       0.000444
     1371.400000       0.000674
     1371.500000       0.000892
     1371.600000       0.001136
     1371.700000       0.001388
     1371.800000       0.001634
     1371.900000       0.001895
     1372.000000       0.002167
     1372.100000       0.002448
     1372.200000       0.002763
     1372.300000       0.003104
     1372.400000       0.003438
     1372.500000       0.003761
     1372.600000       0.004096
     1372.700000       0.004438
     1372.800000       0.004779
     1372.900000       0.005156
     1373.000000       0.005525
     1373.100000       0.005887
     1373.200000       0.006279
     1373.300000       0.006636
     1373.400000       0.006992
     1373.500000       0.007349
     1373.600000       0.007696
     1373.700000       0.008056
     1373.800000       0.008427
     1373.900000       0.008759
     1374.000000       0.009117
     1374.100000       0.009442
     1374.200000       0.009745
     1374.300000       0.010044
     1374.400000       0.010330
     1374.500000       0.010611
     1374.600000       0.010910
     1374.700000       0.011206
     1374.800000       0.011475
     1374.900000       0.011732
     1375.000000       0.011990
     1375.100000       0.012247
     1375.200000       0.012505
     1375.300000       0.012764
     1375.400000       0.013045
     1375.500000       0.013340
     1375.600000       0.013625
     1375.700000       0.013897
     1375.800000       0.014174
     1375.900000       0.014453
     1376.000000       0.014733
     1376.100000       0.015011
     1376.200000       0.015299
     1376.300000       0.015604
     1376.400000       0.015898
     1376.500000       0.016168
     1376.600000       0.016432
     1376.700000       0.016692
     1376.800000       0.016938
     1376.900000       0.017189
     1377.000000       0.017443
     1377.100000       0.017666
     1377.200000       0.017924
     1377.300000       0.018177
     1377.400000       0.018445
     1377.500000       0.018753
     1377.600000       0.019106
     1377.700000       0.019522
     1377.800000       0.020042
     1377.900000       0.020661
     1378.000000       0.021355
     1378.100000       0.022124
     1378.200000       0.022916
     1378.300000       0.023642
     1378.400000       0.024214
     1378.500000       0.024634
     1378.600000       0.025087
     1378.700000       0.025711
     1378.800000       0.026565
     1378.900000       0.027586
     1379.000000       0.028711
     1379.100000       0.029884
     1379.200000       0.031083
     1379.300000       0.032433
     1379.400000       0.033795
     1379.500000       0.035173
     1379.600000       0.036688
     1379.700000       0.038116
     1379.800000       0.039575
     1379.900000       0.041077
     1380.000000       0.042575
     1380.100000       0.044180
     1380.200000       0.045880
     1380.300000       0.047471
     1380.400000       0.049258
     1380.500000       0.050958
     1380.600000       0.052630
     1380.700000       0.054365
     1380.800000       0.056122
     1380.900000       0.057930
     1381.000000       0.059932
     1381.100000       0.062002
     1381.200000       0.063967
     1381.300000       0.065916
     1381.400000       0.067935
     1381.500000       0.070007
     1381.600000       0.072142
     1381.700000       0.074332
     1381.800000       0.076765
     1381.900000       0.079401
     1382.000000       0.082009
     1382.100000       0.084569
     1382.200000       0.087279
     1382.300000       0.090118
     1382.400000       0.093029
     1382.500000       0.096359
     1382.600000       0.099758
     1382.700000       0.103243
     1382.800000       0.107147
     1382.900000       0.110838
     1383.000000       0.114633
     1383.100000       0.118560
     1383.200000       0.122487
     1383.300000       0.126684
     1383.400000       0.131102
     1383.500000       0.135195
     1383.600000       0.139720
     1383.700000       0.143965
     1383.800000       0.148058
     1383.900000       0.152184
     1384.000000       0.156234
     1384.100000       0.160291
     1384.200000       0.164663
     1384.300000       0.169099
     1384.400000       0.173237
     1384.500000       0.177270
     1384.600000       0.181394
     1384.700000       0.185563
     1384.800000       0.189803
     1384.900000       0.194088
     1385.000000       0.198790
     1385.100000       0.203832
     1385.200000       0.208769
     1385.300000       0.213571
     1385.400000       0.218582
     1385.500000       0.223750
     1385.600000       0.229103
     1385.700000       0.234568
     1385.800000       0.240480
     1385.900000       0.247018
     1386.000000       0.253652
     1386.100000       0.260004
     1386.200000       0.266589
     1386.300000       0.273500
     1386.400000       0.280516
     1386.500000       0.288211
     1386.600000       0.296553
     1386.700000       0.304487
     1386.800000       0.313526
     1386.900000       0.322194
     1387.000000       0.330744
     1387.100000       0.339583
     1387.200000       0.348454
     1387.300000       0.357497
     1387.400000       0.367362
     1387.500000       0.377424
     1387.600000       0.386822
     1387.700000       0.395995
     1387.800000       0.405413
     1387.900000       0.414944
     1388.000000       0.424646
     1388.100000       0.434447
     1388.200000       0.445222
     1388.300000       0.456713
     1388.400000       0.467719
     1388.500000       0.478097
     1388.600000       0.488575
     1388.700000       0.498914
     1388.800000       0.509207
     1388.900000       0.519447
     1389.000000       0.530518
     1389.100000       0.543072
     1389.200000       0.556273
     1389.300000       0.569406
     1389.400000       0.583119
     1389.500000       0.597107
     1389.600000       0.610716
     1389.700000       0.624159
     1389.800000       0.637597
     1389.900000       0.649803
     1390.000000       0.660424
     1390.100000       0.670576
     1390.200000       0.680572
     1390.300000       0.690534
     1390.400000       0.700592
     1390.500000       0.711019
     1390.600000       0.722482
     1390.700000       0.734256
     1390.800000       0.745395
     1390.900000       0.756207
     1391.000000       0.767044
     1391.100000       0.777679
     1391.200000       0.788052
     1391.300000       0.798030
     1391.400000       0.808244
     1391.500000       0.818419
     1391.600000       0.827735
     1391.700000       0.836191
     1391.800000       0.844393
     1391.900000       0.852221
     1392.000000       0.859705
     1392.100000       0.866759
     1392.200000       0.873691
     1392.300000       0.880620
     1392.400000       0.886969
     1392.500000       0.892544
     1392.600000       0.897860
     1392.700000       0.902987
     1392.800000       0.907875
     1392.900000       0.912769
     1393.000000       0.917885
     1393.100000       0.922848
     1393.200000       0.927409
     1393.300000       0.931909
     1393.400000       0.936362
     1393.500000       0.940732
     1393.600000       0.944997
     1393.700000       0.949178
     1393.800000       0.953552
     1393.900000       0.957821
     1394.000000       0.961640
     1394.100000       0.965169
     1394.200000       0.968563
     1394.300000       0.971758
     1394.400000       0.974742
     1394.500000       0.977492
     1394.600000       0.980217
     1394.700000       0.982821
     1394.800000       0.985051
     1394.900000       0.986916
     1395.000000       0.988636
     1395.100000       0.990191
     1395.200000       0.991602
     1395.300000       0.992860
     1395.400000       0.994077
     1395.500000       0.995299
     1395.600000       0.996367
     1395.700000       0.997213
     1395.800000       0.997954
     1395.900000       0.998583
     1396.000000       0.999079
     1396.100000       0.999483
     1396.200000       0.999815
     1396.300000       0.999997
     1396.400000       1.000000
     1396.500000       0.999881
     1396.600000       0.999663
     1396.700000       0.999366
     1396.800000       0.999011
     1396.900000       0.998618
     1397.000000       0.998226
     1397.100000       0.997836
     1397.200000       0.997456
     1397.300000       0.997115
     1397.400000       0.996842
     1397.500000       0.996643
     1397.600000       0.996510
     1397.700000       0.996433
     1397.800000       0.996410
     1397.900000       0.996425
     1398.000000       0.996452
     1398.100000       0.996478
     1398.200000       0.996500
     1398.300000       0.996504
     1398.400000       0.996487
     1398.500000       0.996450
     1398.600000       0.996402
     1398.700000       0.996343
     1398.800000       0.996268
     1398.900000       0.996171
     1399.000000       0.996062
     1399.100000       0.995948
     1399.200000       0.995829
     1399.300000       0.995702
     1399.400000       0.995558
     1399.500000       0.995389
     1399.600000       0.995197
     1399.700000       0.994981
     1399.800000       0.994735
     1399.900000       0.994457
     1400.000000       0.994145
     1400.100000       0.993794
     1400.200000       0.993403
     1400.300000       0.992982
     1400.400000       0.992541
     1400.500000       0.992089
     1400.600000       0.991633
     1400.700000       0.991184
     1400.800000       0.990752
     1400.900000       0.990347
     1401.000000       0.989990
     1401.100000       0.989690
     1401.200000       0.989433
     1401.300000       0.989208
     1401.400000       0.989025
     1401.500000       0.988876
     1401.600000       0.988754
     1401.700000       0.988648
     1401.800000       0.988564
     1401.900000       0.988496
     1402.000000       0.988403
     1402.100000       0.988261
     1402.200000       0.988078
     1402.300000       0.987846
     1402.400000       0.987555
     1402.500000       0.987203
     1402.600000       0.986783
     1402.700000       0.986311
     1402.800000       0.985829
     1402.900000       0.985352
     1403.000000       0.984892
     1403.100000       0.984470
     1403.200000       0.984106
     1403.300000       0.983797
     1403.400000       0.983529
     1403.500000       0.983325
     1403.600000       0.983193
     1403.700000       0.983116
     1403.800000       0.983085
     1403.900000       0.983101
     1404.000000       0.983163
     1404.100000       0.983276
     1404.200000       0.983468
     1404.300000       0.983755
     1404.400000       0.984130
     1404.500000       0.984603
     1404.600000       0.985200
     1404.700000       0.985902
     1404.800000       0.986691
     1404.900000       0.987530
     1405.000000       0.988443
     1405.100000       0.989381
     1405.200000       0.990240
     1405.300000       0.991057
     1405.400000       0.991793
     1405.500000       0.992426
     1405.600000       0.992965
     1405.700000       0.993427
     1405.800000       0.993828
     1405.900000       0.994163
     1406.000000       0.994444
     1406.100000       0.994693
     1406.200000       0.994926
     1406.300000       0.995160
     1406.400000       0.995414
     1406.500000       0.995672
     1406.600000       0.995896
     1406.700000       0.996087
     1406.800000       0.996266
     1406.900000       0.996411
     1407.000000       0.996498
     1407.100000       0.996520
     1407.200000       0.996462
     1407.300000       0.996322
     1407.400000       0.996074
     1407.500000       0.995741
     1407.600000       0.995385
     1407.700000       0.995020
     1407.800000       0.994625
     1407.900000       0.994213
     1408.000000       0.993794
     1408.100000       0.993399
     1408.200000       0.992961
     1408.300000       0.992507
     1408.400000       0.992161
     1408.500000       0.991815
     1408.600000       0.991486
     1408.700000       0.991172
     1408.800000       0.990878
     1408.900000       0.990590
     1409.000000       0.990298
     1409.100000       0.990036
     1409.200000       0.989829
     1409.300000       0.989659
     1409.400000       0.989525
     1409.500000       0.989430
     1409.600000       0.989374
     1409.700000       0.989357
     1409.800000       0.989376
     1409.900000       0.989437
     1410.000000       0.989538
     1410.100000       0.989665
     1410.200000       0.989810
     1410.300000       0.989960
     1410.400000       0.990105
     1410.500000       0.990235
     1410.600000       0.990338
     1410.700000       0.990400
     1410.800000       0.990415
     1410.900000       0.990375
     1411.000000       0.990279
     1411.100000       0.990133
     1411.200000       0.989934
     1411.300000       0.989696
     1411.400000       0.989376
     1411.500000       0.988990
     1411.600000       0.988621
     1411.700000       0.988224
     1411.800000       0.987816
     1411.900000       0.987397
     1412.000000       0.986959
     1412.100000       0.986515
     1412.200000       0.986029
     1412.300000       0.985428
     1412.400000       0.984900
     1412.500000       0.984350
     1412.600000       0.983755
     1412.700000       0.983125
     1412.800000       0.982469
     1412.900000       0.981789
     1413.000000       0.981056
     1413.100000       0.980317
     1413.200000       0.979629
     1413.300000       0.978977
     1413.400000       0.978347
     1413.500000       0.977753
     1413.600000       0.977199
     1413.700000       0.976681
     1413.800000       0.976166
     1413.900000       0.975660
     1414.000000       0.975192
     1414.100000       0.974758
     1414.200000       0.974329
     1414.300000       0.973902
     1414.400000       0.973473
     1414.500000       0.973051
     1414.600000       0.972604
     1414.700000       0.972155
     1414.800000       0.971772
     1414.900000       0.971407
     1415.000000       0.971062
     1415.100000       0.970738
     1415.200000       0.970428
     1415.300000       0.970134
     1415.400000       0.969843
     1415.500000       0.969526
     1415.600000       0.969220
     1415.700000       0.968891
     1415.800000       0.968535
     1415.900000       0.968158
     1416.000000       0.967758
     1416.100000       0.967336
     1416.200000       0.966884
     1416.300000       0.966410
     1416.400000       0.965941
     1416.500000       0.965481
     1416.600000       0.965031
     1416.700000       0.964588
     1416.800000       0.964146
     1416.900000       0.963717
     1417.000000       0.963237
     1417.100000       0.962769
     1417.200000       0.962327
     1417.300000       0.961860
     1417.400000       0.961380
     1417.500000       0.960886
     1417.600000       0.960377
     1417.700000       0.959875
     1417.800000       0.959332
     1417.900000       0.958769
     1418.000000       0.958276
     1418.100000       0.957790
     1418.200000       0.957326
     1418.300000       0.956902
     1418.400000       0.956526
     1418.500000       0.956208
     1418.600000       0.955964
     1418.700000       0.955796
     1418.800000       0.955688
     1418.900000       0.955639
     1419.000000       0.955647
     1419.100000       0.955707
     1419.200000       0.955808
     1419.300000       0.955951
     1419.400000       0.956164
     1419.500000       0.956414
     1419.600000       0.956655
     1419.700000       0.956898
     1419.800000       0.957158
     1419.900000       0.957427
     1420.000000       0.957702
     1420.100000       0.957971
     1420.200000       0.958343
     1420.300000       0.958688
     1420.400000       0.958977
     1420.500000       0.959299
     1420.600000       0.959632
     1420.700000       0.959983
     1420.800000       0.960360
     1420.900000       0.960735
     1421.000000       0.961179
     1421.100000       0.961658
     1421.200000       0.962051
     1421.300000       0.962451
     1421.400000       0.962840
     1421.500000       0.963212
     1421.600000       0.963567
     1421.700000       0.963889
     1421.800000       0.964208
     1421.900000       0.964582
     1422.000000       0.964866
     1422.100000       0.965132
     1422.200000       0.965402
     1422.300000       0.965669
     1422.400000       0.965937
     1422.500000       0.966208
     1422.600000       0.966511
     1422.700000       0.966814
     1422.800000       0.967086
     1422.900000       0.967338
     1423.000000       0.967584
     1423.100000       0.967818
     1423.200000       0.968035
     1423.300000       0.968227
     1423.400000       0.968468
     1423.500000       0.968677
     1423.600000       0.968841
     1423.700000       0.969018
     1423.800000       0.969196
     1423.900000       0.969380
     1424.000000       0.969581
     1424.100000       0.969781
     1424.200000       0.970034
     1424.300000       0.970319
     1424.400000       0.970545
     1424.500000       0.970782
     1424.600000       0.971015
     1424.700000       0.971237
     1424.800000       0.971454
     1424.900000       0.971643
     1425.000000       0.971836
     1425.100000       0.972090
     1425.200000       0.972254
     1425.300000       0.972401
     1425.400000       0.972551
     1425.500000       0.972703
     1425.600000       0.972858
     1425.700000       0.973026
     1425.800000       0.973250
     1425.900000       0.973496
     1426.000000       0.973708
     1426.100000       0.973913
     1426.200000       0.974136
     1426.300000       0.974362
     1426.400000       0.974586
     1426.500000       0.974784
     1426.600000       0.975070
     1426.700000       0.975292
     1426.800000       0.975409
     1426.900000       0.975506
     1427.000000       0.975544
     1427.100000       0.975527
     1427.200000       0.975463
     1427.300000       0.975334
     1427.400000       0.975216
     1427.500000       0.975086
     1427.600000       0.974840
     1427.700000       0.974577
     1427.800000       0.974289
     1427.900000       0.973974
     1428.000000       0.973642
     1428.100000       0.973280
     1428.200000       0.972907
     1428.300000       0.972562
     1428.400000       0.972143
     1428.500000       0.971703
     1428.600000       0.971257
     1428.700000       0.970804
     1428.800000       0.970344
     1428.900000       0.969885
     1429.000000       0.969471
     1429.100000       0.969030
     1429.200000       0.968589
     1429.300000       0.968161
     1429.400000       0.967739
     1429.500000       0.967325
     1429.600000       0.966915
     1429.700000       0.966508
     1429.800000       0.966133
     1429.900000       0.965753
     1430.000000       0.965357
     1430.100000       0.964978
     1430.200000       0.964609
     1430.300000       0.964256
     1430.400000       0.963928
     1430.500000       0.963619
     1430.600000       0.963359
     1430.700000       0.963144
     1430.800000       0.962934
     1430.900000       0.962762
     1431.000000       0.962620
     1431.100000       0.962504
     1431.200000       0.962410
     1431.300000       0.962320
     1431.400000       0.962240
     1431.500000       0.962182
     1431.600000       0.962078
     1431.700000       0.961959
     1431.800000       0.961824
     1431.900000       0.961669
     1432.000000       0.961488
     1432.100000       0.961273
     1432.200000       0.960999
     1432.300000       0.960687
     1432.400000       0.960327
     1432.500000       0.959913
     1432.600000       0.959450
     1432.700000       0.958940
