03 , goes_09_imager_04.flt
Number of data points:
1301
Wavenumber (cm-1)   Filter response
      860.100000       0.000913
      860.200000       0.000921
      860.300000       0.000928
      860.400000       0.000935
      860.500000       0.000942
      860.600000       0.000949
      860.700000       0.000956
      860.800000       0.000963
      860.900000       0.000970
      861.000000       0.000977
      861.100000       0.000983
      861.200000       0.000990
      861.300000       0.000997
      861.400000       0.001004
      861.500000       0.001010
      861.600000       0.001017
      861.700000       0.001023
      861.800000       0.001030
      861.900000       0.001037
      862.000000       0.001043
      862.100000       0.001050
      862.200000       0.001057
      862.300000       0.001064
      862.400000       0.001071
      862.500000       0.001078
      862.600000       0.001085
      862.700000       0.001092
      862.800000       0.001099
      862.900000       0.001106
      863.000000       0.001114
      863.100000       0.001121
      863.200000       0.001129
      863.300000       0.001137
      863.400000       0.001145
      863.500000       0.001154
      863.600000       0.001162
      863.700000       0.001171
      863.800000       0.001180
      863.900000       0.001189
      864.000000       0.001199
      864.100000       0.001208
      864.200000       0.001218
      864.300000       0.001229
      864.400000       0.001239
      864.500000       0.001250
      864.600000       0.001262
      864.700000       0.001274
      864.800000       0.001286
      864.900000       0.001298
      865.000000       0.001311
      865.100000       0.001325
      865.200000       0.001338
      865.300000       0.001353
      865.400000       0.001367
      865.500000       0.001383
      865.600000       0.001399
      865.700000       0.001415
      865.800000       0.001432
      865.900000       0.001449
      866.000000       0.001467
      866.100000       0.001485
      866.200000       0.001504
      866.300000       0.001523
      866.400000       0.001543
      866.500000       0.001564
      866.600000       0.001585
      866.700000       0.001606
      866.800000       0.001628
      866.900000       0.001651
      867.000000       0.001674
      867.100000       0.001697
      867.200000       0.001721
      867.300000       0.001746
      867.400000       0.001771
      867.500000       0.001797
      867.600000       0.001823
      867.700000       0.001850
      867.800000       0.001877
      867.900000       0.001905
      868.000000       0.001934
      868.100000       0.001963
      868.200000       0.001992
      868.300000       0.002022
      868.400000       0.002053
      868.500000       0.002084
      868.600000       0.002116
      868.700000       0.002148
      868.800000       0.002180
      868.900000       0.002214
      869.000000       0.002247
      869.100000       0.002282
      869.200000       0.002316
      869.300000       0.002352
      869.400000       0.002388
      869.500000       0.002424
      869.600000       0.002461
      869.700000       0.002498
      869.800000       0.002536
      869.900000       0.002575
      870.000000       0.002614
      870.100000       0.002653
      870.200000       0.002693
      870.300000       0.002734
      870.400000       0.002775
      870.500000       0.002816
      870.600000       0.002858
      870.700000       0.002901
      870.800000       0.002944
      870.900000       0.002987
      871.000000       0.003031
      871.100000       0.003076
      871.200000       0.003121
      871.300000       0.003166
      871.400000       0.003212
      871.500000       0.003259
      871.600000       0.003306
      871.700000       0.003353
      871.800000       0.003401
      871.900000       0.003450
      872.000000       0.003500
      872.100000       0.003550
      872.200000       0.003602
      872.300000       0.003655
      872.400000       0.003709
      872.500000       0.003764
      872.600000       0.003821
      872.700000       0.003880
      872.800000       0.003940
      872.900000       0.004002
      873.000000       0.004066
      873.100000       0.004132
      873.200000       0.004200
      873.300000       0.004270
      873.400000       0.004343
      873.500000       0.004418
      873.600000       0.004496
      873.700000       0.004576
      873.800000       0.004659
      873.900000       0.004745
      874.000000       0.004835
      874.100000       0.004927
      874.200000       0.005023
      874.300000       0.005122
      874.400000       0.005224
      874.500000       0.005330
      874.600000       0.005440
      874.700000       0.005554
      874.800000       0.005672
      874.900000       0.005794
      875.000000       0.005920
      875.100000       0.006050
      875.200000       0.006185
      875.300000       0.006325
      875.400000       0.006469
      875.500000       0.006618
      875.600000       0.006772
      875.700000       0.006931
      875.800000       0.007096
      875.900000       0.007265
      876.000000       0.007440
      876.100000       0.007621
      876.200000       0.007807
      876.300000       0.007999
      876.400000       0.008196
      876.500000       0.008399
      876.600000       0.008607
      876.700000       0.008822
      876.800000       0.009041
      876.900000       0.009267
      877.000000       0.009498
      877.100000       0.009734
      877.200000       0.009977
      877.300000       0.010225
      877.400000       0.010479
      877.500000       0.010739
      877.600000       0.011004
      877.700000       0.011276
      877.800000       0.011553
      877.900000       0.011836
      878.000000       0.012125
      878.100000       0.012419
      878.200000       0.012719
      878.300000       0.013026
      878.400000       0.013338
      878.500000       0.013656
      878.600000       0.013980
      878.700000       0.014310
      878.800000       0.014646
      878.900000       0.014988
      879.000000       0.015336
      879.100000       0.015690
      879.200000       0.016049
      879.300000       0.016415
      879.400000       0.016787
      879.500000       0.017165
      879.600000       0.017548
      879.700000       0.017938
      879.800000       0.018334
      879.900000       0.018736
      880.000000       0.019144
      880.100000       0.019557
      880.200000       0.019978
      880.300000       0.020404
      880.400000       0.020836
      880.500000       0.021274
      880.600000       0.021718
      880.700000       0.022168
      880.800000       0.022625
      880.900000       0.023088
      881.000000       0.023556
      881.100000       0.024031
      881.200000       0.024512
      881.300000       0.025000
      881.400000       0.025493
      881.500000       0.025992
      881.600000       0.026499
      881.700000       0.027010
      881.800000       0.027529
      881.900000       0.028055
      882.000000       0.028591
      882.100000       0.029138
      882.200000       0.029698
      882.300000       0.030275
      882.400000       0.030869
      882.500000       0.031483
      882.600000       0.032118
      882.700000       0.032777
      882.800000       0.033463
      882.900000       0.034176
      883.000000       0.034919
      883.100000       0.035694
      883.200000       0.036503
      883.300000       0.037348
      883.400000       0.038232
      883.500000       0.039155
      883.600000       0.040122
      883.700000       0.041134
      883.800000       0.042192
      883.900000       0.043299
      884.000000       0.044456
      884.100000       0.045667
      884.200000       0.046934
      884.300000       0.048257
      884.400000       0.049640
      884.500000       0.051086
      884.600000       0.052594
      884.700000       0.054170
      884.800000       0.055815
      884.900000       0.057530
      885.000000       0.059316
      885.100000       0.061179
      885.200000       0.063120
      885.300000       0.065140
      885.400000       0.067242
      885.500000       0.069426
      885.600000       0.071699
      885.700000       0.074066
      885.800000       0.076539
      885.900000       0.079126
      886.000000       0.081830
      886.100000       0.084665
      886.200000       0.087638
      886.300000       0.090758
      886.400000       0.094037
      886.500000       0.097480
      886.600000       0.101098
      886.700000       0.104895
      886.800000       0.108883
      886.900000       0.113075
      887.000000       0.117476
      887.100000       0.122093
      887.200000       0.126935
      887.300000       0.132017
      887.400000       0.137341
      887.500000       0.142916
      887.600000       0.148758
      887.700000       0.154872
      887.800000       0.161260
      887.900000       0.167913
      888.000000       0.174833
      888.100000       0.182002
      888.200000       0.189413
      888.300000       0.197049
      888.400000       0.204915
      888.500000       0.212992
      888.600000       0.221266
      888.700000       0.229749
      888.800000       0.238399
      888.900000       0.247231
      889.000000       0.256227
      889.100000       0.265368
      889.200000       0.274670
      889.300000       0.284089
      889.400000       0.293638
      889.500000       0.303303
      889.600000       0.313060
      889.700000       0.322918
      889.800000       0.332859
      889.900000       0.342872
      890.000000       0.352936
      890.100000       0.363056
      890.200000       0.373213
      890.300000       0.383372
      890.400000       0.393530
      890.500000       0.403666
      890.600000       0.413757
      890.700000       0.423776
      890.800000       0.433715
      890.900000       0.443555
      891.000000       0.453275
      891.100000       0.462847
      891.200000       0.472259
      891.300000       0.481501
      891.400000       0.490538
      891.500000       0.499362
      891.600000       0.507993
      891.700000       0.516537
      891.800000       0.525157
      891.900000       0.533986
      892.000000       0.543192
      892.100000       0.552901
      892.200000       0.563254
      892.300000       0.574398
      892.400000       0.586311
      892.500000       0.598860
      892.600000       0.611882
      892.700000       0.625228
      892.800000       0.638741
      892.900000       0.652263
      893.000000       0.665668
      893.100000       0.678788
      893.200000       0.691477
      893.300000       0.703677
      893.400000       0.715495
      893.500000       0.727008
      893.600000       0.738295
      893.700000       0.749471
      893.800000       0.760612
      893.900000       0.771798
      894.000000       0.783071
      894.100000       0.794289
      894.200000       0.805291
      894.300000       0.815923
      894.400000       0.826016
      894.500000       0.835433
      894.600000       0.844011
      894.700000       0.851610
      894.800000       0.858317
      894.900000       0.864301
      895.000000       0.869733
      895.100000       0.874784
      895.200000       0.879621
      895.300000       0.884425
      895.400000       0.889363
      895.500000       0.894613
      895.600000       0.900225
      895.700000       0.906068
      895.800000       0.911983
      895.900000       0.917806
      896.000000       0.923383
      896.100000       0.928546
      896.200000       0.933148
      896.300000       0.937172
      896.400000       0.940654
      896.500000       0.943641
      896.600000       0.946178
      896.700000       0.948304
      896.800000       0.950064
      896.900000       0.951499
      897.000000       0.952655
      897.100000       0.953573
      897.200000       0.954296
      897.300000       0.954868
      897.400000       0.955332
      897.500000       0.955731
      897.600000       0.956109
      897.700000       0.956508
      897.800000       0.956973
      897.900000       0.957546
      898.000000       0.958267
      898.100000       0.959141
      898.200000       0.960156
      898.300000       0.961300
      898.400000       0.962562
      898.500000       0.963929
      898.600000       0.965392
      898.700000       0.966938
      898.800000       0.968554
      898.900000       0.970230
      899.000000       0.971954
      899.100000       0.973714
      899.200000       0.975498
      899.300000       0.977295
      899.400000       0.979093
      899.500000       0.980881
      899.600000       0.982645
      899.700000       0.984384
      899.800000       0.986103
      899.900000       0.987809
      900.000000       0.989510
      900.100000       0.991188
      900.200000       0.992727
      900.300000       0.994089
      900.400000       0.995283
      900.500000       0.996320
      900.600000       0.997206
      900.700000       0.997953
      900.800000       0.998569
      900.900000       0.999064
      901.000000       0.999447
      901.100000       0.999728
      901.200000       0.999911
      901.300000       1.000000
      901.400000       0.999998
      901.500000       0.999908
      901.600000       0.999732
      901.700000       0.999474
      901.800000       0.999136
      901.900000       0.998722
      902.000000       0.998235
      902.100000       0.997677
      902.200000       0.997051
      902.300000       0.996361
      902.400000       0.995609
      902.500000       0.994799
      902.600000       0.993934
      902.700000       0.993015
      902.800000       0.992047
      902.900000       0.991032
      903.000000       0.989973
      903.100000       0.988872
      903.200000       0.987732
      903.300000       0.986556
      903.400000       0.985346
      903.500000       0.984106
      903.600000       0.982837
      903.700000       0.981543
      903.800000       0.980225
      903.900000       0.978887
      904.000000       0.977532
      904.100000       0.976161
      904.200000       0.974778
      904.300000       0.973387
      904.400000       0.971994
      904.500000       0.970601
      904.600000       0.969214
      904.700000       0.967838
      904.800000       0.966476
      904.900000       0.965134
      905.000000       0.963815
      905.100000       0.962523
      905.200000       0.961263
      905.300000       0.960035
      905.400000       0.958842
      905.500000       0.957683
      905.600000       0.956558
      905.700000       0.955469
      905.800000       0.954417
      905.900000       0.953400
      906.000000       0.952420
      906.100000       0.951477
      906.200000       0.950569
      906.300000       0.949697
      906.400000       0.948859
      906.500000       0.948056
      906.600000       0.947288
      906.700000       0.946553
      906.800000       0.945852
      906.900000       0.945185
      907.000000       0.944551
      907.100000       0.943949
      907.200000       0.943381
      907.300000       0.942844
      907.400000       0.942340
      907.500000       0.941868
      907.600000       0.941427
      907.700000       0.941020
      907.800000       0.940646
      907.900000       0.940305
      908.000000       0.939998
      908.100000       0.939727
      908.200000       0.939489
      908.300000       0.939288
      908.400000       0.939122
      908.500000       0.938993
      908.600000       0.938901
      908.700000       0.938846
      908.800000       0.938828
      908.900000       0.938849
      909.000000       0.938908
      909.100000       0.939007
      909.200000       0.939145
      909.300000       0.939323
      909.400000       0.939540
      909.500000       0.939795
      909.600000       0.940083
      909.700000       0.940399
      909.800000       0.940741
      909.900000       0.941103
      910.000000       0.941481
      910.100000       0.941873
      910.200000       0.942272
      910.300000       0.942677
      910.400000       0.943084
      910.500000       0.943489
      910.600000       0.943890
      910.700000       0.944284
      910.800000       0.944667
      910.900000       0.945036
      911.000000       0.945387
      911.100000       0.945719
      911.200000       0.946026
      911.300000       0.946310
      911.400000       0.946575
      911.500000       0.946823
      911.600000       0.947060
      911.700000       0.947292
      911.800000       0.947522
      911.900000       0.947757
      912.000000       0.947998
      912.100000       0.948254
      912.200000       0.948526
      912.300000       0.948821
      912.400000       0.949143
      912.500000       0.949497
      912.600000       0.949887
      912.700000       0.950319
      912.800000       0.950797
      912.900000       0.951324
      913.000000       0.951910
      913.100000       0.952553
      913.200000       0.953263
      913.300000       0.954041
      913.400000       0.954894
      913.500000       0.955827
      913.600000       0.956840
      913.700000       0.957926
      913.800000       0.959071
      913.900000       0.960268
      914.000000       0.961504
      914.100000       0.962767
      914.200000       0.964048
      914.300000       0.965333
      914.400000       0.966613
      914.500000       0.967879
      914.600000       0.969116
      914.700000       0.970318
      914.800000       0.971470
      914.900000       0.972563
      915.000000       0.973589
      915.100000       0.974548
      915.200000       0.975442
      915.300000       0.976276
      915.400000       0.977050
      915.500000       0.977769
      915.600000       0.978435
      915.700000       0.979050
      915.800000       0.979617
      915.900000       0.980139
      916.000000       0.980619
      916.100000       0.981059
      916.200000       0.981462
      916.300000       0.981831
      916.400000       0.982168
      916.500000       0.982475
      916.600000       0.982756
      916.700000       0.983010
      916.800000       0.983244
      916.900000       0.983456
      917.000000       0.983653
      917.100000       0.983833
      917.200000       0.984000
      917.300000       0.984157
      917.400000       0.984306
      917.500000       0.984449
      917.600000       0.984589
      917.700000       0.984727
      917.800000       0.984866
      917.900000       0.985009
      918.000000       0.985158
      918.100000       0.985315
      918.200000       0.985482
      918.300000       0.985661
      918.400000       0.985854
      918.500000       0.986063
      918.600000       0.986291
      918.700000       0.986536
      918.800000       0.986796
      918.900000       0.987070
      919.000000       0.987353
      919.100000       0.987644
      919.200000       0.987941
      919.300000       0.988239
      919.400000       0.988537
      919.500000       0.988833
      919.600000       0.989123
      919.700000       0.989404
      919.800000       0.989675
      919.900000       0.989933
      920.000000       0.990175
      920.100000       0.990398
      920.200000       0.990600
      920.300000       0.990779
      920.400000       0.990933
      920.500000       0.991060
      920.600000       0.991157
      920.700000       0.991221
      920.800000       0.991252
      920.900000       0.991247
      921.000000       0.991205
      921.100000       0.991121
      921.200000       0.990996
      921.300000       0.990830
      921.400000       0.990622
      921.500000       0.990373
      921.600000       0.990083
      921.700000       0.989751
      921.800000       0.989378
      921.900000       0.988964
      922.000000       0.988508
      922.100000       0.988012
      922.200000       0.987476
