85,   85, MVIRI VIS channel from srf_MET5_2001303_2001304_1801-Release_S10EL_10.dat
Number of data points:
806
Wavenumber (cm-1)   Filter response
     8350.730700       0.000000
     8357.710000       0.000000
     8364.701000       0.000000
     8371.703600       0.000002
     8378.718100       0.000004
     8385.744200       0.000009
     8392.782200       0.000017
     8399.832000       0.000027
     8406.893700       0.000042
     8413.967200       0.000061
     8421.052600       0.000084
     8428.150000       0.000113
     8435.259400       0.000147
     8442.380800       0.000188
     8449.514200       0.000235
     8456.659600       0.000289
     8463.817200       0.000350
     8470.986900       0.000419
     8478.168700       0.000496
     8485.362700       0.000582
     8492.569000       0.000677
     8499.787500       0.000780
     8507.018300       0.000894
     8514.261400       0.001017
     8521.516800       0.001150
     8528.784600       0.001293
     8536.064900       0.001447
     8543.357500       0.001613
     8550.662700       0.001789
     8557.980300       0.001977
     8565.310500       0.002176
     8572.653200       0.002388
     8580.008600       0.002612
     8587.376600       0.002848
     8594.757200       0.003097
     8602.150500       0.003358
     8609.556600       0.003633
     8616.975400       0.003921
     8624.407100       0.004222
     8631.851500       0.004538
     8639.308900       0.004866
     8646.779100       0.005209
     8654.262200       0.005566
     8661.758300       0.005938
     8669.267400       0.006324
     8676.789600       0.006724
     8684.324800       0.007140
     8691.873100       0.007570
     8699.434500       0.008016
     8707.009100       0.008477
     8714.596900       0.008953
     8722.198000       0.009445
     8729.812300       0.009952
     8737.439900       0.010476
     8745.080900       0.011015
     8752.735200       0.011571
     8760.403000       0.012142
     8768.084200       0.012730
     8775.778900       0.013335
     8783.487000       0.013956
     8791.208800       0.014594
     8798.944100       0.015248
     8806.693100       0.015920
     8814.455700       0.016609
     8822.232000       0.017315
     8830.022100       0.018038
     8837.825900       0.018778
     8845.643500       0.019537
     8853.475000       0.020312
     8861.320300       0.021106
     8869.179600       0.021917
     8877.052800       0.022747
     8884.940000       0.023594
     8892.841300       0.024460
     8900.756600       0.025344
     8908.686000       0.026246
     8916.629500       0.027167
     8924.587200       0.028106
     8932.559200       0.029064
     8940.545400       0.030041
     8948.545900       0.031037
     8956.560700       0.032052
     8964.589900       0.033086
     8972.633500       0.034139
     8980.691500       0.035212
     8988.764000       0.036304
     8996.851100       0.037415
     9004.952700       0.038546
     9013.068900       0.039697
     9021.199800       0.040868
     9029.345400       0.042058
     9037.505600       0.043269
     9045.680700       0.044500
     9053.870500       0.045750
     9062.075200       0.047022
     9070.294800       0.048314
     9078.529300       0.049626
     9086.778700       0.050959
     9095.043200       0.052312
     9103.322700       0.053686
     9111.617300       0.055082
     9119.927000       0.056498
     9128.251900       0.057935
     9136.592100       0.059394
     9144.947400       0.060873
     9153.318100       0.062374
     9161.704100       0.063897
     9170.105500       0.065441
     9178.522300       0.067006
     9186.954500       0.068594
     9195.402300       0.070203
     9203.865600       0.071834
     9212.344500       0.073487
     9220.839100       0.075162
     9229.349300       0.076859
     9237.875300       0.078578
     9246.417000       0.080320
     9254.974500       0.082084
     9263.547900       0.083870
     9272.137200       0.085679
     9280.742500       0.087511
     9289.363700       0.089364
     9298.000900       0.091241
     9306.654300       0.093141
     9315.323700       0.095063
     9324.009300       0.097009
     9332.711200       0.098977
     9341.429200       0.100969
     9350.163600       0.102983
     9358.914400       0.105021
     9367.681500       0.107082
     9376.465100       0.109166
     9385.265100       0.111273
     9394.081700       0.113404
     9402.914900       0.115558
     9411.764700       0.117736
     9420.631200       0.119937
     9429.514400       0.122162
     9438.414300       0.124410
     9447.331100       0.126682
     9456.264800       0.128978
     9465.215300       0.131297
     9474.182900       0.133639
     9483.167400       0.136006
     9492.169000       0.138396
     9501.187600       0.140810
     9510.223500       0.143248
     9519.276500       0.145709
     9528.346800       0.148195
     9537.434400       0.150704
     9546.539400       0.153236
     9555.661700       0.155793
     9564.801500       0.158373
     9573.958800       0.160977
     9583.133700       0.163605
     9592.326100       0.166257
     9601.536200       0.168932
     9610.764100       0.171631
     9620.009600       0.174354
     9629.273000       0.177100
     9638.554200       0.179870
     9647.853400       0.182663
     9657.170400       0.185480
     9666.505600       0.188321
     9675.858700       0.191185
     9685.230000       0.194072
     9694.619500       0.196983
     9704.027200       0.199917
     9713.453100       0.202874
     9722.897400       0.205854
     9732.360100       0.208857
     9741.841200       0.211884
     9751.340800       0.214933
     9760.859000       0.218005
     9770.395700       0.221100
     9779.951100       0.224217
     9789.525200       0.227358
     9799.118100       0.230520
     9808.729800       0.233705
     9818.360300       0.236912
     9828.009800       0.240142
     9837.678300       0.243393
     9847.365800       0.246667
     9857.072400       0.249961
     9866.798200       0.253278
     9876.543200       0.256616
     9886.307500       0.259976
     9896.091000       0.263357
     9905.894000       0.266759
     9915.716400       0.270182
     9925.558300       0.273626
     9935.419800       0.277091
     9945.300800       0.280576
     9955.201600       0.284081
     9965.122100       0.287606
     9975.062300       0.291152
     9985.022500       0.294717
     9995.002500       0.298302
    10005.002500       0.301906
    10015.022500       0.305530
    10025.062700       0.309172
    10035.122900       0.312834
    10045.203400       0.316514
    10055.304200       0.320212
    10065.425300       0.323929
    10075.566800       0.327664
    10085.728700       0.331416
    10095.911200       0.335186
    10106.114200       0.338974
    10116.337900       0.342778
    10126.582300       0.346600
    10136.847400       0.350437
    10147.133400       0.354292
    10157.440300       0.358162
    10167.768200       0.362049
    10178.117000       0.365951
    10188.487000       0.369868
    10198.878100       0.373800
    10209.290500       0.377748
    10219.724100       0.381709
    10230.179000       0.385685
    10240.655400       0.389675
    10251.153300       0.393679
    10261.672700       0.397696
    10272.213700       0.401726
    10282.776300       0.405769
    10293.360800       0.409825
    10303.967000       0.413893
    10314.595200       0.417972
    10325.245200       0.422064
    10335.917300       0.426167
    10346.611500       0.430280
    10357.327800       0.434404
    10368.066400       0.438539
    10378.827200       0.442684
    10389.610400       0.446838
    10400.416000       0.451002
    10411.244100       0.455174
    10422.094800       0.459356
    10432.968200       0.463545
    10443.864200       0.467743
    10454.783100       0.471949
    10465.724800       0.476161
    10476.689400       0.480381
    10487.677000       0.484607
    10498.687700       0.488840
    10509.721500       0.493078
    10520.778500       0.497322
    10531.858900       0.501570
    10542.962600       0.505824
    10554.089700       0.510082
    10565.240400       0.514345
    10576.414600       0.518610
    10587.612500       0.522879
    10598.834100       0.527152
    10610.079600       0.531426
    10621.348900       0.535703
    10632.642200       0.539981
    10643.959600       0.544261
    10655.301000       0.548542
    10666.666700       0.552823
    10678.056600       0.557105
    10689.470900       0.561386
    10700.909600       0.565667
    10712.372800       0.569947
    10723.860600       0.574225
    10735.373100       0.578502
    10746.910300       0.582777
    10758.472300       0.587048
    10770.059200       0.591317
    10781.671200       0.595583
    10793.308100       0.599845
    10804.970300       0.604102
    10816.657700       0.608355
    10828.370300       0.612603
    10840.108400       0.616846
    10851.871900       0.621083
    10863.661100       0.625314
    10875.475800       0.629537
    10887.316300       0.633754
    10899.182600       0.637964
    10911.074700       0.642166
    10922.992900       0.646359
    10934.937100       0.650544
    10946.907500       0.654720
    10958.904100       0.658886
    10970.927000       0.663043
    10982.976400       0.667189
    10995.052200       0.671324
    11007.154700       0.675448
    11019.283700       0.679561
    11031.439600       0.683662
    11043.622300       0.687751
    11055.832000       0.691827
    11068.068600       0.695890
    11080.332400       0.699940
    11092.623400       0.703975
    11104.941700       0.707996
    11117.287400       0.712003
    11129.660500       0.715994
    11142.061300       0.719970
    11154.489700       0.723930
    11166.945800       0.727874
    11179.429800       0.731802
    11191.941800       0.735712
    11204.481800       0.739605
    11217.049900       0.743480
    11229.646300       0.747337
    11242.270900       0.751175
    11254.924000       0.754994
    11267.605600       0.758794
    11280.315800       0.762575
    11293.054800       0.766335
    11305.822500       0.770075
    11318.619100       0.773795
    11331.444800       0.777493
    11344.299500       0.781169
    11357.183400       0.784824
    11370.096600       0.788457
    11383.039300       0.792067
    11396.011400       0.795654
    11409.013100       0.799218
    11422.044500       0.802758
    11435.105800       0.806275
    11448.196900       0.809767
    11461.318100       0.813235
    11474.469300       0.816677
    11487.650800       0.820095
    11500.862600       0.823487
    11514.104800       0.826853
    11527.377500       0.830193
    11540.680900       0.833506
    11554.015000       0.836793
    11567.380000       0.840053
    11580.775900       0.843285
    11594.202900       0.846490
    11607.661100       0.849666
    11621.150500       0.852815
    11634.671300       0.855935
    11648.223600       0.859026
    11661.807600       0.862088
    11675.423200       0.865120
    11689.070700       0.868124
    11702.750100       0.871097
    11716.461600       0.874040
    11730.205300       0.876953
    11743.981200       0.879835
    11757.789500       0.882686
    11771.630400       0.885507
    11785.503800       0.888296
    11799.410000       0.891053
    11813.349100       0.893779
    11827.321100       0.896473
    11841.326200       0.899134
    11855.364600       0.901764
    11869.436200       0.904361
    11883.541300       0.906924
    11897.680000       0.909455
    11911.852300       0.911953
    11926.058400       0.914418
    11940.298500       0.916849
    11954.572600       0.919247
    11968.880900       0.921610
    11983.223500       0.923940
    11997.600500       0.926236
    12012.012000       0.928497
    12026.458200       0.930724
    12040.939200       0.932917
    12055.455100       0.935075
    12070.006000       0.937198
    12084.592100       0.939286
    12099.213600       0.941340
    12113.870400       0.943358
    12128.562800       0.945341
    12143.290800       0.947289
    12158.054700       0.949201
    12172.854500       0.951078
    12187.690400       0.952919
    12202.562500       0.954725
    12217.471000       0.956495
    12232.415900       0.958230
    12247.397400       0.959929
    12262.415700       0.961592
    12277.470800       0.963219
    12292.563000       0.964810
    12307.692300       0.966366
    12322.858900       0.967885
    12338.062900       0.969369
    12353.304500       0.970816
    12368.583800       0.972228
    12383.900900       0.973604
    12399.256000       0.974944
    12414.649300       0.976248
    12430.080800       0.977516
    12445.550700       0.978748
    12461.059200       0.979945
    12476.606400       0.981105
    12492.192400       0.982231
    12507.817400       0.983320
    12523.481500       0.984374
    12539.185000       0.985392
    12554.927800       0.986375
    12570.710200       0.987322
    12586.532400       0.988235
    12602.394500       0.989111
    12618.296500       0.989953
    12634.238800       0.990760
    12650.221400       0.991532
    12666.244500       0.992269
    12682.308200       0.992972
    12698.412700       0.993640
    12714.558200       0.994274
    12730.744700       0.994873
    12746.972600       0.995439
    12763.241900       0.995970
    12779.552700       0.996467
    12795.905300       0.996931
    12812.299800       0.997362
    12828.736400       0.997759
    12845.215200       0.998123
    12861.736300       0.998454
    12878.300100       0.998753
    12894.906500       0.999019
    12911.555800       0.999252
    12928.248200       0.999454
    12944.983800       0.999623
    12961.762800       0.999761
    12978.585300       0.999867
    12995.451600       0.999943
    13012.361700       0.999987
    13029.316000       1.000000
    13046.314400       0.999983
    13063.357300       0.999935
    13080.444700       0.999858
    13097.576900       0.999751
    13114.754100       0.999614
    13131.976400       0.999448
    13149.243900       0.999253
    13166.556900       0.999030
    13183.915600       0.998778
    13201.320100       0.998498
    13218.770700       0.998190
    13236.267400       0.997855
    13253.810500       0.997493
    13271.400100       0.997103
    13289.036500       0.996687
    13306.719900       0.996245
    13324.450400       0.995777
    13342.228200       0.995284
    13360.053400       0.994765
    13377.926400       0.994221
    13395.847300       0.993652
    13413.816200       0.993060
    13431.833400       0.992443
    13449.899100       0.991803
    13468.013500       0.991139
    13486.176700       0.990453
    13504.388900       0.989744
    13522.650400       0.989013
    13540.961400       0.988260
    13559.322000       0.987486
    13577.732500       0.986691
    13596.193100       0.985875
    13614.703900       0.985038
    13633.265200       0.984182
    13651.877100       0.983307
    13670.540000       0.982412
    13689.253900       0.981498
    13708.019200       0.980566
    13726.836000       0.979616
    13745.704500       0.978649
    13764.624900       0.977664
    13783.597500       0.976663
    13802.622500       0.975645
    13821.700100       0.974611
    13840.830400       0.973562
    13860.013900       0.972497
    13879.250500       0.971418
    13898.540700       0.970325
    13917.884500       0.969217
    13937.282200       0.968096
    13956.734100       0.966962
    13976.240400       0.965815
    13995.801300       0.964656
    14015.417000       0.963485
    14035.087700       0.962302
    14054.813800       0.961109
    14074.595400       0.959905
    14094.432700       0.958691
    14114.326000       0.957467
    14134.275600       0.956233
    14154.281700       0.954991
    14174.344400       0.953740
    14194.464200       0.952481
    14214.641100       0.951215
    14234.875400       0.949941
    14255.167500       0.948660
    14275.517500       0.947373
    14295.925700       0.946080
    14316.392300       0.944782
    14336.917600       0.943478
    14357.501800       0.942170
    14378.145200       0.940857
    14398.848100       0.939540
    14419.610700       0.938220
    14440.433200       0.936896
    14461.316000       0.935570
    14482.259200       0.934242
    14503.263200       0.932912
    14524.328200       0.931580
    14545.454500       0.930247
    14566.642400       0.928914
    14587.892000       0.927580
    14609.203800       0.926246
    14630.577900       0.924913
    14652.014700       0.923581
    14673.514300       0.922249
    14695.077100       0.920920
    14716.703500       0.919593
    14738.393500       0.918268
    14760.147600       0.916945
    14781.966000       0.915626
    14803.849000       0.914311
    14825.796900       0.912999
    14847.809900       0.911691
    14869.888500       0.910388
    14892.032800       0.909091
    14914.243100       0.907798
    14936.519800       0.906511
    14958.863100       0.905229
    14981.273400       0.903955
    15003.750900       0.902686
    15026.296000       0.901425
    15048.909000       0.900171
    15071.590100       0.898924
    15094.339600       0.897686
    15117.158000       0.896455
    15140.045400       0.895233
    15163.002300       0.894020
    15186.028900       0.892816
    15209.125500       0.891621
    15232.292500       0.890436
    15255.530100       0.889261
    15278.838800       0.888095
    15302.218800       0.886941
    15325.670500       0.885797
    15349.194200       0.884663
    15372.790200       0.883541
    15396.458800       0.882431
    15420.200500       0.881332
    15444.015400       0.880245
    15467.904100       0.879169
    15491.866800       0.878107
    15515.903800       0.877056
    15540.015500       0.876018
    15564.202300       0.874993
    15588.464500       0.873981
    15612.802500       0.872983
    15637.216600       0.871997
    15661.707100       0.871025
    15686.274500       0.870067
    15710.919100       0.869122
    15735.641200       0.868191
    15760.441300       0.867275
    15785.319700       0.866372
    15810.276700       0.865484
    15835.312700       0.864610
    15860.428200       0.863751
    15885.623500       0.862906
    15910.899000       0.862076
    15936.255000       0.861260
    15961.691900       0.860459
    15987.210200       0.859673
    16012.810200       0.858902
    16038.492400       0.858146
    16064.257000       0.857404
    16090.104600       0.856677
    16116.035500       0.855966
    16142.050000       0.855269
    16168.148700       0.854587
    16194.332000       0.853920
    16220.600200       0.853267
    16246.953700       0.852630
    16273.393000       0.852007
    16299.918500       0.851399
    16326.530600       0.850805
    16353.229800       0.850226
    16380.016400       0.849661
    16406.890900       0.849111
    16433.853700       0.848575
    16460.905300       0.848053
    16488.046200       0.847545
    16515.276600       0.847051
    16542.597200       0.846570
    16570.008300       0.846103
    16597.510400       0.845649
    16625.103900       0.845209
    16652.789300       0.844781
    16680.567100       0.844366
    16708.437800       0.843964
    16736.401700       0.843574
    16764.459300       0.843197
    16792.611300       0.842831
    16820.857900       0.842477
    16849.199700       0.842134
    16877.637100       0.841802
    16906.170800       0.841481
    16934.801000       0.841171
    16963.528400       0.840871
    16992.353400       0.840581
    17021.276600       0.840300
    17050.298400       0.840029
    17079.419300       0.839766
    17108.639900       0.839512
    17137.960600       0.839267
    17167.382000       0.839029
    17196.904600       0.838799
    17226.528900       0.838575
    17256.255400       0.838359
    17286.084700       0.838148
