24,   24, MVIRI VIS channel from srf_MET4_1992168_1992169_1801-Release_S10EL_10.dat
Number of data points:
752
Wavenumber (cm-1)   Filter response
     8745.080900       0.000000
     8752.735200       0.000000
     8760.403000       0.000001
     8768.084200       0.000059
     8775.778900       0.000200
     8783.487000       0.000421
     8791.208800       0.000721
     8798.944100       0.001096
     8806.693100       0.001545
     8814.455700       0.002065
     8822.232000       0.002655
     8830.022100       0.003311
     8837.825900       0.004032
     8845.643500       0.004817
     8853.475000       0.005663
     8861.320300       0.006568
     8869.179600       0.007530
     8877.052800       0.008548
     8884.940000       0.009621
     8892.841300       0.010746
     8900.756600       0.011922
     8908.686000       0.013147
     8916.629500       0.014420
     8924.587200       0.015740
     8932.559200       0.017105
     8940.545400       0.018513
     8948.545900       0.019965
     8956.560700       0.021457
     8964.589900       0.022990
     8972.633500       0.024561
     8980.691500       0.026170
     8988.764000       0.027816
     8996.851100       0.029498
     9004.952700       0.031215
     9013.068900       0.032965
     9021.199800       0.034748
     9029.345400       0.036563
     9037.505600       0.038409
     9045.680700       0.040286
     9053.870500       0.042191
     9062.075200       0.044126
     9070.294800       0.046089
     9078.529300       0.048079
     9086.778700       0.050096
     9095.043200       0.052139
     9103.322700       0.054207
     9111.617300       0.056301
     9119.927000       0.058418
     9128.251900       0.060560
     9136.592100       0.062725
     9144.947400       0.064912
     9153.318100       0.067123
     9161.704100       0.069355
     9170.105500       0.071608
     9178.522300       0.073883
     9186.954500       0.076179
     9195.402300       0.078495
     9203.865600       0.080831
     9212.344500       0.083187
     9220.839100       0.085563
     9229.349300       0.087958
     9237.875300       0.090372
     9246.417000       0.092804
     9254.974500       0.095256
     9263.547900       0.097725
     9272.137200       0.100213
     9280.742500       0.102719
     9289.363700       0.105242
     9298.000900       0.107784
     9306.654300       0.110343
     9315.323700       0.112919
     9324.009300       0.115512
     9332.711200       0.118123
     9341.429200       0.120750
     9350.163600       0.123395
     9358.914400       0.126056
     9367.681500       0.128735
     9376.465100       0.131430
     9385.265100       0.134141
     9394.081700       0.136870
     9402.914900       0.139615
     9411.764700       0.142377
     9420.631200       0.145155
     9429.514400       0.147949
     9438.414300       0.150761
     9447.331100       0.153588
     9456.264800       0.156432
     9465.215300       0.159293
     9474.182900       0.162170
     9483.167400       0.165064
     9492.169000       0.167974
     9501.187600       0.170901
     9510.223500       0.173844
     9519.276500       0.176804
     9528.346800       0.179780
     9537.434400       0.182773
     9546.539400       0.185783
     9555.661700       0.188809
     9564.801500       0.191852
     9573.958800       0.194911
     9583.133700       0.197987
     9592.326100       0.201080
     9601.536200       0.204190
     9610.764100       0.207316
     9620.009600       0.210459
     9629.273000       0.213620
     9638.554200       0.216796
     9647.853400       0.219990
     9657.170400       0.223200
     9666.505600       0.226428
     9675.858700       0.229672
     9685.230000       0.232933
     9694.619500       0.236212
     9704.027200       0.239506
     9713.453100       0.242818
     9722.897400       0.246148
     9732.360100       0.249493
     9741.841200       0.252856
     9751.340800       0.256235
     9760.859000       0.259632
     9770.395700       0.263046
     9779.951100       0.266476
     9789.525200       0.269923
     9799.118100       0.273387
     9808.729800       0.276868
     9818.360300       0.280366
     9828.009800       0.283879
     9837.678300       0.287411
     9847.365800       0.290958
     9857.072400       0.294522
     9866.798200       0.298103
     9876.543200       0.301699
     9886.307500       0.305313
     9896.091000       0.308943
     9905.894000       0.312588
     9915.716400       0.316251
     9925.558300       0.319928
     9935.419800       0.323623
     9945.300800       0.327333
     9955.201600       0.331058
     9965.122100       0.334800
     9975.062300       0.338556
     9985.022500       0.342329
     9995.002500       0.346116
    10005.002500       0.349919
    10015.022500       0.353737
    10025.062700       0.357569
    10035.122900       0.361417
    10045.203400       0.365279
    10055.304200       0.369155
    10065.425300       0.373046
    10075.566800       0.376951
    10085.728700       0.380869
    10095.911200       0.384802
    10106.114200       0.388748
    10116.337900       0.392707
    10126.582300       0.396680
    10136.847400       0.400665
    10147.133400       0.404664
    10157.440300       0.408674
    10167.768200       0.412697
    10178.117000       0.416733
    10188.487000       0.420780
    10198.878100       0.424839
    10209.290500       0.428909
    10219.724100       0.432990
    10230.179000       0.437082
    10240.655400       0.441185
    10251.153300       0.445298
    10261.672700       0.449422
    10272.213700       0.453555
    10282.776300       0.457698
    10293.360800       0.461850
    10303.967000       0.466011
    10314.595200       0.470181
    10325.245200       0.474359
    10335.917300       0.478546
    10346.611500       0.482740
    10357.327800       0.486942
    10368.066400       0.491150
    10378.827200       0.495366
    10389.610400       0.499589
    10400.416000       0.503817
    10411.244100       0.508052
    10422.094800       0.512292
    10432.968200       0.516537
    10443.864200       0.520787
    10454.783100       0.525042
    10465.724800       0.529301
    10476.689400       0.533563
    10487.677000       0.537830
    10498.687700       0.542099
    10509.721500       0.546371
    10520.778500       0.550645
    10531.858900       0.554922
    10542.962600       0.559200
    10554.089700       0.563479
    10565.240400       0.567759
    10576.414600       0.572039
    10587.612500       0.576320
    10598.834100       0.580601
    10610.079600       0.584880
    10621.348900       0.589159
    10632.642200       0.593436
    10643.959600       0.597711
    10655.301000       0.601984
    10666.666700       0.606254
    10678.056600       0.610521
    10689.470900       0.614784
    10700.909600       0.619044
    10712.372800       0.623299
    10723.860600       0.627549
    10735.373100       0.631794
    10746.910300       0.636034
    10758.472300       0.640268
    10770.059200       0.644495
    10781.671200       0.648715
    10793.308100       0.652928
    10804.970300       0.657134
    10816.657700       0.661331
    10828.370300       0.665519
    10840.108400       0.669699
    10851.871900       0.673869
    10863.661100       0.678029
    10875.475800       0.682179
    10887.316300       0.686319
    10899.182600       0.690447
    10911.074700       0.694563
    10922.992900       0.698668
    10934.937100       0.702760
    10946.907500       0.706839
    10958.904100       0.710905
    10970.927000       0.714958
    10982.976400       0.718996
    10995.052200       0.723019
    11007.154700       0.727028
    11019.283700       0.731021
    11031.439600       0.734999
    11043.622300       0.738960
    11055.832000       0.742904
    11068.068600       0.746831
    11080.332400       0.750741
    11092.623400       0.754633
    11104.941700       0.758506
    11117.287400       0.762361
    11129.660500       0.766196
    11142.061300       0.770012
    11154.489700       0.773808
    11166.945800       0.777583
    11179.429800       0.781337
    11191.941800       0.785071
    11204.481800       0.788782
    11217.049900       0.792472
    11229.646300       0.796139
    11242.270900       0.799783
    11254.924000       0.803405
    11267.605600       0.807002
    11280.315800       0.810576
    11293.054800       0.814125
    11305.822500       0.817649
    11318.619100       0.821149
    11331.444800       0.824622
    11344.299500       0.828070
    11357.183400       0.831492
    11370.096600       0.834887
    11383.039300       0.838255
    11396.011400       0.841596
    11409.013100       0.844909
    11422.044500       0.848194
    11435.105800       0.851451
    11448.196900       0.854679
    11461.318100       0.857878
    11474.469300       0.861047
    11487.650800       0.864187
    11500.862600       0.867297
    11514.104800       0.870377
    11527.377500       0.873426
    11540.680900       0.876443
    11554.015000       0.879430
    11567.380000       0.882385
    11580.775900       0.885308
    11594.202900       0.888200
    11607.661100       0.891058
    11621.150500       0.893884
    11634.671300       0.896677
    11648.223600       0.899437
    11661.807600       0.902163
    11675.423200       0.904855
    11689.070700       0.907513
    11702.750100       0.910137
    11716.461600       0.912726
    11730.205300       0.915281
    11743.981200       0.917800
    11757.789500       0.920284
    11771.630400       0.922733
    11785.503800       0.925146
    11799.410000       0.927523
    11813.349100       0.929864
    11827.321100       0.932169
    11841.326200       0.934437
    11855.364600       0.936668
    11869.436200       0.938863
    11883.541300       0.941020
    11897.680000       0.943140
    11911.852300       0.945223
    11926.058400       0.947268
    11940.298500       0.949275
    11954.572600       0.951245
    11968.880900       0.953176
    11983.223500       0.955070
    11997.600500       0.956925
    12012.012000       0.958741
    12026.458200       0.960519
    12040.939200       0.962259
    12055.455100       0.963960
    12070.006000       0.965621
    12084.592100       0.967244
    12099.213600       0.968828
    12113.870400       0.970373
    12128.562800       0.971879
    12143.290800       0.973345
    12158.054700       0.974772
    12172.854500       0.976160
    12187.690400       0.977508
    12202.562500       0.978817
    12217.471000       0.980086
    12232.415900       0.981316
    12247.397400       0.982507
    12262.415700       0.983658
    12277.470800       0.984769
    12292.563000       0.985841
    12307.692300       0.986873
    12322.858900       0.987865
    12338.062900       0.988819
    12353.304500       0.989732
    12368.583800       0.990606
    12383.900900       0.991441
    12399.256000       0.992237
    12414.649300       0.992993
    12430.080800       0.993709
    12445.550700       0.994387
    12461.059200       0.995026
    12476.606400       0.995625
    12492.192400       0.996185
    12507.817400       0.996707
    12523.481500       0.997190
    12539.185000       0.997634
    12554.927800       0.998039
    12570.710200       0.998406
    12586.532400       0.998735
    12602.394500       0.999025
    12618.296500       0.999277
    12634.238800       0.999492
    12650.221400       0.999668
    12666.244500       0.999807
    12682.308200       0.999909
    12698.412700       0.999973
    12714.558200       1.000000
    12730.744700       0.999990
    12746.972600       0.999943
    12763.241900       0.999860
    12779.552700       0.999740
    12795.905300       0.999584
    12812.299800       0.999392
    12828.736400       0.999164
    12845.215200       0.998901
    12861.736300       0.998602
    12878.300100       0.998268
    12894.906500       0.997900
    12911.555800       0.997496
    12928.248200       0.997058
    12944.983800       0.996586
    12961.762800       0.996081
    12978.585300       0.995541
    12995.451600       0.994968
    13012.361700       0.994363
    13029.316000       0.993724
    13046.314400       0.993053
    13063.357300       0.992349
    13080.444700       0.991614
    13097.576900       0.990847
    13114.754100       0.990049
    13131.976400       0.989219
    13149.243900       0.988359
    13166.556900       0.987469
    13183.915600       0.986548
    13201.320100       0.985598
    13218.770700       0.984618
    13236.267400       0.983609
    13253.810500       0.982572
    13271.400100       0.981506
    13289.036500       0.980412
    13306.719900       0.979290
    13324.450400       0.978141
    13342.228200       0.976966
    13360.053400       0.975763
    13377.926400       0.974534
    13395.847300       0.973280
    13413.816200       0.972000
    13431.833400       0.970694
    13449.899100       0.969364
    13468.013500       0.968010
    13486.176700       0.966632
    13504.388900       0.965230
    13522.650400       0.963805
    13540.961400       0.962358
    13559.322000       0.960888
    13577.732500       0.959396
    13596.193100       0.957882
    13614.703900       0.956348
    13633.265200       0.954793
    13651.877100       0.953217
    13670.540000       0.951622
    13689.253900       0.950007
    13708.019200       0.948373
    13726.836000       0.946721
    13745.704500       0.945050
    13764.624900       0.943362
    13783.597500       0.941656
    13802.622500       0.939934
    13821.700100       0.938195
    13840.830400       0.936440
    13860.013900       0.934670
    13879.250500       0.932884
    13898.540700       0.931084
    13917.884500       0.929270
    13937.282200       0.927442
    13956.734100       0.925600
    13976.240400       0.923746
    13995.801300       0.921879
    14015.417000       0.920000
    14035.087700       0.918110
    14054.813800       0.916209
    14074.595400       0.914297
    14094.432700       0.912375
    14114.326000       0.910443
    14134.275600       0.908502
    14154.281700       0.906552
    14174.344400       0.904593
    14194.464200       0.902627
    14214.641100       0.900653
    14234.875400       0.898673
    14255.167500       0.896685
    14275.517500       0.894692
    14295.925700       0.892693
    14316.392300       0.890688
    14336.917600       0.888679
    14357.501800       0.886666
    14378.145200       0.884648
    14398.848100       0.882627
    14419.610700       0.880603
    14440.433200       0.878577
    14461.316000       0.876549
    14482.259200       0.874518
    14503.263200       0.872487
    14524.328200       0.870454
    14545.454500       0.868422
    14566.642400       0.866389
    14587.892000       0.864357
    14609.203800       0.862325
    14630.577900       0.860295
    14652.014700       0.858267
    14673.514300       0.856241
    14695.077100       0.854217
    14716.703500       0.852197
    14738.393500       0.850180
    14760.147600       0.848166
    14781.966000       0.846157
    14803.849000       0.844152
    14825.796900       0.842152
    14847.809900       0.840158
    14869.888500       0.838169
    14892.032800       0.836187
    14914.243100       0.834211
    14936.519800       0.832242
    14958.863100       0.830280
    14981.273400       0.828326
    15003.750900       0.826380
    15026.296000       0.824442
    15048.909000       0.822513
    15071.590100       0.820593
    15094.339600       0.818682
    15117.158000       0.816781
    15140.045400       0.814891
    15163.002300       0.813010
    15186.028900       0.811141
    15209.125500       0.809282
    15232.292500       0.807435
    15255.530100       0.805599
    15278.838800       0.803776
    15302.218800       0.801965
    15325.670500       0.800166
    15349.194200       0.798380
    15372.790200       0.796607
    15396.458800       0.794848
    15420.200500       0.793103
    15444.015400       0.791371
    15467.904100       0.789654
    15491.866800       0.787951
    15515.903800       0.786263
    15540.015500       0.784589
    15564.202300       0.782931
    15588.464500       0.781288
    15612.802500       0.779661
    15637.216600       0.778050
    15661.707100       0.776455
    15686.274500       0.774876
    15710.919100       0.773313
    15735.641200       0.771767
    15760.441300       0.770238
    15785.319700       0.768726
    15810.276700       0.767231
    15835.312700       0.765753
    15860.428200       0.764292
    15885.623500       0.762849
    15910.899000       0.761424
    15936.255000       0.760016
    15961.691900       0.758626
    15987.210200       0.757255
    16012.810200       0.755901
    16038.492400       0.754566
    16064.257000       0.753249
    16090.104600       0.751950
    16116.035500       0.750670
    16142.050000       0.749408
    16168.148700       0.748164
    16194.332000       0.746939
    16220.600200       0.745733
    16246.953700       0.744545
    16273.393000       0.743376
    16299.918500       0.742226
    16326.530600       0.741094
    16353.229800       0.739981
    16380.016400       0.738886
    16406.890900       0.737810
    16433.853700       0.736753
    16460.905300       0.735714
    16488.046200       0.734693
    16515.276600       0.733691
    16542.597200       0.732707
    16570.008300       0.731741
    16597.510400       0.730793
    16625.103900       0.729863
    16652.789300       0.728951
    16680.567100       0.728057
    16708.437800       0.727181
    16736.401700       0.726322
    16764.459300       0.725480
    16792.611300       0.724655
    16820.857900       0.723848
    16849.199700       0.723057
    16877.637100       0.722283
    16906.170800       0.721525
    16934.801000       0.720784
    16963.528400       0.720059
    16992.353400       0.719349
    17021.276600       0.718655
    17050.298400       0.717977
    17079.419300       0.717313
    17108.639900       0.716664
    17137.960600       0.716030
    17167.382000       0.715410
    17196.904600       0.714804
    17226.528900       0.714212
    17256.255400       0.713633
    17286.084700       0.713067
    17316.017300       0.712514
    17346.053800       0.711973
    17376.194600       0.711444
    17406.440400       0.710927
    17436.791600       0.710422
    17467.248900       0.709927
    17497.812800       0.709443
    17528.483800       0.708968
    17559.262500       0.708504
    17590.149500       0.708049
    17621.145400       0.707603
    17652.250700       0.707166
    17683.466000       0.706736
    17714.791900       0.706314
    17746.228900       0.705900
    17777.777800       0.705492
    17809.439000       0.705090
    17841.213200       0.704694
    17873.101000       0.704304
    17905.103000       0.703918
    17937.219700       0.703536
    17969.451900       0.703158
    18001.800200       0.702784
    18034.265100       0.702412
    18066.847300       0.702042
    18099.547500       0.701674
    18132.366300       0.701307
    18165.304300       0.700940
    18198.362100       0.700574
    18231.540600       0.700207
    18264.840200       0.699838
    18298.261700       0.699468
    18331.805700       0.699095
    18365.472900       0.698720
    18399.264000       0.698341
    18433.179700       0.697957
    18467.220700       0.697569
    18501.387600       0.697175
    18535.681200       0.696775
    18570.102100       0.696368
    18604.651200       0.695954
    18639.329000       0.695532
    18674.136300       0.695101
    18709.073900       0.694660
    18744.142500       0.694210
    18779.342700       0.693749
    18814.675400       0.693276
    18850.141400       0.692791
    18885.741300       0.692294
    18921.475900       0.691782
    18957.346000       0.691257
    18993.352300       0.690717
    19029.495700       0.690161
    19065.776900       0.689588
