7,   SBG channel 7 from srf_082024.csv
Number of data points:
1581
Wavenumber (cm-1)   Filter response
      820.815900       0.000496
      820.883200       0.000500
      820.950700       0.000503
      821.018100       0.000507
      821.085500       0.000510
      821.152900       0.000514
      821.220300       0.000518
      821.287800       0.000521
      821.355200       0.000525
      821.422700       0.000529
      821.490200       0.000532
      821.557700       0.000536
      821.625200       0.000540
      821.692700       0.000544
      821.760300       0.000548
      821.827800       0.000551
      821.895300       0.000555
      821.962800       0.000559
      822.030400       0.000563
      822.098000       0.000567
      822.165600       0.000571
      822.233200       0.000575
      822.300800       0.000580
      822.368400       0.000584
      822.436000       0.000588
      822.503700       0.000592
      822.571400       0.000597
      822.639000       0.000601
      822.706700       0.000605
      822.774400       0.000610
      822.842100       0.000614
      822.909800       0.000619
      822.977500       0.000623
      823.045300       0.000628
      823.113000       0.000632
      823.180800       0.000637
      823.248500       0.000642
      823.316300       0.000646
      823.384100       0.000651
      823.451900       0.000656
      823.519800       0.000661
      823.587500       0.000666
      823.655400       0.000671
      823.723200       0.000676
      823.791100       0.000681
      823.859000       0.000686
      823.926800       0.000691
      823.994800       0.000696
      824.062600       0.000701
      824.130600       0.000707
      824.198400       0.000712
      824.266400       0.000717
      824.334400       0.000723
      824.402300       0.000728
      824.470300       0.000734
      824.538300       0.000739
      824.606300       0.000745
      824.674300       0.000751
      824.742200       0.000756
      824.810300       0.000762
      824.878300       0.000768
      824.946400       0.000774
      825.014400       0.000780
      825.082500       0.000786
      825.150600       0.000792
      825.218700       0.000798
      825.286800       0.000804
      825.354900       0.000810
      825.423000       0.000817
      825.491100       0.000823
      825.559300       0.000830
      825.627400       0.000836
      825.695600       0.000843
      825.763900       0.000849
      825.832000       0.000856
      825.900300       0.000863
      825.968400       0.000869
      826.036700       0.000876
      826.104900       0.000883
      826.173200       0.000890
      826.241500       0.000897
      826.309700       0.000904
      826.378000       0.000912
      826.446200       0.000919
      826.514600       0.000926
      826.582900       0.000934
      826.651200       0.000941
      826.719600       0.000949
      826.787900       0.000956
      826.856300       0.000964
      826.924600       0.000972
      826.993000       0.000980
      827.061500       0.000988
      827.129800       0.000996
      827.198300       0.001004
      827.266700       0.001012
      827.335100       0.001020
      827.403600       0.001028
      827.472000       0.001037
      827.540600       0.001045
      827.609000       0.001054
      827.677600       0.001063
      827.746000       0.001071
      827.814600       0.001080
      827.883100       0.001089
      827.951700       0.001098
      828.020200       0.001107
      828.088700       0.001116
      828.157300       0.001126
      828.225900       0.001135
      828.294600       0.001145
      828.363200       0.001154
      828.431800       0.001164
      828.500400       0.001174
      828.569000       0.001183
      828.637800       0.001193
      828.706400       0.001204
      828.775100       0.001214
      828.843800       0.001224
      828.912500       0.001234
      828.981200       0.001245
      829.049900       0.001255
      829.118700       0.001266
      829.187400       0.001277
      829.256200       0.001288
      829.325000       0.001299
      829.393700       0.001310
      829.462500       0.001321
      829.531300       0.001333
      829.600200       0.001344
      829.668900       0.001356
      829.737800       0.001368
      829.806700       0.001380
      829.875500       0.001392
      829.944400       0.001404
      830.013200       0.001416
      830.082200       0.001428
      830.151100       0.001441
      830.220000       0.001454
      830.288900       0.001466
      830.357800       0.001479
      830.426900       0.001492
      830.495800       0.001505
      830.564800       0.001519
      830.633800       0.001532
      830.702800       0.001546
      830.771800       0.001560
      830.840800       0.001574
      830.909900       0.001588
      830.978900       0.001602
      831.048000       0.001616
      831.117100       0.001631
      831.186100       0.001645
      831.255200       0.001660
      831.324300       0.001675
      831.393400       0.001690
      831.462500       0.001706
      831.531700       0.001721
      831.600800       0.001737
      831.670000       0.001753
      831.739200       0.001769
      831.808300       0.001785
      831.877600       0.001801
      831.946700       0.001818
      832.016000       0.001834
      832.085200       0.001851
      832.154400       0.001868
      832.223700       0.001886
      832.293000       0.001903
      832.362200       0.001921
      832.431600       0.001938
      832.500900       0.001957
      832.570200       0.001975
      832.639500       0.001993
      832.708800       0.002012
      832.778100       0.002031
      832.847500       0.002050
      832.916900       0.002069
      832.986300       0.002089
      833.055700       0.002108
      833.125100       0.002128
      833.194500       0.002148
      833.263900       0.002169
      833.333300       0.002189
      833.402800       0.002210
      833.472200       0.002231
      833.541700       0.002253
      833.611200       0.002274
      833.680700       0.002296
      833.750200       0.002318
      833.819700       0.002340
      833.889300       0.002363
      833.958800       0.002385
      834.028400       0.002409
      834.097900       0.002432
      834.167500       0.002455
      834.237100       0.002479
      834.306700       0.002503
      834.376300       0.002528
      834.445900       0.002552
      834.515600       0.002577
      834.585200       0.002603
      834.654800       0.002628
      834.724500       0.002654
      834.794200       0.002680
      834.864000       0.002707
      834.933600       0.002734
      835.003400       0.002761
      835.073100       0.002788
      835.142800       0.002816
      835.212600       0.002844
      835.282300       0.002872
      835.352100       0.002901
      835.421900       0.002930
      835.491700       0.002959
      835.561500       0.002989
      835.631300       0.003019
      835.701200       0.003050
      835.771000       0.003081
      835.840900       0.003112
      835.910700       0.003143
      835.980600       0.003175
      836.050500       0.003208
      836.120400       0.003240
      836.190400       0.003274
      836.260300       0.003307
      836.330200       0.003341
      836.400100       0.003375
      836.470100       0.003410
      836.540000       0.003445
      836.610000       0.003481
      836.680100       0.003517
      836.750100       0.003554
      836.820100       0.003591
      836.890100       0.003628
      836.960100       0.003666
      837.030300       0.003704
      837.100300       0.003743
      837.170400       0.003782
      837.240400       0.003822
      837.310500       0.003862
      837.380700       0.003903
      837.450800       0.003944
      837.521000       0.003986
      837.591100       0.004029
      837.661300       0.004071
      837.731400       0.004115
      837.801600       0.004159
      837.871800       0.004203
      837.942000       0.004248
      838.012300       0.004294
      838.082500       0.004340
      838.152700       0.004387
      838.223000       0.004434
      838.293200       0.004482
      838.363500       0.004531
      838.433800       0.004580
      838.504200       0.004630
      838.574400       0.004680
      838.644800       0.004732
      838.715100       0.004783
      838.785500       0.004836
      838.855800       0.004889
      838.926100       0.004943
      838.996600       0.004997
      839.067000       0.005053
      839.137400       0.005109
      839.207800       0.005165
      839.278200       0.005223
      839.348700       0.005281
      839.419100       0.005340
      839.489600       0.005399
      839.560100       0.005460
      839.630600       0.005521
      839.701000       0.005583
      839.771600       0.005646
      839.842200       0.005710
      839.912700       0.005775
      839.983200       0.005840
      840.053800       0.005906
      840.124300       0.005974
      840.194900       0.006042
      840.265500       0.006111
      840.336200       0.006181
      840.406700       0.006252
      840.477400       0.006323
      840.548000       0.006396
      840.618700       0.006470
      840.689300       0.006545
      840.760100       0.006621
      840.830700       0.006697
      840.901400       0.006775
      840.972200       0.006854
      841.042800       0.006934
      841.113600       0.007015
      841.184400       0.007098
      841.255100       0.007181
      841.325900       0.007265
      841.396700       0.007351
      841.467500       0.007438
      841.538300       0.007526
      841.609100       0.007615
      841.680100       0.007706
      841.750900       0.007797
      841.821700       0.007890
      841.892600       0.007985
      841.963400       0.008080
      842.034300       0.008177
      842.105300       0.008276
      842.176200       0.008375
      842.247100       0.008477
      842.318100       0.008579
      842.389000       0.008683
      842.460000       0.008789
      842.530900       0.008896
      842.601900       0.009004
      842.673000       0.009114
      842.744000       0.009226
      842.815000       0.009339
      842.886000       0.009454
      842.957100       0.009570
      843.028100       0.009688
      843.099200       0.009808
      843.170300       0.009930
      843.241400       0.010053
      843.312600       0.010178
      843.383600       0.010305
      843.454800       0.010434
      843.526000       0.010565
      843.597100       0.010697
      843.668300       0.010832
      843.739400       0.010968
      843.810700       0.011107
      843.881800       0.011247
      843.953100       0.011390
      844.024400       0.011534
      844.095500       0.011681
      844.166800       0.011830
      844.238000       0.011981
      844.309400       0.012135
      844.380600       0.012290
      844.452000       0.012448
      844.523300       0.012609
      844.594600       0.012772
      844.666000       0.012937
      844.737200       0.013105
      844.808700       0.013275
      844.880000       0.013448
      844.951400       0.013623
      845.022800       0.013801
      845.094200       0.013982
      845.165600       0.014166
      845.237100       0.014352
      845.308500       0.014541
      845.379900       0.014733
      845.451500       0.014928
      845.523000       0.015126
      845.594400       0.015327
      845.666000       0.015532
      845.737500       0.015739
      845.809000       0.015949
      845.880600       0.016163
      845.952100       0.016380
      846.023700       0.016601
      846.095300       0.016825
      846.166900       0.017052
      846.238500       0.017283
      846.310100       0.017517
      846.381800       0.017756
      846.453400       0.017997
      846.525000       0.018243
      846.596700       0.018493
      846.668400       0.018747
      846.740000       0.019004
      846.811800       0.019266
      846.883500       0.019532
      846.955200       0.019802
      847.027000       0.020076
      847.098700       0.020355
      847.170500       0.020638
      847.242200       0.020926
      847.314000       0.021218
      847.385900       0.021516
      847.457600       0.021818
      847.529500       0.022124
      847.601300       0.022436
      847.673200       0.022753
      847.745100       0.023075
      847.816900       0.023402
      847.888800       0.023735
      847.960600       0.024073
      848.032600       0.024416
      848.104400       0.024765
      848.176500       0.025120
      848.248400       0.025481
      848.320300       0.025847
      848.392300       0.026220
      848.464200       0.026599
      848.536300       0.026984
      848.608300       0.027376
      848.680300       0.027774
      848.752400       0.028178
      848.824300       0.028590
      848.896500       0.029008
      848.968500       0.029434
      849.040600       0.029866
      849.112700       0.030306
      849.184800       0.030753
      849.257000       0.031207
      849.329000       0.031670
      849.401200       0.032140
      849.473300       0.032618
      849.545500       0.033104
      849.617600       0.033599
      849.689900       0.034102
      849.762100       0.034613
      849.834300       0.035133
      849.906600       0.035663
      849.978700       0.036201
      850.051000       0.036748
      850.123300       0.037305
      850.195600       0.037871
      850.267900       0.038448
      850.340100       0.039034
      850.412500       0.039630
      850.484700       0.040237
      850.557100       0.040854
      850.629500       0.041482
      850.701800       0.042120
      850.774200       0.042770
      850.846600       0.043432
      850.919000       0.044104
      850.991400       0.044789
      851.063800       0.045486
      851.136300       0.046194
      851.208700       0.046916
      851.281200       0.047650
      851.353600       0.048397
      851.426100       0.049157
      851.498600       0.049930
      851.571200       0.050718
      851.643700       0.051519
      851.716200       0.052334
      851.788800       0.053164
      851.861300       0.054009
      851.933900       0.054869
      852.006500       0.055744
      852.079000       0.056634
      852.151700       0.057541
      852.224300       0.058464
      852.296900       0.059403
      852.369600       0.060359
      852.442300       0.061332
      852.515000       0.062323
      852.587600       0.063332
      852.660300       0.064359
      852.733000       0.065404
      852.805700       0.066468
      852.878400       0.067551
      852.951200       0.068654
      853.024000       0.069777
      853.096700       0.070920
      853.169600       0.072084
      853.242300       0.073269
      853.315100       0.074475
      853.387900       0.075704
      853.460800       0.076954
      853.533600       0.078228
      853.606500       0.079524
      853.679400       0.080844
      853.752200       0.082188
      853.825100       0.083556
      853.898000       0.084950
      853.970900       0.086368
      854.043900       0.087813
      854.116800       0.089283
      854.189800       0.090781
      854.262800       0.092306
      854.335800       0.093858
      854.408700       0.095439
      854.481800       0.097049
      854.554800       0.098688
      854.627800       0.100356
      854.700900       0.102055
      854.773900       0.103785
      854.847000       0.105547
      854.920100       0.107340
      854.993200       0.109166
      855.066300       0.111025
      855.139300       0.112918
      855.212500       0.114845
      855.285600       0.116807
      855.358800       0.118805
      855.432000       0.120838
      855.505200       0.122908
      855.578400       0.125016
      855.651600       0.127161
      855.724800       0.129345
      855.798000       0.131569
      855.871300       0.133832
      855.944600       0.136135
      856.017800       0.138480
      856.091100       0.140867
      856.164400       0.143296
      856.237700       0.145768
      856.311000       0.148284
      856.384300       0.150844
      856.457700       0.153450
      856.531000       0.156101
      856.604400       0.158799
      856.677800       0.161544
      856.751200       0.164337
      856.824600       0.167178
      856.898000       0.170069
      856.971500       0.173010
      857.044900       0.176001
      857.118400       0.179043
      857.191800       0.182138
      857.265300       0.185285
      857.338900       0.188485
      857.412300       0.191739
      857.485900       0.195048
      857.559400       0.198413
      857.632900       0.201833
      857.706500       0.205309
      857.780100       0.208843
      857.853700       0.212435
      857.927200       0.216084
      858.000900       0.219793
      858.074500       0.223562
      858.148100       0.227390
      858.221700       0.231280
      858.295400       0.235230
      858.369100       0.239242
      858.442700       0.243316
      858.516500       0.247453
      858.590100       0.251653
      858.663900       0.255917
      858.737600       0.260244
      858.811400       0.264636
      858.885200       0.269092
      858.958900       0.273613
      859.032700       0.278200
      859.106500       0.282851
      859.180400       0.287569
      859.254200       0.292352
      859.328000       0.297201
      859.401900       0.302116
      859.475700       0.307097
      859.549600       0.312144
      859.623500       0.317257
      859.697400       0.322436
      859.771400       0.327680
      859.845200       0.332990
      859.919200       0.338366
      859.993100       0.343806
      860.067100       0.349311
      860.141100       0.354881
      860.215000       0.360514
      860.289100       0.366210
      860.363000       0.371969
      860.437100       0.377789
      860.511100       0.383671
      860.585200       0.389614
      860.659200       0.395616
      860.733300       0.401677
      860.807500       0.407795
      860.881500       0.413970
      860.955700       0.420201
      861.029800       0.426485
      861.103900       0.432823
      861.178000       0.439212
      861.252300       0.445652
      861.326500       0.452140
      861.400600       0.458676
      861.474900       0.465257
      861.549000       0.471882
      861.623300       0.478548
      861.697600       0.485256
      861.771800       0.492001
      861.846100       0.498782
      861.920300       0.505598
      861.994700       0.512446
      862.068900       0.519324
      862.143300       0.526230
      862.217700       0.533160
      862.292000       0.540114
      862.366300       0.547088
      862.440700       0.554081
      862.515100       0.561089
      862.589500       0.568110
      862.663900       0.575141
      862.738300       0.582179
      862.812700       0.589223
      862.887300       0.596269
      862.961700       0.603314
      863.036200       0.610356
      863.110600       0.617391
      863.185200       0.624418
      863.259700       0.631432
      863.334200       0.638432
      863.408800       0.645414
      863.483300       0.652375
      863.557900       0.659313
      863.632400       0.666224
      863.707000       0.673106
      863.781700       0.679955
      863.856300       0.686770
      863.930900       0.693547
      864.005500       0.700283
      864.080200       0.706976
      864.154900       0.713622
      864.229600       0.720220
      864.304300       0.726766
      864.378900       0.733258
      864.453700       0.739694
      864.528400       0.746070
      864.603100       0.752385
      864.677900       0.758636
      864.752700       0.764821
      864.827500       0.770937
