   8, extracted from file vas_g06.srf.nc
Number of data points:
2335
Wavenumber (cm-1)   Filter response
      785.000000       0.000423
      785.100000       0.000529
      785.200000       0.000635
      785.300000       0.000741
      785.400000       0.000846
      785.500000       0.000952
      785.600000       0.001057
      785.700000       0.001163
      785.800000       0.001269
      785.900000       0.001374
      786.000000       0.001480
      786.100000       0.001585
      786.200000       0.001691
      786.300000       0.001797
      786.400000       0.001902
      786.500000       0.002008
      786.600000       0.002113
      786.700000       0.002219
      786.800000       0.002325
      786.900000       0.002430
      787.000000       0.002536
      787.100000       0.002641
      787.200000       0.002747
      787.300000       0.002853
      787.400000       0.002958
      787.500000       0.003064
      787.600000       0.003169
      787.700000       0.003274
      787.800000       0.003379
      787.900000       0.003484
      788.000000       0.003588
      788.100000       0.003693
      788.200000       0.003798
      788.300000       0.003903
      788.400000       0.004008
      788.500000       0.004113
      788.600000       0.004218
      788.700000       0.004323
      788.800000       0.004428
      788.900000       0.004533
      789.000000       0.004638
      789.100000       0.004743
      789.200000       0.004847
      789.300000       0.004952
      789.400000       0.005057
      789.500000       0.005162
      789.600000       0.005267
      789.700000       0.005372
      789.800000       0.005477
      789.900000       0.005582
      790.000000       0.005689
      790.100000       0.005797
      790.200000       0.005905
      790.300000       0.006013
      790.400000       0.006122
      790.500000       0.006230
      790.600000       0.006338
      790.700000       0.006447
      790.800000       0.006555
      790.900000       0.006663
      791.000000       0.006771
      791.100000       0.006880
      791.200000       0.006988
      791.300000       0.007096
      791.400000       0.007205
      791.500000       0.007313
      791.600000       0.007421
      791.700000       0.007529
      791.800000       0.007638
      791.900000       0.007746
      792.000000       0.007854
      792.100000       0.007963
      792.200000       0.008072
      792.300000       0.008179
      792.400000       0.008287
      792.500000       0.008417
      792.600000       0.008566
      792.700000       0.008713
      792.800000       0.008861
      792.900000       0.009008
      793.000000       0.009156
      793.100000       0.009304
      793.200000       0.009451
      793.300000       0.009598
      793.400000       0.009746
      793.500000       0.009893
      793.600000       0.010041
      793.700000       0.010188
      793.800000       0.010336
      793.900000       0.010483
      794.000000       0.010631
      794.100000       0.010778
      794.200000       0.010925
      794.300000       0.011073
      794.400000       0.011221
      794.500000       0.011368
      794.600000       0.011515
      794.700000       0.011663
      794.800000       0.011810
      794.900000       0.011947
      795.000000       0.012176
      795.100000       0.012512
      795.200000       0.012850
      795.300000       0.013186
      795.400000       0.013523
      795.500000       0.013860
      795.600000       0.014196
      795.700000       0.014533
      795.800000       0.014869
      795.900000       0.015206
      796.000000       0.015543
      796.100000       0.015879
      796.200000       0.016216
      796.300000       0.016552
      796.400000       0.016889
      796.500000       0.017226
      796.600000       0.017562
      796.700000       0.017899
      796.800000       0.018235
      796.900000       0.018572
      797.000000       0.018909
      797.100000       0.019245
      797.200000       0.019582
      797.300000       0.019918
      797.400000       0.020255
      797.500000       0.020591
      797.600000       0.020926
      797.700000       0.021260
      797.800000       0.021595
      797.900000       0.021930
      798.000000       0.022264
      798.100000       0.022598
      798.200000       0.022932
      798.300000       0.023267
      798.400000       0.023602
      798.500000       0.023936
      798.600000       0.024270
      798.700000       0.024604
      798.800000       0.024939
      798.900000       0.025274
      799.000000       0.025608
      799.100000       0.025943
      799.200000       0.026277
      799.300000       0.026611
      799.400000       0.026946
      799.500000       0.027280
      799.600000       0.027615
      799.700000       0.027950
      799.800000       0.028283
      799.900000       0.028618
      800.000000       0.028953
      800.100000       0.029286
      800.200000       0.029619
      800.300000       0.029951
      800.400000       0.030283
      800.500000       0.030616
      800.600000       0.030948
      800.700000       0.031280
      800.800000       0.031612
      800.900000       0.031945
      801.000000       0.032277
      801.100000       0.032609
      801.200000       0.032942
      801.300000       0.033274
      801.400000       0.033607
      801.500000       0.033939
      801.600000       0.034271
      801.700000       0.034604
      801.800000       0.034936
      801.900000       0.035268
      802.000000       0.035601
      802.100000       0.035933
      802.200000       0.036265
      802.300000       0.036597
      802.400000       0.036930
      802.500000       0.037262
      802.600000       0.037595
      802.700000       0.037928
      802.800000       0.038263
      802.900000       0.038597
      803.000000       0.038931
      803.100000       0.039265
      803.200000       0.039599
      803.300000       0.039933
      803.400000       0.040267
      803.500000       0.040601
      803.600000       0.040935
      803.700000       0.041269
      803.800000       0.041603
      803.900000       0.041938
      804.000000       0.042272
      804.100000       0.042606
      804.200000       0.042940
      804.300000       0.043274
      804.400000       0.043608
      804.500000       0.043942
      804.600000       0.044276
      804.700000       0.044610
      804.800000       0.044944
      804.900000       0.045279
      805.000000       0.045613
      805.100000       0.045919
      805.200000       0.046444
      805.300000       0.047497
      805.400000       0.048803
      805.500000       0.050076
      805.600000       0.051349
      805.700000       0.052623
      805.800000       0.053896
      805.900000       0.055172
      806.000000       0.056445
      806.100000       0.057718
      806.200000       0.058991
      806.300000       0.060265
      806.400000       0.061540
      806.500000       0.062813
      806.600000       0.064086
      806.700000       0.065359
      806.800000       0.066633
      806.900000       0.067908
      807.000000       0.069182
      807.100000       0.070455
      807.200000       0.071728
      807.300000       0.073001
      807.400000       0.074277
      807.500000       0.075550
      807.600000       0.076824
      807.700000       0.078088
      807.800000       0.079426
      807.900000       0.080953
      808.000000       0.082571
      808.100000       0.084178
      808.200000       0.085784
      808.300000       0.087390
      808.400000       0.088999
      808.500000       0.090605
      808.600000       0.092212
      808.700000       0.093819
      808.800000       0.095425
      808.900000       0.097034
      809.000000       0.098640
      809.100000       0.100247
      809.200000       0.101853
      809.300000       0.103460
      809.400000       0.105069
      809.500000       0.106675
      809.600000       0.108282
      809.700000       0.109889
      809.800000       0.111495
      809.900000       0.113103
      810.000000       0.114710
      810.100000       0.116316
      810.200000       0.117923
      810.300000       0.119497
      810.400000       0.121282
      810.500000       0.124130
      810.600000       0.127720
      810.700000       0.131225
      810.800000       0.134729
      810.900000       0.138239
      811.000000       0.141742
      811.100000       0.145246
      811.200000       0.148751
      811.300000       0.152255
      811.400000       0.155765
      811.500000       0.159269
      811.600000       0.162773
      811.700000       0.166277
      811.800000       0.169781
      811.900000       0.173290
      812.000000       0.176795
      812.100000       0.180299
      812.200000       0.183803
      812.300000       0.187307
      812.400000       0.190816
      812.500000       0.194321
      812.600000       0.197825
      812.700000       0.201329
      812.800000       0.204833
      812.900000       0.208342
      813.000000       0.211846
      813.100000       0.215357
      813.200000       0.218876
      813.300000       0.222395
      813.400000       0.225921
      813.500000       0.229440
      813.600000       0.232960
      813.700000       0.236479
      813.800000       0.239998
      813.900000       0.243523
      814.000000       0.247042
      814.100000       0.250562
      814.200000       0.254081
      814.300000       0.257600
      814.400000       0.261126
      814.500000       0.264645
      814.600000       0.268164
      814.700000       0.271684
      814.800000       0.275203
      814.900000       0.278728
      815.000000       0.282247
      815.100000       0.285766
      815.200000       0.289286
      815.300000       0.292805
      815.400000       0.296330
      815.500000       0.299849
      815.600000       0.303370
      815.700000       0.306885
      815.800000       0.310388
      815.900000       0.313889
      816.000000       0.317385
      816.100000       0.320882
      816.200000       0.324379
      816.300000       0.327875
      816.400000       0.331377
      816.500000       0.334874
      816.600000       0.338370
      816.700000       0.341867
      816.800000       0.345364
      816.900000       0.348865
      817.000000       0.352362
      817.100000       0.355859
      817.200000       0.359355
      817.300000       0.362852
      817.400000       0.366354
      817.500000       0.369850
      817.600000       0.373347
      817.700000       0.376843
      817.800000       0.380340
      817.900000       0.383842
      818.000000       0.387338
      818.100000       0.390835
      818.200000       0.394331
      818.300000       0.397827
      818.400000       0.401334
      818.500000       0.404843
      818.600000       0.408355
      818.700000       0.411867
      818.800000       0.415378
      818.900000       0.418895
      819.000000       0.422405
      819.100000       0.425917
      819.200000       0.429434
      819.300000       0.432945
      819.400000       0.436457
      819.500000       0.439968
      819.600000       0.443479
      819.700000       0.446996
      819.800000       0.450507
      819.900000       0.454019
      820.000000       0.457530
      820.100000       0.461041
      820.200000       0.464558
      820.300000       0.468069
      820.400000       0.471581
      820.500000       0.475092
      820.600000       0.478604
      820.700000       0.482120
      820.800000       0.485631
      820.900000       0.489143
      821.000000       0.492656
      821.100000       0.496157
      821.200000       0.499652
      821.300000       0.503139
      821.400000       0.506626
      821.500000       0.510115
      821.600000       0.513602
      821.700000       0.517096
      821.800000       0.520584
      821.900000       0.524071
      822.000000       0.527560
      822.100000       0.531047
      822.200000       0.534541
      822.300000       0.538028
      822.400000       0.541516
      822.500000       0.545005
      822.600000       0.548492
      822.700000       0.551986
      822.800000       0.555473
      822.900000       0.558961
      823.000000       0.562450
      823.100000       0.565937
      823.200000       0.569430
      823.300000       0.572918
      823.400000       0.576406
      823.500000       0.579894
      823.600000       0.583382
      823.700000       0.586877
      823.800000       0.590356
      823.900000       0.593823
      824.000000       0.597288
      824.100000       0.600753
      824.200000       0.604224
      824.300000       0.607690
      824.400000       0.611155
      824.500000       0.614620
      824.600000       0.618086
      824.700000       0.621556
      824.800000       0.625022
      824.900000       0.628487
      825.000000       0.631953
      825.100000       0.635418
      825.200000       0.638889
      825.300000       0.642353
      825.400000       0.645819
      825.500000       0.649285
      825.600000       0.652750
      825.700000       0.656221
      825.800000       0.659686
      825.900000       0.663152
      826.000000       0.666617
      826.100000       0.670082
      826.200000       0.673553
      826.300000       0.677018
      826.400000       0.680484
      826.500000       0.683952
      826.600000       0.687428
      826.700000       0.690913
      826.800000       0.694391
      826.900000       0.697870
      827.000000       0.701350
      827.100000       0.704828
      827.200000       0.708313
      827.300000       0.711791
      827.400000       0.715271
      827.500000       0.718749
      827.600000       0.722227
      827.700000       0.725712
      827.800000       0.729191
      827.900000       0.732669
      828.000000       0.736148
      828.100000       0.739627
      828.200000       0.743111
      828.300000       0.746590
      828.400000       0.750069
      828.500000       0.753548
      828.600000       0.757027
      828.700000       0.760511
      828.800000       0.763990
      828.900000       0.767469
      829.000000       0.770948
      829.100000       0.774426
      829.200000       0.777910
      829.300000       0.781397
      829.400000       0.784891
      829.500000       0.788383
      829.600000       0.791875
      829.700000       0.795373
      829.800000       0.798865
      829.900000       0.802358
      830.000000       0.805851
      830.100000       0.809343
      830.200000       0.812841
      830.300000       0.816333
      830.400000       0.819826
      830.500000       0.823319
      830.600000       0.826811
      830.700000       0.830309
      830.800000       0.833801
      830.900000       0.837294
      831.000000       0.840786
      831.100000       0.844278
      831.200000       0.847776
      831.300000       0.851268
      831.400000       0.854761
      831.500000       0.858254
      831.600000       0.861746
      831.700000       0.865244
      831.800000       0.868736
      831.900000       0.872308
      832.000000       0.875236
      832.100000       0.876826
      832.200000       0.877879
      832.300000       0.878999
      832.400000       0.880120
      832.500000       0.881240
      832.600000       0.882360
      832.700000       0.883482
      832.800000       0.884603
      832.900000       0.885723
      833.000000       0.886843
      833.100000       0.887963
      833.200000       0.889086
      833.300000       0.890205
      833.400000       0.891325
      833.500000       0.892446
      833.600000       0.893567
      833.700000       0.894688
      833.800000       0.895808
      833.900000       0.896929
      834.000000       0.898049
      834.100000       0.899169
      834.200000       0.900291
      834.300000       0.901412
      834.400000       0.902532
      834.500000       0.903652
      834.600000       0.904772
      834.700000       0.905952
      834.800000       0.906626
      834.900000       0.906609
      835.000000       0.906482
      835.100000       0.906375
      835.200000       0.906267
      835.300000       0.906159
      835.400000       0.906051
      835.500000       0.905944
      835.600000       0.905836
      835.700000       0.905728
      835.800000       0.905621
      835.900000       0.905513
      836.000000       0.905405
      836.100000       0.905297
      836.200000       0.905190
      836.300000       0.905082
      836.400000       0.904974
      836.500000       0.904867
      836.600000       0.904759
      836.700000       0.904651
      836.800000       0.904543
      836.900000       0.904436
      837.000000       0.904328
      837.100000       0.904220
      837.200000       0.904112
      837.300000       0.904005
      837.400000       0.903897
      837.500000       0.903819
      837.600000       0.903479
      837.700000       0.902798
      837.800000       0.902077
      837.900000       0.901364
      838.000000       0.900651
      838.100000       0.899937
      838.200000       0.899223
      838.300000       0.898510
      838.400000       0.897797
      838.500000       0.897084
      838.600000       0.896371
      838.700000       0.895657
      838.800000       0.894944
      838.900000       0.894231
      839.000000       0.893517
      839.100000       0.892804
      839.200000       0.892089
      839.300000       0.891377
      839.400000       0.890663
      839.500000       0.889950
      839.600000       0.889238
      839.700000       0.888523
      839.800000       0.887810
      839.900000       0.887096
      840.000000       0.886383
      840.100000       0.885670
      840.200000       0.884956
      840.300000       0.884244
      840.400000       0.883522
      840.500000       0.882782
      840.600000       0.882038
      840.700000       0.881293
      840.800000       0.880549
      840.900000       0.879805
      841.000000       0.879061
      841.100000       0.878318
      841.200000       0.877573
      841.300000       0.876829
      841.400000       0.876085
      841.500000       0.875342
      841.600000       0.874598
      841.700000       0.873853
      841.800000       0.873109
      841.900000       0.872365
      842.000000       0.871622
      842.100000       0.870878
      842.200000       0.870133
      842.300000       0.869389
      842.400000       0.868646
      842.500000       0.867902
      842.600000       0.867158
      842.700000       0.866413
      842.800000       0.865670
      842.900000       0.864926
      843.000000       0.864181
      843.100000       0.863438
      843.200000       0.862694
      843.300000       0.861953
      843.400000       0.861214
      843.500000       0.860476
      843.600000       0.859737
      843.700000       0.858997
      843.800000       0.858259
      843.900000       0.857520
      844.000000       0.856780
      844.100000       0.856042
      844.200000       0.855302
      844.300000       0.854563
      844.400000       0.853825
      844.500000       0.853086
      844.600000       0.852348
      844.700000       0.851607
      844.800000       0.850868
      844.900000       0.850130
      845.000000       0.849391
      845.100000       0.848652
      845.200000       0.847912
      845.300000       0.847174
      845.400000       0.846435
      845.500000       0.845696
      845.600000       0.844958
      845.700000       0.844218
      845.800000       0.843479
      845.900000       0.842740
      846.000000       0.841991
      846.100000       0.841332
      846.200000       0.840791
      846.300000       0.840270
      846.400000       0.839746
      846.500000       0.839222
      846.600000       0.838697
      846.700000       0.838172
      846.800000       0.837649
      846.900000       0.837124
      847.000000       0.836600
