          16  , Jan 12th 2012 http://fy3.satellite.cma.gov.cn/ArssEn/Download/FY3A_calibration_info_params.rar
Number of data points:
120
Wavenumber (cm-1)   Filter response
     2180.550000       0.002159
     2181.501000       0.002883
     2182.453000       0.001089
     2183.406000       0.006909
     2184.360000       0.005812
     2185.315000       0.005703
     2186.270000       0.003291
     2187.227000       0.002405
     2188.184000       0.003206
     2189.142000       0.003658
     2190.101000       0.003747
     2191.060000       0.004359
     2192.021000       0.004962
     2192.982000       0.005724
     2193.945000       0.003550
     2194.908000       0.005509
     2195.872000       0.005668
     2196.836000       0.007560
     2197.802000       0.007923
     2198.769000       0.009444
     2199.736000       0.008303
     2200.704000       0.006949
     2201.673000       0.005966
     2202.643000       0.013731
     2203.614000       0.012411
     2204.586000       0.015464
     2205.558000       0.018923
     2206.531000       0.017030
     2207.505000       0.018907
     2208.481000       0.024906
     2209.457000       0.029414
     2210.433000       0.031942
     2211.411000       0.038084
     2212.389000       0.045249
     2213.369000       0.051799
     2214.349000       0.059205
     2215.330000       0.069282
     2216.312000       0.080618
     2217.295000       0.095647
     2218.279000       0.112563
     2219.263000       0.139351
     2220.249000       0.165521
     2221.235000       0.197553
     2222.222000       0.232981
     2223.210000       0.283852
     2224.199000       0.343910
     2225.189000       0.407542
     2226.180000       0.475092
     2227.172000       0.549634
     2228.164000       0.627364
     2229.157000       0.699709
     2230.152000       0.763138
     2231.147000       0.821057
     2232.143000       0.865519
     2233.140000       0.909634
     2234.138000       0.935723
     2235.136000       0.955261
     2236.136000       0.970890
     2237.136000       0.975866
     2238.138000       0.986942
     2239.140000       0.993619
     2240.143000       1.000000
     2241.147000       0.998045
     2242.152000       0.986869
     2243.158000       0.979408
     2244.165000       0.937381
     2245.173000       0.879766
     2246.181000       0.806703
     2247.191000       0.725526
     2248.201000       0.633600
     2249.213000       0.547982
     2250.225000       0.459130
     2251.238000       0.388035
     2252.252000       0.318890
     2253.267000       0.269070
     2254.283000       0.218941
     2255.300000       0.179067
     2256.318000       0.145515
     2257.336000       0.124435
     2258.356000       0.106199
     2259.376000       0.085720
     2260.398000       0.074148
     2261.420000       0.065132
     2262.443000       0.050301
     2263.468000       0.045025
     2264.493000       0.039563
     2265.519000       0.031817
     2266.546000       0.029552
     2267.574000       0.030795
     2268.603000       0.025954
     2269.632000       0.022653
     2270.663000       0.017853
     2271.695000       0.015827
     2272.727000       0.013013
     2273.761000       0.008757
     2274.795000       0.008575
     2275.831000       0.006400
     2276.867000       0.010770
     2277.904000       0.009912
     2278.943000       0.004968
     2279.982000       0.006050
     2281.022000       0.002216
     2282.063000       0.002847
     2283.105000       0.006951
     2284.148000       0.006611
     2285.192000       0.002049
     2286.237000       0.004079
     2287.283000       0.002026
     2288.330000       0.002448
     2289.377000       0.002339
     2290.426000       0.001367
     2291.476000       0.000777
     2292.526000       0.001732
     2293.578000       0.002687
     2294.631000       0.004188
     2295.684000       0.000156
     2296.739000       0.002711
     2297.794000       0.001526
     2298.851000       0.002470
     2299.908000       0.002098
