109,   109, MVIRI VIS channel from srf_MET5_2004303_2004304_1801-Release_S10EL_10.dat
Number of data points:
806
Wavenumber (cm-1)   Filter response
     8350.730700       0.000000
     8357.710000       0.000000
     8364.701000       0.000000
     8371.703600       0.000002
     8378.718100       0.000004
     8385.744200       0.000009
     8392.782200       0.000017
     8399.832000       0.000028
     8406.893700       0.000042
     8413.967200       0.000061
     8421.052600       0.000085
     8428.150000       0.000114
     8435.259400       0.000149
     8442.380800       0.000190
     8449.514200       0.000238
     8456.659600       0.000293
     8463.817200       0.000355
     8470.986900       0.000425
     8478.168700       0.000504
     8485.362700       0.000591
     8492.569000       0.000687
     8499.787500       0.000792
     8507.018300       0.000907
     8514.261400       0.001032
     8521.516800       0.001167
     8528.784600       0.001312
     8536.064900       0.001469
     8543.357500       0.001636
     8550.662700       0.001815
     8557.980300       0.002006
     8565.310500       0.002208
     8572.653200       0.002423
     8580.008600       0.002650
     8587.376600       0.002890
     8594.757200       0.003142
     8602.150500       0.003407
     8609.556600       0.003686
     8616.975400       0.003978
     8624.407100       0.004284
     8631.851500       0.004604
     8639.308900       0.004937
     8646.779100       0.005285
     8654.262200       0.005647
     8661.758300       0.006024
     8669.267400       0.006415
     8676.789600       0.006821
     8684.324800       0.007242
     8691.873100       0.007679
     8699.434500       0.008131
     8707.009100       0.008598
     8714.596900       0.009081
     8722.198000       0.009579
     8729.812300       0.010094
     8737.439900       0.010624
     8745.080900       0.011171
     8752.735200       0.011734
     8760.403000       0.012314
     8768.084200       0.012910
     8775.778900       0.013522
     8783.487000       0.014152
     8791.208800       0.014798
     8798.944100       0.015462
     8806.693100       0.016142
     8814.455700       0.016840
     8822.232000       0.017555
     8830.022100       0.018288
     8837.825900       0.019038
     8845.643500       0.019807
     8853.475000       0.020592
     8861.320300       0.021396
     8869.179600       0.022218
     8877.052800       0.023059
     8884.940000       0.023917
     8892.841300       0.024794
     8900.756600       0.025689
     8908.686000       0.026603
     8916.629500       0.027536
     8924.587200       0.028487
     8932.559200       0.029457
     8940.545400       0.030447
     8948.545900       0.031455
     8956.560700       0.032483
     8964.589900       0.033530
     8972.633500       0.034596
     8980.691500       0.035682
     8988.764000       0.036788
     8996.851100       0.037913
     9004.952700       0.039058
     9013.068900       0.040223
     9021.199800       0.041408
     9029.345400       0.042613
     9037.505600       0.043839
     9045.680700       0.045084
     9053.870500       0.046351
     9062.075200       0.047637
     9070.294800       0.048945
     9078.529300       0.050272
     9086.778700       0.051621
     9095.043200       0.052991
     9103.322700       0.054381
     9111.617300       0.055793
     9119.927000       0.057226
     9128.251900       0.058680
     9136.592100       0.060156
     9144.947400       0.061652
     9153.318100       0.063171
     9161.704100       0.064711
     9170.105500       0.066273
     9178.522300       0.067857
     9186.954500       0.069462
     9195.402300       0.071090
     9203.865600       0.072739
     9212.344500       0.074411
     9220.839100       0.076105
     9229.349300       0.077821
     9237.875300       0.079560
     9246.417000       0.081320
     9254.974500       0.083104
     9263.547900       0.084910
     9272.137200       0.086739
     9280.742500       0.088591
     9289.363700       0.090465
     9298.000900       0.092362
     9306.654300       0.094283
     9315.323700       0.096226
     9324.009300       0.098192
     9332.711200       0.100181
     9341.429200       0.102194
     9350.163600       0.104230
     9358.914400       0.106289
     9367.681500       0.108372
     9376.465100       0.110478
     9385.265100       0.112607
     9394.081700       0.114760
     9402.914900       0.116936
     9411.764700       0.119137
     9420.631200       0.121360
     9429.514400       0.123608
     9438.414300       0.125879
     9447.331100       0.128174
     9456.264800       0.130492
     9465.215300       0.132835
     9474.182900       0.135201
     9483.167400       0.137591
     9492.169000       0.140004
     9501.187600       0.142442
     9510.223500       0.144904
     9519.276500       0.147389
     9528.346800       0.149899
     9537.434400       0.152432
     9546.539400       0.154989
     9555.661700       0.157570
     9564.801500       0.160175
     9573.958800       0.162803
     9583.133700       0.165456
     9592.326100       0.168132
     9601.536200       0.170832
     9610.764100       0.173556
     9620.009600       0.176304
     9629.273000       0.179076
     9638.554200       0.181871
     9647.853400       0.184689
     9657.170400       0.187532
     9666.505600       0.190398
     9675.858700       0.193287
     9685.230000       0.196200
     9694.619500       0.199136
     9704.027200       0.202096
     9713.453100       0.205079
     9722.897400       0.208085
     9732.360100       0.211114
     9741.841200       0.214166
     9751.340800       0.217241
     9760.859000       0.220339
     9770.395700       0.223460
     9779.951100       0.226603
     9789.525200       0.229770
     9799.118100       0.232958
     9808.729800       0.236169
     9818.360300       0.239402
     9828.009800       0.242658
     9837.678300       0.245935
     9847.365800       0.249235
     9857.072400       0.252556
     9866.798200       0.255899
     9876.543200       0.259263
     9886.307500       0.262649
     9896.091000       0.266056
     9905.894000       0.269483
     9915.716400       0.272932
     9925.558300       0.276402
     9935.419800       0.279892
     9945.300800       0.283403
     9955.201600       0.286934
     9965.122100       0.290486
     9975.062300       0.294056
     9985.022500       0.297647
     9995.002500       0.301258
    10005.002500       0.304888
    10015.022500       0.308537
    10025.062700       0.312204
    10035.122900       0.315891
    10045.203400       0.319596
    10055.304200       0.323320
    10065.425300       0.327061
    10075.566800       0.330821
    10085.728700       0.334598
    10095.911200       0.338393
    10106.114200       0.342205
    10116.337900       0.346034
    10126.582300       0.349879
    10136.847400       0.353741
    10147.133400       0.357620
    10157.440300       0.361514
    10167.768200       0.365424
    10178.117000       0.369349
    10188.487000       0.373290
    10198.878100       0.377246
    10209.290500       0.381216
    10219.724100       0.385200
    10230.179000       0.389199
    10240.655400       0.393212
    10251.153300       0.397238
    10261.672700       0.401277
    10272.213700       0.405329
    10282.776300       0.409394
    10293.360800       0.413471
    10303.967000       0.417560
    10314.595200       0.421661
    10325.245200       0.425773
    10335.917300       0.429896
    10346.611500       0.434030
    10357.327800       0.438175
    10368.066400       0.442329
    10378.827200       0.446494
    10389.610400       0.450668
    10400.416000       0.454850
    10411.244100       0.459042
    10422.094800       0.463242
    10432.968200       0.467450
    10443.864200       0.471666
    10454.783100       0.475889
    10465.724800       0.480120
    10476.689400       0.484356
    10487.677000       0.488600
    10498.687700       0.492849
    10509.721500       0.497103
    10520.778500       0.501363
    10531.858900       0.505628
    10542.962600       0.509897
    10554.089700       0.514171
    10565.240400       0.518448
    10576.414600       0.522728
    10587.612500       0.527011
    10598.834100       0.531297
    10610.079600       0.535585
    10621.348900       0.539875
    10632.642200       0.544166
    10643.959600       0.548458
    10655.301000       0.552751
    10666.666700       0.557044
    10678.056600       0.561337
    10689.470900       0.565629
    10700.909600       0.569921
    10712.372800       0.574211
    10723.860600       0.578499
    10735.373100       0.582785
    10746.910300       0.587069
    10758.472300       0.591349
    10770.059200       0.595627
    10781.671200       0.599900
    10793.308100       0.604169
    10804.970300       0.608434
    10816.657700       0.612694
    10828.370300       0.616948
    10840.108400       0.621196
    10851.871900       0.625438
    10863.661100       0.629674
    10875.475800       0.633903
    10887.316300       0.638124
    10899.182600       0.642337
    10911.074700       0.646542
    10922.992900       0.650738
    10934.937100       0.654925
    10946.907500       0.659103
    10958.904100       0.663271
    10970.927000       0.667428
    10982.976400       0.671575
    10995.052200       0.675710
    11007.154700       0.679834
    11019.283700       0.683946
    11031.439600       0.688046
    11043.622300       0.692133
    11055.832000       0.696207
    11068.068600       0.700267
    11080.332400       0.704314
    11092.623400       0.708345
    11104.941700       0.712362
    11117.287400       0.716364
    11129.660500       0.720351
    11142.061300       0.724321
    11154.489700       0.728276
    11166.945800       0.732213
    11179.429800       0.736133
    11191.941800       0.740036
    11204.481800       0.743921
    11217.049900       0.747788
    11229.646300       0.751635
    11242.270900       0.755464
    11254.924000       0.759274
    11267.605600       0.763064
    11280.315800       0.766833
    11293.054800       0.770582
    11305.822500       0.774310
    11318.619100       0.778017
    11331.444800       0.781703
    11344.299500       0.785366
    11357.183400       0.789007
    11370.096600       0.792625
    11383.039300       0.796220
    11396.011400       0.799792
    11409.013100       0.803340
    11422.044500       0.806864
    11435.105800       0.810364
    11448.196900       0.813839
    11461.318100       0.817289
    11474.469300       0.820713
    11487.650800       0.824112
    11500.862600       0.827485
    11514.104800       0.830831
    11527.377500       0.834151
    11540.680900       0.837444
    11554.015000       0.840710
    11567.380000       0.843947
    11580.775900       0.847158
    11594.202900       0.850339
    11607.661100       0.853493
    11621.150500       0.856618
    11634.671300       0.859714
    11648.223600       0.862780
    11661.807600       0.865817
    11675.423200       0.868824
    11689.070700       0.871802
    11702.750100       0.874748
    11716.461600       0.877665
    11730.205300       0.880550
    11743.981200       0.883405
    11757.789500       0.886228
    11771.630400       0.889019
    11785.503800       0.891779
    11799.410000       0.894507
    11813.349100       0.897203
    11827.321100       0.899866
    11841.326200       0.902497
    11855.364600       0.905094
    11869.436200       0.907659
    11883.541300       0.910191
    11897.680000       0.912689
    11911.852300       0.915154
    11926.058400       0.917585
    11940.298500       0.919983
    11954.572600       0.922346
    11968.880900       0.924674
    11983.223500       0.926969
    11997.600500       0.929229
    12012.012000       0.931454
    12026.458200       0.933645
    12040.939200       0.935801
    12055.455100       0.937921
    12070.006000       0.940007
    12084.592100       0.942057
    12099.213600       0.944072
    12113.870400       0.946051
    12128.562800       0.947995
    12143.290800       0.949904
    12158.054700       0.951776
    12172.854500       0.953613
    12187.690400       0.955414
    12202.562500       0.957178
    12217.471000       0.958907
    12232.415900       0.960600
    12247.397400       0.962257
    12262.415700       0.963878
    12277.470800       0.965462
    12292.563000       0.967010
    12307.692300       0.968522
    12322.858900       0.969998
    12338.062900       0.971438
    12353.304500       0.972841
    12368.583800       0.974209
    12383.900900       0.975539
    12399.256000       0.976834
    12414.649300       0.978093
    12430.080800       0.979315
    12445.550700       0.980502
    12461.059200       0.981652
    12476.606400       0.982766
    12492.192400       0.983844
    12507.817400       0.984887
    12523.481500       0.985893
    12539.185000       0.986864
    12554.927800       0.987799
    12570.710200       0.988698
    12586.532400       0.989562
    12602.394500       0.990390
    12618.296500       0.991183
    12634.238800       0.991941
    12650.221400       0.992664
    12666.244500       0.993352
    12682.308200       0.994005
    12698.412700       0.994623
    12714.558200       0.995207
    12730.744700       0.995756
    12746.972600       0.996271
    12763.241900       0.996752
    12779.552700       0.997199
    12795.905300       0.997612
    12812.299800       0.997991
    12828.736400       0.998337
    12845.215200       0.998650
    12861.736300       0.998929
    12878.300100       0.999176
    12894.906500       0.999390
    12911.555800       0.999572
    12928.248200       0.999721
    12944.983800       0.999838
    12961.762800       0.999924
    12978.585300       0.999977
    12995.451600       1.000000
    13012.361700       0.999991
    13029.316000       0.999952
    13046.314400       0.999882
    13063.357300       0.999781
    13080.444700       0.999651
    13097.576900       0.999491
    13114.754100       0.999301
    13131.976400       0.999081
    13149.243900       0.998833
    13166.556900       0.998556
    13183.915600       0.998251
    13201.320100       0.997917
    13218.770700       0.997556
    13236.267400       0.997167
    13253.810500       0.996751
    13271.400100       0.996308
    13289.036500       0.995838
    13306.719900       0.995342
    13324.450400       0.994820
    13342.228200       0.994273
    13360.053400       0.993700
    13377.926400       0.993102
    13395.847300       0.992480
    13413.816200       0.991833
    13431.833400       0.991162
    13449.899100       0.990468
    13468.013500       0.989751
    13486.176700       0.989010
    13504.388900       0.988247
    13522.650400       0.987462
    13540.961400       0.986656
    13559.322000       0.985828
    13577.732500       0.984978
    13596.193100       0.984109
    13614.703900       0.983219
    13633.265200       0.982309
    13651.877100       0.981379
    13670.540000       0.980431
    13689.253900       0.979463
    13708.019200       0.978478
    13726.836000       0.977474
    13745.704500       0.976453
    13764.624900       0.975415
    13783.597500       0.974360
    13802.622500       0.973289
    13821.700100       0.972201
    13840.830400       0.971099
    13860.013900       0.969981
    13879.250500       0.968848
    13898.540700       0.967702
    13917.884500       0.966541
    13937.282200       0.965367
    13956.734100       0.964180
    13976.240400       0.962980
    13995.801300       0.961768
    14015.417000       0.960544
    14035.087700       0.959309
    14054.813800       0.958063
    14074.595400       0.956806
    14094.432700       0.955539
    14114.326000       0.954263
    14134.275600       0.952977
    14154.281700       0.951682
    14174.344400       0.950379
    14194.464200       0.949068
    14214.641100       0.947750
    14234.875400       0.946424
    14255.167500       0.945091
    14275.517500       0.943752
    14295.925700       0.942408
    14316.392300       0.941057
    14336.917600       0.939702
    14357.501800       0.938342
    14378.145200       0.936977
    14398.848100       0.935609
    14419.610700       0.934237
    14440.433200       0.932863
    14461.316000       0.931485
    14482.259200       0.930106
    14503.263200       0.928724
    14524.328200       0.927341
    14545.454500       0.925958
    14566.642400       0.924573
    14587.892000       0.923188
    14609.203800       0.921804
    14630.577900       0.920420
    14652.014700       0.919037
    14673.514300       0.917655
    14695.077100       0.916275
    14716.703500       0.914897
    14738.393500       0.913521
    14760.147600       0.912148
    14781.966000       0.910779
    14803.849000       0.909413
    14825.796900       0.908051
    14847.809900       0.906693
    14869.888500       0.905340
    14892.032800       0.903991
    14914.243100       0.902648
    14936.519800       0.901311
    14958.863100       0.899979
    14981.273400       0.898654
    15003.750900       0.897336
    15026.296000       0.896024
    15048.909000       0.894720
    15071.590100       0.893423
    15094.339600       0.892135
    15117.158000       0.890854
    15140.045400       0.889582
    15163.002300       0.888318
    15186.028900       0.887064
    15209.125500       0.885819
    15232.292500       0.884584
    15255.530100       0.883358
    15278.838800       0.882143
    15302.218800       0.880938
    15325.670500       0.879743
    15349.194200       0.878560
    15372.790200       0.877387
    15396.458800       0.876226
    15420.200500       0.875077
    15444.015400       0.873939
    15467.904100       0.872813
    15491.866800       0.871700
    15515.903800       0.870599
    15540.015500       0.869510
    15564.202300       0.868434
    15588.464500       0.867372
    15612.802500       0.866322
    15637.216600       0.865285
    15661.707100       0.864262
    15686.274500       0.863253
    15710.919100       0.862257
    15735.641200       0.861275
    15760.441300       0.860307
    15785.319700       0.859352
    15810.276700       0.858413
    15835.312700       0.857487
    15860.428200       0.856576
    15885.623500       0.855679
    15910.899000       0.854796
    15936.255000       0.853928
    15961.691900       0.853075
    15987.210200       0.852237
    16012.810200       0.851413
    16038.492400       0.850603
    16064.257000       0.849809
    16090.104600       0.849029
    16116.035500       0.848264
    16142.050000       0.847514
    16168.148700       0.846778
    16194.332000       0.846058
    16220.600200       0.845352
    16246.953700       0.844660
    16273.393000       0.843983
    16299.918500       0.843321
    16326.530600       0.842672
    16353.229800       0.842039
    16380.016400       0.841419
    16406.890900       0.840814
    16433.853700       0.840223
    16460.905300       0.839645
    16488.046200       0.839082
    16515.276600       0.838532
    16542.597200       0.837995
    16570.008300       0.837472
    16597.510400       0.836962
    16625.103900       0.836466
    16652.789300       0.835981
    16680.567100       0.835510
    16708.437800       0.835051
    16736.401700       0.834604
    16764.459300       0.834169
    16792.611300       0.833745
    16820.857900       0.833333
    16849.199700       0.832933
    16877.637100       0.832543
    16906.170800       0.832164
    16934.801000       0.831795
    16963.528400       0.831436
    16992.353400       0.831087
    17021.276600       0.830747
    17050.298400       0.830417
    17079.419300       0.830095
    17108.639900       0.829782
    17137.960600       0.829476
    17167.382000       0.829178
    17196.904600       0.828888
    17226.528900       0.828605
    17256.255400       0.828327
    17286.084700       0.828057
