88,   88, MVIRI VIS channel from srf_MET5_2002078_2002079_1801-Release_S10EL_10.dat
Number of data points:
806
Wavenumber (cm-1)   Filter response
     8350.730700       0.000000
     8357.710000       0.000000
     8364.701000       0.000000
     8371.703600       0.000002
     8378.718100       0.000004
     8385.744200       0.000009
     8392.782200       0.000017
     8399.832000       0.000027
     8406.893700       0.000042
     8413.967200       0.000061
     8421.052600       0.000084
     8428.150000       0.000113
     8435.259400       0.000147
     8442.380800       0.000188
     8449.514200       0.000235
     8456.659600       0.000289
     8463.817200       0.000351
     8470.986900       0.000420
     8478.168700       0.000497
     8485.362700       0.000583
     8492.569000       0.000678
     8499.787500       0.000782
     8507.018300       0.000895
     8514.261400       0.001019
     8521.516800       0.001152
     8528.784600       0.001296
     8536.064900       0.001450
     8543.357500       0.001616
     8550.662700       0.001792
     8557.980300       0.001981
     8565.310500       0.002180
     8572.653200       0.002392
     8580.008600       0.002617
     8587.376600       0.002853
     8594.757200       0.003102
     8602.150500       0.003365
     8609.556600       0.003640
     8616.975400       0.003928
     8624.407100       0.004230
     8631.851500       0.004546
     8639.308900       0.004875
     8646.779100       0.005219
     8654.262200       0.005577
     8661.758300       0.005949
     8669.267400       0.006335
     8676.789600       0.006737
     8684.324800       0.007153
     8691.873100       0.007584
     8699.434500       0.008031
     8707.009100       0.008492
     8714.596900       0.008969
     8722.198000       0.009462
     8729.812300       0.009971
     8737.439900       0.010495
     8745.080900       0.011035
     8752.735200       0.011591
     8760.403000       0.012164
     8768.084200       0.012753
     8775.778900       0.013359
     8783.487000       0.013981
     8791.208800       0.014620
     8798.944100       0.015276
     8806.693100       0.015948
     8814.455700       0.016638
     8822.232000       0.017345
     8830.022100       0.018070
     8837.825900       0.018812
     8845.643500       0.019571
     8853.475000       0.020348
     8861.320300       0.021143
     8869.179600       0.021956
     8877.052800       0.022787
     8884.940000       0.023635
     8892.841300       0.024502
     8900.756600       0.025388
     8908.686000       0.026291
     8916.629500       0.027214
     8924.587200       0.028155
     8932.559200       0.029114
     8940.545400       0.030093
     8948.545900       0.031090
     8956.560700       0.032107
     8964.589900       0.033142
     8972.633500       0.034197
     8980.691500       0.035272
     8988.764000       0.036365
     8996.851100       0.037479
     9004.952700       0.038611
     9013.068900       0.039764
     9021.199800       0.040937
     9029.345400       0.042129
     9037.505600       0.043341
     9045.680700       0.044574
     9053.870500       0.045827
     9062.075200       0.047100
     9070.294800       0.048394
     9078.529300       0.049708
     9086.778700       0.051043
     9095.043200       0.052399
     9103.322700       0.053775
     9111.617300       0.055172
     9119.927000       0.056591
     9128.251900       0.058030
     9136.592100       0.059491
     9144.947400       0.060973
     9153.318100       0.062476
     9161.704100       0.064001
     9170.105500       0.065547
     9178.522300       0.067115
     9186.954500       0.068705
     9195.402300       0.070316
     9203.865600       0.071949
     9212.344500       0.073605
     9220.839100       0.075282
     9229.349300       0.076982
     9237.875300       0.078703
     9246.417000       0.080447
     9254.974500       0.082214
     9263.547900       0.084003
     9272.137200       0.085814
     9280.742500       0.087648
     9289.363700       0.089505
     9298.000900       0.091384
     9306.654300       0.093287
     9315.323700       0.095212
     9324.009300       0.097160
     9332.711200       0.099131
     9341.429200       0.101125
     9350.163600       0.103143
     9358.914400       0.105183
     9367.681500       0.107247
     9376.465100       0.109334
     9385.265100       0.111444
     9394.081700       0.113577
     9402.914900       0.115734
     9411.764700       0.117915
     9420.631200       0.120119
     9429.514400       0.122347
     9438.414300       0.124598
     9447.331100       0.126872
     9456.264800       0.129171
     9465.215300       0.131493
     9474.182900       0.133839
     9483.167400       0.136208
     9492.169000       0.138601
     9501.187600       0.141019
     9510.223500       0.143459
     9519.276500       0.145924
     9528.346800       0.148412
     9537.434400       0.150925
     9546.539400       0.153460
     9555.661700       0.156020
     9564.801500       0.158603
     9573.958800       0.161211
     9583.133700       0.163842
     9592.326100       0.166496
     9601.536200       0.169175
     9610.764100       0.171877
     9620.009600       0.174603
     9629.273000       0.177353
     9638.554200       0.180126
     9647.853400       0.182922
     9657.170400       0.185742
     9666.505600       0.188586
     9675.858700       0.191454
     9685.230000       0.194344
     9694.619500       0.197258
     9704.027200       0.200195
     9713.453100       0.203156
     9722.897400       0.206139
     9732.360100       0.209146
     9741.841200       0.212176
     9751.340800       0.215228
     9760.859000       0.218303
     9770.395700       0.221402
     9779.951100       0.224522
     9789.525200       0.227666
     9799.118100       0.230832
     9808.729800       0.234020
     9818.360300       0.237231
     9828.009800       0.240463
     9837.678300       0.243718
     9847.365800       0.246995
     9857.072400       0.250293
     9866.798200       0.253613
     9876.543200       0.256955
     9886.307500       0.260318
     9896.091000       0.263702
     9905.894000       0.267108
     9915.716400       0.270534
     9925.558300       0.273981
     9935.419800       0.277449
     9945.300800       0.280937
     9955.201600       0.284446
     9965.122100       0.287975
     9975.062300       0.291523
     9985.022500       0.295092
     9995.002500       0.298680
    10005.002500       0.302288
    10015.022500       0.305914
    10025.062700       0.309560
    10035.122900       0.313225
    10045.203400       0.316908
    10055.304200       0.320610
    10065.425300       0.324330
    10075.566800       0.328068
    10085.728700       0.331823
    10095.911200       0.335597
    10106.114200       0.339387
    10116.337900       0.343195
    10126.582300       0.347019
    10136.847400       0.350860
    10147.133400       0.354718
    10157.440300       0.358591
    10167.768200       0.362481
    10178.117000       0.366386
    10188.487000       0.370306
    10198.878100       0.374241
    10209.290500       0.378192
    10219.724100       0.382156
    10230.179000       0.386135
    10240.655400       0.390128
    10251.153300       0.394135
    10261.672700       0.398155
    10272.213700       0.402188
    10282.776300       0.406233
    10293.360800       0.410292
    10303.967000       0.414362
    10314.595200       0.418445
    10325.245200       0.422539
    10335.917300       0.426644
    10346.611500       0.430760
    10357.327800       0.434887
    10368.066400       0.439024
    10378.827200       0.443172
    10389.610400       0.447329
    10400.416000       0.451495
    10411.244100       0.455670
    10422.094800       0.459854
    10432.968200       0.464046
    10443.864200       0.468246
    10454.783100       0.472454
    10465.724800       0.476668
    10476.689400       0.480890
    10487.677000       0.485119
    10498.687700       0.489353
    10509.721500       0.493594
    10520.778500       0.497840
    10531.858900       0.502091
    10542.962600       0.506346
    10554.089700       0.510606
    10565.240400       0.514871
    10576.414600       0.519138
    10587.612500       0.523409
    10598.834100       0.527683
    10610.079600       0.531959
    10621.348900       0.536238
    10632.642200       0.540518
    10643.959600       0.544799
    10655.301000       0.549082
    10666.666700       0.553365
    10678.056600       0.557648
    10689.470900       0.561930
    10700.909600       0.566213
    10712.372800       0.570494
    10723.860600       0.574773
    10735.373100       0.579051
    10746.910300       0.583327
    10758.472300       0.587600
    10770.059200       0.591870
    10781.671200       0.596137
    10793.308100       0.600399
    10804.970300       0.604658
    10816.657700       0.608912
    10828.370300       0.613161
    10840.108400       0.617404
    10851.871900       0.621642
    10863.661100       0.625873
    10875.475800       0.630098
    10887.316300       0.634315
    10899.182600       0.638525
    10911.074700       0.642728
    10922.992900       0.646921
    10934.937100       0.651106
    10946.907500       0.655282
    10958.904100       0.659449
    10970.927000       0.663606
    10982.976400       0.667752
    10995.052200       0.671887
    11007.154700       0.676012
    11019.283700       0.680124
    11031.439600       0.684226
    11043.622300       0.688314
    11055.832000       0.692390
    11068.068600       0.696452
    11080.332400       0.700502
    11092.623400       0.704537
    11104.941700       0.708557
    11117.287400       0.712563
    11129.660500       0.716554
    11142.061300       0.720530
    11154.489700       0.724489
    11166.945800       0.728432
    11179.429800       0.732358
    11191.941800       0.736268
    11204.481800       0.740160
    11217.049900       0.744034
    11229.646300       0.747889
    11242.270900       0.751727
    11254.924000       0.755545
    11267.605600       0.759344
    11280.315800       0.763123
    11293.054800       0.766882
    11305.822500       0.770620
    11318.619100       0.774338
    11331.444800       0.778034
    11344.299500       0.781709
    11357.183400       0.785362
    11370.096600       0.788993
    11383.039300       0.792601
    11396.011400       0.796187
    11409.013100       0.799749
    11422.044500       0.803287
    11435.105800       0.806801
    11448.196900       0.810291
    11461.318100       0.813757
    11474.469300       0.817197
    11487.650800       0.820612
    11500.862600       0.824002
    11514.104800       0.827366
    11527.377500       0.830703
    11540.680900       0.834014
    11554.015000       0.837298
    11567.380000       0.840555
    11580.775900       0.843784
    11594.202900       0.846986
    11607.661100       0.850160
    11621.150500       0.853305
    11634.671300       0.856422
    11648.223600       0.859510
    11661.807600       0.862569
    11675.423200       0.865598
    11689.070700       0.868598
    11702.750100       0.871568
    11716.461600       0.874508
    11730.205300       0.877417
    11743.981200       0.880296
    11757.789500       0.883144
    11771.630400       0.885960
    11785.503800       0.888746
    11799.410000       0.891499
    11813.349100       0.894221
    11827.321100       0.896911
    11841.326200       0.899569
    11855.364600       0.902194
    11869.436200       0.904787
    11883.541300       0.907347
    11897.680000       0.909874
    11911.852300       0.912368
    11926.058400       0.914828
    11940.298500       0.917255
    11954.572600       0.919648
    11968.880900       0.922007
    11983.223500       0.924333
    11997.600500       0.926624
    12012.012000       0.928881
    12026.458200       0.931103
    12040.939200       0.933291
    12055.455100       0.935444
    12070.006000       0.937563
    12084.592100       0.939646
    12099.213600       0.941694
    12113.870400       0.943708
    12128.562800       0.945686
    12143.290800       0.947628
    12158.054700       0.949536
    12172.854500       0.951407
    12187.690400       0.953244
    12202.562500       0.955044
    12217.471000       0.956809
    12232.415900       0.958539
    12247.397400       0.960232
    12262.415700       0.961890
    12277.470800       0.963511
    12292.563000       0.965097
    12307.692300       0.966647
    12322.858900       0.968161
    12338.062900       0.969639
    12353.304500       0.971081
    12368.583800       0.972487
    12383.900900       0.973857
    12399.256000       0.975191
    12414.649300       0.976489
    12430.080800       0.977752
    12445.550700       0.978978
    12461.059200       0.980169
    12476.606400       0.981324
    12492.192400       0.982443
    12507.817400       0.983526
    12523.481500       0.984574
    12539.185000       0.985586
    12554.927800       0.986563
    12570.710200       0.987504
    12586.532400       0.988410
    12602.394500       0.989281
    12618.296500       0.990117
    12634.238800       0.990917
    12650.221400       0.991683
    12666.244500       0.992414
    12682.308200       0.993110
    12698.412700       0.993772
    12714.558200       0.994399
    12730.744700       0.994992
    12746.972600       0.995551
    12763.241900       0.996076
    12779.552700       0.996567
    12795.905300       0.997025
    12812.299800       0.997448
    12828.736400       0.997839
    12845.215200       0.998197
    12861.736300       0.998521
    12878.300100       0.998813
    12894.906500       0.999072
    12911.555800       0.999299
    12928.248200       0.999494
    12944.983800       0.999657
    12961.762800       0.999788
    12978.585300       0.999888
    12995.451600       0.999956
    13012.361700       0.999993
    13029.316000       1.000000
    13046.314400       0.999976
    13063.357300       0.999922
    13080.444700       0.999838
    13097.576900       0.999724
    13114.754100       0.999580
    13131.976400       0.999407
    13149.243900       0.999206
    13166.556900       0.998975
    13183.915600       0.998717
    13201.320100       0.998430
    13218.770700       0.998115
    13236.267400       0.997773
    13253.810500       0.997404
    13271.400100       0.997008
    13289.036500       0.996585
    13306.719900       0.996136
    13324.450400       0.995661
    13342.228200       0.995160
    13360.053400       0.994635
    13377.926400       0.994084
    13395.847300       0.993508
    13413.816200       0.992909
    13431.833400       0.992285
    13449.899100       0.991638
    13468.013500       0.990968
    13486.176700       0.990274
    13504.388900       0.989558
    13522.650400       0.988821
    13540.961400       0.988061
    13559.322000       0.987280
    13577.732500       0.986478
    13596.193100       0.985655
    13614.703900       0.984812
    13633.265200       0.983949
    13651.877100       0.983066
    13670.540000       0.982164
    13689.253900       0.981244
    13708.019200       0.980305
    13726.836000       0.979348
    13745.704500       0.978374
    13764.624900       0.977382
    13783.597500       0.976374
    13802.622500       0.975349
    13821.700100       0.974309
    13840.830400       0.973253
    13860.013900       0.972181
    13879.250500       0.971095
    13898.540700       0.969995
    13917.884500       0.968880
    13937.282200       0.967752
    13956.734100       0.966612
    13976.240400       0.965458
    13995.801300       0.964292
    14015.417000       0.963114
    14035.087700       0.961925
    14054.813800       0.960725
    14074.595400       0.959514
    14094.432700       0.958293
    14114.326000       0.957062
    14134.275600       0.955822
    14154.281700       0.954573
    14174.344400       0.953316
    14194.464200       0.952050
    14214.641100       0.950777
    14234.875400       0.949496
    14255.167500       0.948209
    14275.517500       0.946916
    14295.925700       0.945616
    14316.392300       0.944311
    14336.917600       0.943000
    14357.501800       0.941685
    14378.145200       0.940366
    14398.848100       0.939042
    14419.610700       0.937715
    14440.433200       0.936385
    14461.316000       0.935053
    14482.259200       0.933718
    14503.263200       0.932381
    14524.328200       0.931043
    14545.454500       0.929703
    14566.642400       0.928363
    14587.892000       0.927023
    14609.203800       0.925683
    14630.577900       0.924343
    14652.014700       0.923004
    14673.514300       0.921666
    14695.077100       0.920330
    14716.703500       0.918997
    14738.393500       0.917665
    14760.147600       0.916336
    14781.966000       0.915011
    14803.849000       0.913689
    14825.796900       0.912370
    14847.809900       0.911056
    14869.888500       0.909747
    14892.032800       0.908443
    14914.243100       0.907143
    14936.519800       0.905850
    14958.863100       0.904562
    14981.273400       0.903281
    15003.750900       0.902006
    15026.296000       0.900738
    15048.909000       0.899478
    15071.590100       0.898225
    15094.339600       0.896980
    15117.158000       0.895743
    15140.045400       0.894514
    15163.002300       0.893295
    15186.028900       0.892084
    15209.125500       0.890883
    15232.292500       0.889691
    15255.530100       0.888509
    15278.838800       0.887338
    15302.218800       0.886176
    15325.670500       0.885026
    15349.194200       0.883886
    15372.790200       0.882758
    15396.458800       0.881641
    15420.200500       0.880535
    15444.015400       0.879441
    15467.904100       0.878360
    15491.866800       0.877290
    15515.903800       0.876233
    15540.015500       0.875189
    15564.202300       0.874157
    15588.464500       0.873139
    15612.802500       0.872133
    15637.216600       0.871141
    15661.707100       0.870163
    15686.274500       0.869198
    15710.919100       0.868247
    15735.641200       0.867309
    15760.441300       0.866386
    15785.319700       0.865477
    15810.276700       0.864582
    15835.312700       0.863702
    15860.428200       0.862835
    15885.623500       0.861984
    15910.899000       0.861147
    15936.255000       0.860325
    15961.691900       0.859517
    15987.210200       0.858724
    16012.810200       0.857946
    16038.492400       0.857183
    16064.257000       0.856434
    16090.104600       0.855701
    16116.035500       0.854982
    16142.050000       0.854279
    16168.148700       0.853590
    16194.332000       0.852916
    16220.600200       0.852256
    16246.953700       0.851612
    16273.393000       0.850982
    16299.918500       0.850367
    16326.530600       0.849766
    16353.229800       0.849180
    16380.016400       0.848608
    16406.890900       0.848051
    16433.853700       0.847508
    16460.905300       0.846978
    16488.046200       0.846463
    16515.276600       0.845962
    16542.597200       0.845474
    16570.008300       0.845000
    16597.510400       0.844539
    16625.103900       0.844091
    16652.789300       0.843656
    16680.567100       0.843234
    16708.437800       0.842825
    16736.401700       0.842427
    16764.459300       0.842042
    16792.611300       0.841669
    16820.857900       0.841307
    16849.199700       0.840957
    16877.637100       0.840618
    16906.170800       0.840289
    16934.801000       0.839971
    16963.528400       0.839664
    16992.353400       0.839366
    17021.276600       0.839078
    17050.298400       0.838799
    17079.419300       0.838529
    17108.639900       0.838267
    17137.960600       0.838014
    17167.382000       0.837768
    17196.904600       0.837530
    17226.528900       0.837299
    17256.255400       0.837075
    17286.084700       0.836856
