67,   67, MVIRI VIS channel from srf_MET5_1999213_1999214_1801-Release_S10EL_10.dat
Number of data points:
806
Wavenumber (cm-1)   Filter response
     8350.730700       0.000000
     8357.710000       0.000000
     8364.701000       0.000000
     8371.703600       0.000002
     8378.718100       0.000004
     8385.744200       0.000009
     8392.782200       0.000016
     8399.832000       0.000027
     8406.893700       0.000041
     8413.967200       0.000060
     8421.052600       0.000083
     8428.150000       0.000111
     8435.259400       0.000145
     8442.380800       0.000185
     8449.514200       0.000232
     8456.659600       0.000285
     8463.817200       0.000346
     8470.986900       0.000414
     8478.168700       0.000491
     8485.362700       0.000576
     8492.569000       0.000669
     8499.787500       0.000772
     8507.018300       0.000884
     8514.261400       0.001005
     8521.516800       0.001137
     8528.784600       0.001279
     8536.064900       0.001431
     8543.357500       0.001595
     8550.662700       0.001769
     8557.980300       0.001955
     8565.310500       0.002152
     8572.653200       0.002362
     8580.008600       0.002583
     8587.376600       0.002817
     8594.757200       0.003063
     8602.150500       0.003322
     8609.556600       0.003593
     8616.975400       0.003878
     8624.407100       0.004177
     8631.851500       0.004488
     8639.308900       0.004814
     8646.779100       0.005153
     8654.262200       0.005506
     8661.758300       0.005874
     8669.267400       0.006256
     8676.789600       0.006652
     8684.324800       0.007064
     8691.873100       0.007490
     8699.434500       0.007931
     8707.009100       0.008387
     8714.596900       0.008858
     8722.198000       0.009345
     8729.812300       0.009847
     8737.439900       0.010365
     8745.080900       0.010899
     8752.735200       0.011449
     8760.403000       0.012015
     8768.084200       0.012597
     8775.778900       0.013195
     8783.487000       0.013810
     8791.208800       0.014441
     8798.944100       0.015090
     8806.693100       0.015755
     8814.455700       0.016436
     8822.232000       0.017135
     8830.022100       0.017851
     8837.825900       0.018585
     8845.643500       0.019335
     8853.475000       0.020104
     8861.320300       0.020889
     8869.179600       0.021693
     8877.052800       0.022514
     8884.940000       0.023353
     8892.841300       0.024211
     8900.756600       0.025086
     8908.686000       0.025980
     8916.629500       0.026892
     8924.587200       0.027822
     8932.559200       0.028771
     8940.545400       0.029739
     8948.545900       0.030725
     8956.560700       0.031731
     8964.589900       0.032755
     8972.633500       0.033798
     8980.691500       0.034861
     8988.764000       0.035943
     8996.851100       0.037044
     9004.952700       0.038165
     9013.068900       0.039305
     9021.199800       0.040465
     9029.345400       0.041645
     9037.505600       0.042844
     9045.680700       0.044064
     9053.870500       0.045303
     9062.075200       0.046563
     9070.294800       0.047843
     9078.529300       0.049143
     9086.778700       0.050464
     9095.043200       0.051806
     9103.322700       0.053168
     9111.617300       0.054551
     9119.927000       0.055954
     9128.251900       0.057379
     9136.592100       0.058825
     9144.947400       0.060292
     9153.318100       0.061780
     9161.704100       0.063289
     9170.105500       0.064820
     9178.522300       0.066372
     9186.954500       0.067946
     9195.402300       0.069541
     9203.865600       0.071158
     9212.344500       0.072797
     9220.839100       0.074458
     9229.349300       0.076141
     9237.875300       0.077846
     9246.417000       0.079573
     9254.974500       0.081322
     9263.547900       0.083094
     9272.137200       0.084888
     9280.742500       0.086704
     9289.363700       0.088543
     9298.000900       0.090405
     9306.654300       0.092289
     9315.323700       0.094196
     9324.009300       0.096126
     9332.711200       0.098078
     9341.429200       0.100054
     9350.163600       0.102052
     9358.914400       0.104074
     9367.681500       0.106119
     9376.465100       0.108186
     9385.265100       0.110277
     9394.081700       0.112392
     9402.914900       0.114529
     9411.764700       0.116690
     9420.631200       0.118874
     9429.514400       0.121082
     9438.414300       0.123313
     9447.331100       0.125568
     9456.264800       0.127846
     9465.215300       0.130148
     9474.182900       0.132473
     9483.167400       0.134822
     9492.169000       0.137194
     9501.187600       0.139591
     9510.223500       0.142010
     9519.276500       0.144454
     9528.346800       0.146921
     9537.434400       0.149412
     9546.539400       0.151927
     9555.661700       0.154465
     9564.801500       0.157027
     9573.958800       0.159612
     9583.133700       0.162222
     9592.326100       0.164855
     9601.536200       0.167511
     9610.764100       0.170192
     9620.009600       0.172895
     9629.273000       0.175623
     9638.554200       0.178374
     9647.853400       0.181148
     9657.170400       0.183946
     9666.505600       0.186768
     9675.858700       0.189613
     9685.230000       0.192481
     9694.619500       0.195372
     9704.027200       0.198287
     9713.453100       0.201224
     9722.897400       0.204186
     9732.360100       0.207169
     9741.841200       0.210176
     9751.340800       0.213206
     9760.859000       0.216259
     9770.395700       0.219334
     9779.951100       0.222432
     9789.525200       0.225553
     9799.118100       0.228696
     9808.729800       0.231861
     9818.360300       0.235049
     9828.009800       0.238258
     9837.678300       0.241490
     9847.365800       0.244744
     9857.072400       0.248019
     9866.798200       0.251317
     9876.543200       0.254635
     9886.307500       0.257975
     9896.091000       0.261337
     9905.894000       0.264719
     9915.716400       0.268123
     9925.558300       0.271547
     9935.419800       0.274992
     9945.300800       0.278458
     9955.201600       0.281943
     9965.122100       0.285450
     9975.062300       0.288976
     9985.022500       0.292522
     9995.002500       0.296087
    10005.002500       0.299673
    10015.022500       0.303277
    10025.062700       0.306900
    10035.122900       0.310543
    10045.203400       0.314204
    10055.304200       0.317884
    10065.425300       0.321581
    10075.566800       0.325297
    10085.728700       0.329031
    10095.911200       0.332783
    10106.114200       0.336552
    10116.337900       0.340338
    10126.582300       0.344141
    10136.847400       0.347960
    10147.133400       0.351797
    10157.440300       0.355649
    10167.768200       0.359518
    10178.117000       0.363402
    10188.487000       0.367301
    10198.878100       0.371216
    10209.290500       0.375146
    10219.724100       0.379090
    10230.179000       0.383049
    10240.655400       0.387022
    10251.153300       0.391009
    10261.672700       0.395009
    10272.213700       0.399023
    10282.776300       0.403049
    10293.360800       0.407089
    10303.967000       0.411140
    10314.595200       0.415204
    10325.245200       0.419279
    10335.917300       0.423367
    10346.611500       0.427465
    10357.327800       0.431573
    10368.066400       0.435693
    10378.827200       0.439822
    10389.610400       0.443962
    10400.416000       0.448111
    10411.244100       0.452269
    10422.094800       0.456437
    10432.968200       0.460612
    10443.864200       0.464796
    10454.783100       0.468988
    10465.724800       0.473187
    10476.689400       0.477393
    10487.677000       0.481607
    10498.687700       0.485827
    10509.721500       0.490052
    10520.778500       0.494284
    10531.858900       0.498520
    10542.962600       0.502763
    10554.089700       0.507009
    10565.240400       0.511260
    10576.414600       0.515514
    10587.612500       0.519773
    10598.834100       0.524034
    10610.079600       0.528298
    10621.348900       0.532565
    10632.642200       0.536833
    10643.959600       0.541104
    10655.301000       0.545375
    10666.666700       0.549647
    10678.056600       0.553920
    10689.470900       0.558193
    10700.909600       0.562466
    10712.372800       0.566737
    10723.860600       0.571008
    10735.373100       0.575277
    10746.910300       0.579545
    10758.472300       0.583810
    10770.059200       0.588072
    10781.671200       0.592332
    10793.308100       0.596588
    10804.970300       0.600840
    10816.657700       0.605087
    10828.370300       0.609330
    10840.108400       0.613568
    10851.871900       0.617801
    10863.661100       0.622028
    10875.475800       0.626248
    10887.316300       0.630461
    10899.182600       0.634668
    10911.074700       0.638867
    10922.992900       0.643058
    10934.937100       0.647240
    10946.907500       0.651414
    10958.904100       0.655579
    10970.927000       0.659735
    10982.976400       0.663880
    10995.052200       0.668015
    11007.154700       0.672139
    11019.283700       0.676252
    11031.439600       0.680354
    11043.622300       0.684444
    11055.832000       0.688521
    11068.068600       0.692585
    11080.332400       0.696637
    11092.623400       0.700675
    11104.941700       0.704699
    11117.287400       0.708708
    11129.660500       0.712703
    11142.061300       0.716683
    11154.489700       0.720647
    11166.945800       0.724596
    11179.429800       0.728528
    11191.941800       0.732444
    11204.481800       0.736342
    11217.049900       0.740223
    11229.646300       0.744086
    11242.270900       0.747931
    11254.924000       0.751758
    11267.605600       0.755565
    11280.315800       0.759353
    11293.054800       0.763122
    11305.822500       0.766870
    11318.619100       0.770598
    11331.444800       0.774306
    11344.299500       0.777992
    11357.183400       0.781657
    11370.096600       0.785300
    11383.039300       0.788921
    11396.011400       0.792519
    11409.013100       0.796094
    11422.044500       0.799646
    11435.105800       0.803175
    11448.196900       0.806680
    11461.318100       0.810160
    11474.469300       0.813617
    11487.650800       0.817048
    11500.862600       0.820454
    11514.104800       0.823834
    11527.377500       0.827189
    11540.680900       0.830518
    11554.015000       0.833820
    11567.380000       0.837096
    11580.775900       0.840344
    11594.202900       0.843565
    11607.661100       0.846759
    11621.150500       0.849925
    11634.671300       0.853062
    11648.223600       0.856171
    11661.807600       0.859252
    11675.423200       0.862303
    11689.070700       0.865325
    11702.750100       0.868318
    11716.461600       0.871281
    11730.205300       0.874214
    11743.981200       0.877117
    11757.789500       0.879989
    11771.630400       0.882830
    11785.503800       0.885641
    11799.410000       0.888420
    11813.349100       0.891168
    11827.321100       0.893885
    11841.326200       0.896569
    11855.364600       0.899222
    11869.436200       0.901842
    11883.541300       0.904430
    11897.680000       0.906985
    11911.852300       0.909508
    11926.058400       0.911997
    11940.298500       0.914454
    11954.572600       0.916877
    11968.880900       0.919266
    11983.223500       0.921622
    11997.600500       0.923944
    12012.012000       0.926232
    12026.458200       0.928486
    12040.939200       0.930706
    12055.455100       0.932892
    12070.006000       0.935043
    12084.592100       0.937159
    12099.213600       0.939241
    12113.870400       0.941288
    12128.562800       0.943300
    12143.290800       0.945277
    12158.054700       0.947219
    12172.854500       0.949126
    12187.690400       0.950998
    12202.562500       0.952834
    12217.471000       0.954635
    12232.415900       0.956401
    12247.397400       0.958131
    12262.415700       0.959825
    12277.470800       0.961484
    12292.563000       0.963107
    12307.692300       0.964695
    12322.858900       0.966247
    12338.062900       0.967763
    12353.304500       0.969244
    12368.583800       0.970689
    12383.900900       0.972098
    12399.256000       0.973472
    12414.649300       0.974810
    12430.080800       0.976112
    12445.550700       0.977378
    12461.059200       0.978609
    12476.606400       0.979805
    12492.192400       0.980965
    12507.817400       0.982090
    12523.481500       0.983179
    12539.185000       0.984232
    12554.927800       0.985251
    12570.710200       0.986234
    12586.532400       0.987183
    12602.394500       0.988096
    12618.296500       0.988974
    12634.238800       0.989818
    12650.221400       0.990627
    12666.244500       0.991401
    12682.308200       0.992140
    12698.412700       0.992846
    12714.558200       0.993517
    12730.744700       0.994154
    12746.972600       0.994757
    12763.241900       0.995326
    12779.552700       0.995861
    12795.905300       0.996364
    12812.299800       0.996832
    12828.736400       0.997268
    12845.215200       0.997670
    12861.736300       0.998040
    12878.300100       0.998377
    12894.906500       0.998682
    12911.555800       0.998954
    12928.248200       0.999195
    12944.983800       0.999404
    12961.762800       0.999581
    12978.585300       0.999726
    12995.451600       0.999841
    13012.361700       0.999925
    13029.316000       0.999977
    13046.314400       1.000000
    13063.357300       0.999992
    13080.444700       0.999955
    13097.576900       0.999887
    13114.754100       0.999791
    13131.976400       0.999665
    13149.243900       0.999510
    13166.556900       0.999327
    13183.915600       0.999115
    13201.320100       0.998875
    13218.770700       0.998608
    13236.267400       0.998313
    13253.810500       0.997991
    13271.400100       0.997642
    13289.036500       0.997266
    13306.719900       0.996865
    13324.450400       0.996437
    13342.228200       0.995984
    13360.053400       0.995506
    13377.926400       0.995002
    13395.847300       0.994474
    13413.816200       0.993922
    13431.833400       0.993346
    13449.899100       0.992746
    13468.013500       0.992123
    13486.176700       0.991478
    13504.388900       0.990809
    13522.650400       0.990119
    13540.961400       0.989407
    13559.322000       0.988673
    13577.732500       0.987918
    13596.193100       0.987143
    13614.703900       0.986347
    13633.265200       0.985532
    13651.877100       0.984697
    13670.540000       0.983842
    13689.253900       0.982969
    13708.019200       0.982078
    13726.836000       0.981168
    13745.704500       0.980241
    13764.624900       0.979297
    13783.597500       0.978336
    13802.622500       0.977358
    13821.700100       0.976365
    13840.830400       0.975356
    13860.013900       0.974331
    13879.250500       0.973292
    13898.540700       0.972239
    13917.884500       0.971171
    13937.282200       0.970090
    13956.734100       0.968996
    13976.240400       0.967889
    13995.801300       0.966770
    14015.417000       0.965639
    14035.087700       0.964496
    14054.813800       0.963343
    14074.595400       0.962179
    14094.432700       0.961004
    14114.326000       0.959820
    14134.275600       0.958626
    14154.281700       0.957423
    14174.344400       0.956212
    14194.464200       0.954993
    14214.641100       0.953765
    14234.875400       0.952531
    14255.167500       0.951290
    14275.517500       0.950042
    14295.925700       0.948788
    14316.392300       0.947529
    14336.917600       0.946264
    14357.501800       0.944995
    14378.145200       0.943721
    14398.848100       0.942443
    14419.610700       0.941162
    14440.433200       0.939877
    14461.316000       0.938590
    14482.259200       0.937300
    14503.263200       0.936009
    14524.328200       0.934716
    14545.454500       0.933422
    14566.642400       0.932127
    14587.892000       0.930832
    14609.203800       0.929536
    14630.577900       0.928242
    14652.014700       0.926948
    14673.514300       0.925655
    14695.077100       0.924364
    14716.703500       0.923075
    14738.393500       0.921789
    14760.147600       0.920505
    14781.966000       0.919224
    14803.849000       0.917946
    14825.796900       0.916673
    14847.809900       0.915404
    14869.888500       0.914139
    14892.032800       0.912879
    14914.243100       0.911625
    14936.519800       0.910376
    14958.863100       0.909133
    14981.273400       0.907896
    15003.750900       0.906666
    15026.296000       0.905442
    15048.909000       0.904227
    15071.590100       0.903018
    15094.339600       0.901818
    15117.158000       0.900625
    15140.045400       0.899441
    15163.002300       0.898266
    15186.028900       0.897100
    15209.125500       0.895944
    15232.292500       0.894797
    15255.530100       0.893660
    15278.838800       0.892533
    15302.218800       0.891416
    15325.670500       0.890310
    15349.194200       0.889216
    15372.790200       0.888132
    15396.458800       0.887060
    15420.200500       0.885999
    15444.015400       0.884950
    15467.904100       0.883914
    15491.866800       0.882889
    15515.903800       0.881878
    15540.015500       0.880878
    15564.202300       0.879892
    15588.464500       0.878919
    15612.802500       0.877959
    15637.216600       0.877012
    15661.707100       0.876079
    15686.274500       0.875160
    15710.919100       0.874254
    15735.641200       0.873363
    15760.441300       0.872485
    15785.319700       0.871622
    15810.276700       0.870774
    15835.312700       0.869939
    15860.428200       0.869119
    15885.623500       0.868314
    15910.899000       0.867524
    15936.255000       0.866748
    15961.691900       0.865987
    15987.210200       0.865241
    16012.810200       0.864510
    16038.492400       0.863794
    16064.257000       0.863093
    16090.104600       0.862406
    16116.035500       0.861735
    16142.050000       0.861079
    16168.148700       0.860438
    16194.332000       0.859812
    16220.600200       0.859201
    16246.953700       0.858604
    16273.393000       0.858023
    16299.918500       0.857456
    16326.530600       0.856904
    16353.229800       0.856367
    16380.016400       0.855844
    16406.890900       0.855335
    16433.853700       0.854842
    16460.905300       0.854362
    16488.046200       0.853896
    16515.276600       0.853444
    16542.597200       0.853007
    16570.008300       0.852582
    16597.510400       0.852172
    16625.103900       0.851774
    16652.789300       0.851390
    16680.567100       0.851019
    16708.437800       0.850660
    16736.401700       0.850314
    16764.459300       0.849980
    16792.611300       0.849658
    16820.857900       0.849348
    16849.199700       0.849050
    16877.637100       0.848762
    16906.170800       0.848486
    16934.801000       0.848221
    16963.528400       0.847965
    16992.353400       0.847720
    17021.276600       0.847485
    17050.298400       0.847259
    17079.419300       0.847042
    17108.639900       0.846833
    17137.960600       0.846634
    17167.382000       0.846442
    17196.904600       0.846257
    17226.528900       0.846080
    17256.255400       0.845910
    17286.084700       0.845746
