118,   118, MVIRI VIS channel from srf_MET5_2005348_2005349_1801-Release_S10EL_10.dat
Number of data points:
806
Wavenumber (cm-1)   Filter response
     8350.730700       0.000000
     8357.710000       0.000000
     8364.701000       0.000000
     8371.703600       0.000002
     8378.718100       0.000004
     8385.744200       0.000009
     8392.782200       0.000017
     8399.832000       0.000028
     8406.893700       0.000043
     8413.967200       0.000062
     8421.052600       0.000086
     8428.150000       0.000115
     8435.259400       0.000150
     8442.380800       0.000191
     8449.514200       0.000239
     8456.659600       0.000295
     8463.817200       0.000357
     8470.986900       0.000428
     8478.168700       0.000507
     8485.362700       0.000594
     8492.569000       0.000691
     8499.787500       0.000796
     8507.018300       0.000912
     8514.261400       0.001038
     8521.516800       0.001173
     8528.784600       0.001320
     8536.064900       0.001477
     8543.357500       0.001646
     8550.662700       0.001825
     8557.980300       0.002017
     8565.310500       0.002221
     8572.653200       0.002436
     8580.008600       0.002665
     8587.376600       0.002905
     8594.757200       0.003159
     8602.150500       0.003426
     8609.556600       0.003706
     8616.975400       0.004000
     8624.407100       0.004307
     8631.851500       0.004628
     8639.308900       0.004964
     8646.779100       0.005313
     8654.262200       0.005677
     8661.758300       0.006056
     8669.267400       0.006449
     8676.789600       0.006858
     8684.324800       0.007281
     8691.873100       0.007720
     8699.434500       0.008174
     8707.009100       0.008644
     8714.596900       0.009129
     8722.198000       0.009630
     8729.812300       0.010147
     8737.439900       0.010681
     8745.080900       0.011230
     8752.735200       0.011796
     8760.403000       0.012378
     8768.084200       0.012977
     8775.778900       0.013593
     8783.487000       0.014226
     8791.208800       0.014875
     8798.944100       0.015542
     8806.693100       0.016226
     8814.455700       0.016927
     8822.232000       0.017646
     8830.022100       0.018382
     8837.825900       0.019137
     8845.643500       0.019908
     8853.475000       0.020698
     8861.320300       0.021506
     8869.179600       0.022332
     8877.052800       0.023176
     8884.940000       0.024039
     8892.841300       0.024920
     8900.756600       0.025819
     8908.686000       0.026738
     8916.629500       0.027675
     8924.587200       0.028631
     8932.559200       0.029606
     8940.545400       0.030600
     8948.545900       0.031613
     8956.560700       0.032645
     8964.589900       0.033697
     8972.633500       0.034769
     8980.691500       0.035860
     8988.764000       0.036970
     8996.851100       0.038101
     9004.952700       0.039251
     9013.068900       0.040421
     9021.199800       0.041612
     9029.345400       0.042823
     9037.505600       0.044054
     9045.680700       0.045305
     9053.870500       0.046577
     9062.075200       0.047869
     9070.294800       0.049182
     9078.529300       0.050516
     9086.778700       0.051871
     9095.043200       0.053247
     9103.322700       0.054643
     9111.617300       0.056061
     9119.927000       0.057500
     9128.251900       0.058961
     9136.592100       0.060443
     9144.947400       0.061946
     9153.318100       0.063472
     9161.704100       0.065018
     9170.105500       0.066587
     9178.522300       0.068177
     9186.954500       0.069789
     9195.402300       0.071424
     9203.865600       0.073080
     9212.344500       0.074759
     9220.839100       0.076460
     9229.349300       0.078183
     9237.875300       0.079929
     9246.417000       0.081697
     9254.974500       0.083488
     9263.547900       0.085302
     9272.137200       0.087138
     9280.742500       0.088997
     9289.363700       0.090879
     9298.000900       0.092784
     9306.654300       0.094712
     9315.323700       0.096663
     9324.009300       0.098638
     9332.711200       0.100635
     9341.429200       0.102656
     9350.163600       0.104700
     9358.914400       0.106767
     9367.681500       0.108858
     9376.465100       0.110972
     9385.265100       0.113109
     9394.081700       0.115271
     9402.914900       0.117455
     9411.764700       0.119664
     9420.631200       0.121896
     9429.514400       0.124152
     9438.414300       0.126432
     9447.331100       0.128735
     9456.264800       0.131063
     9465.215300       0.133414
     9474.182900       0.135788
     9483.167400       0.138187
     9492.169000       0.140610
     9501.187600       0.143057
     9510.223500       0.145527
     9519.276500       0.148022
     9528.346800       0.150540
     9537.434400       0.153082
     9546.539400       0.155648
     9555.661700       0.158239
     9564.801500       0.160852
     9573.958800       0.163491
     9583.133700       0.166152
     9592.326100       0.168838
     9601.536200       0.171548
     9610.764100       0.174281
     9620.009600       0.177038
     9629.273000       0.179819
     9638.554200       0.182623
     9647.853400       0.185452
     9657.170400       0.188303
     9666.505600       0.191179
     9675.858700       0.194078
     9685.230000       0.197000
     9694.619500       0.199946
     9704.027200       0.202915
     9713.453100       0.205908
     9722.897400       0.208924
     9732.360100       0.211962
     9741.841200       0.215024
     9751.340800       0.218109
     9760.859000       0.221217
     9770.395700       0.224347
     9779.951100       0.227501
     9789.525200       0.230677
     9799.118100       0.233875
     9808.729800       0.237095
     9818.360300       0.240339
     9828.009800       0.243604
     9837.678300       0.246891
     9847.365800       0.250200
     9857.072400       0.253531
     9866.798200       0.256884
     9876.543200       0.260257
     9886.307500       0.263653
     9896.091000       0.267070
     9905.894000       0.270507
     9915.716400       0.273966
     9925.558300       0.277445
     9935.419800       0.280945
     9945.300800       0.284466
     9955.201600       0.288006
     9965.122100       0.291567
     9975.062300       0.295148
     9985.022500       0.298748
     9995.002500       0.302368
    10005.002500       0.306008
    10015.022500       0.309666
    10025.062700       0.313343
    10035.122900       0.317039
    10045.203400       0.320754
    10055.304200       0.324487
    10065.425300       0.328238
    10075.566800       0.332007
    10085.728700       0.335793
    10095.911200       0.339597
    10106.114200       0.343418
    10116.337900       0.347256
    10126.582300       0.351110
    10136.847400       0.354981
    10147.133400       0.358869
    10157.440300       0.362772
    10167.768200       0.366691
    10178.117000       0.370625
    10188.487000       0.374574
    10198.878100       0.378539
    10209.290500       0.382517
    10219.724100       0.386511
    10230.179000       0.390518
    10240.655400       0.394539
    10251.153300       0.398573
    10261.672700       0.402620
    10272.213700       0.406681
    10282.776300       0.410753
    10293.360800       0.414839
    10303.967000       0.418936
    10314.595200       0.423044
    10325.245200       0.427164
    10335.917300       0.431296
    10346.611500       0.435437
    10357.327800       0.439589
    10368.066400       0.443751
    10378.827200       0.447923
    10389.610400       0.452104
    10400.416000       0.456294
    10411.244100       0.460492
    10422.094800       0.464699
    10432.968200       0.468914
    10443.864200       0.473137
    10454.783100       0.477367
    10465.724800       0.481603
    10476.689400       0.485847
    10487.677000       0.490096
    10498.687700       0.494351
    10509.721500       0.498612
    10520.778500       0.502878
    10531.858900       0.507148
    10542.962600       0.511424
    10554.089700       0.515702
    10565.240400       0.519985
    10576.414600       0.524270
    10587.612500       0.528559
    10598.834100       0.532850
    10610.079600       0.537143
    10621.348900       0.541437
    10632.642200       0.545733
    10643.959600       0.550030
    10655.301000       0.554327
    10666.666700       0.558625
    10678.056600       0.562922
    10689.470900       0.567218
    10700.909600       0.571513
    10712.372800       0.575807
    10723.860600       0.580099
    10735.373100       0.584388
    10746.910300       0.588675
    10758.472300       0.592959
    10770.059200       0.597239
    10781.671200       0.601515
    10793.308100       0.605787
    10804.970300       0.610055
    10816.657700       0.614317
    10828.370300       0.618573
    10840.108400       0.622824
    10851.871900       0.627068
    10863.661100       0.631305
    10875.475800       0.635535
    10887.316300       0.639758
    10899.182600       0.643972
    10911.074700       0.648178
    10922.992900       0.652375
    10934.937100       0.656563
    10946.907500       0.660741
    10958.904100       0.664909
    10970.927000       0.669067
    10982.976400       0.673214
    10995.052200       0.677349
    11007.154700       0.681473
    11019.283700       0.685585
    11031.439600       0.689684
    11043.622300       0.693770
    11055.832000       0.697843
    11068.068600       0.701902
    11080.332400       0.705947
    11092.623400       0.709977
    11104.941700       0.713993
    11117.287400       0.717993
    11129.660500       0.721977
    11142.061300       0.725946
    11154.489700       0.729897
    11166.945800       0.733832
    11179.429800       0.737750
    11191.941800       0.741650
    11204.481800       0.745531
    11217.049900       0.749395
    11229.646300       0.753239
    11242.270900       0.757064
    11254.924000       0.760870
    11267.605600       0.764656
    11280.315800       0.768421
    11293.054800       0.772166
    11305.822500       0.775889
    11318.619100       0.779591
    11331.444800       0.783272
    11344.299500       0.786930
    11357.183400       0.790565
    11370.096600       0.794178
    11383.039300       0.797768
    11396.011400       0.801334
    11409.013100       0.804876
    11422.044500       0.808393
    11435.105800       0.811887
    11448.196900       0.815355
    11461.318100       0.818798
    11474.469300       0.822216
    11487.650800       0.825607
    11500.862600       0.828973
    11514.104800       0.832312
    11527.377500       0.835624
    11540.680900       0.838908
    11554.015000       0.842166
    11567.380000       0.845396
    11580.775900       0.848597
    11594.202900       0.851771
    11607.661100       0.854915
    11621.150500       0.858031
    11634.671300       0.861118
    11648.223600       0.864175
    11661.807600       0.867202
    11675.423200       0.870200
    11689.070700       0.873167
    11702.750100       0.876104
    11716.461600       0.879010
    11730.205300       0.881885
    11743.981200       0.884729
    11757.789500       0.887541
    11771.630400       0.890322
    11785.503800       0.893071
    11799.410000       0.895787
    11813.349100       0.898472
    11827.321100       0.901123
    11841.326200       0.903742
    11855.364600       0.906328
    11869.436200       0.908881
    11883.541300       0.911401
    11897.680000       0.913887
    11911.852300       0.916339
    11926.058400       0.918757
    11940.298500       0.921141
    11954.572600       0.923491
    11968.880900       0.925807
    11983.223500       0.928088
    11997.600500       0.930335
    12012.012000       0.932547
    12026.458200       0.934724
    12040.939200       0.936865
    12055.455100       0.938972
    12070.006000       0.941043
    12084.592100       0.943079
    12099.213600       0.945079
    12113.870400       0.947044
    12128.562800       0.948973
    12143.290800       0.950867
    12158.054700       0.952724
    12172.854500       0.954545
    12187.690400       0.956331
    12202.562500       0.958080
    12217.471000       0.959794
    12232.415900       0.961471
    12247.397400       0.963112
    12262.415700       0.964716
    12277.470800       0.966285
    12292.563000       0.967817
    12307.692300       0.969312
    12322.858900       0.970772
    12338.062900       0.972195
    12353.304500       0.973582
    12368.583800       0.974932
    12383.900900       0.976246
    12399.256000       0.977524
    12414.649300       0.978765
    12430.080800       0.979970
    12445.550700       0.981139
    12461.059200       0.982272
    12476.606400       0.983369
    12492.192400       0.984429
    12507.817400       0.985454
    12523.481500       0.986443
    12539.185000       0.987395
    12554.927800       0.988312
    12570.710200       0.989194
    12586.532400       0.990039
    12602.394500       0.990849
    12618.296500       0.991624
    12634.238800       0.992364
    12650.221400       0.993068
    12666.244500       0.993737
    12682.308200       0.994371
    12698.412700       0.994971
    12714.558200       0.995536
    12730.744700       0.996066
    12746.972600       0.996562
    12763.241900       0.997024
    12779.552700       0.997452
    12795.905300       0.997845
    12812.299800       0.998206
    12828.736400       0.998532
    12845.215200       0.998826
    12861.736300       0.999086
    12878.300100       0.999313
    12894.906500       0.999508
    12911.555800       0.999670
    12928.248200       0.999800
    12944.983800       0.999897
    12961.762800       0.999963
    12978.585300       0.999997
    12995.451600       1.000000
    13012.361700       0.999972
    13029.316000       0.999912
    13046.314400       0.999822
    13063.357300       0.999702
    13080.444700       0.999552
    13097.576900       0.999371
    13114.754100       0.999162
    13131.976400       0.998922
    13149.243900       0.998654
    13166.556900       0.998357
    13183.915600       0.998032
    13201.320100       0.997678
    13218.770700       0.997297
    13236.267400       0.996888
    13253.810500       0.996451
    13271.400100       0.995988
    13289.036500       0.995498
    13306.719900       0.994982
    13324.450400       0.994440
    13342.228200       0.993872
    13360.053400       0.993279
    13377.926400       0.992661
    13395.847300       0.992018
    13413.816200       0.991352
    13431.833400       0.990661
    13449.899100       0.989946
    13468.013500       0.989209
    13486.176700       0.988448
    13504.388900       0.987665
    13522.650400       0.986860
    13540.961400       0.986033
    13559.322000       0.985185
    13577.732500       0.984315
    13596.193100       0.983425
    13614.703900       0.982515
    13633.265200       0.981585
    13651.877100       0.980636
    13670.540000       0.979667
    13689.253900       0.978679
    13708.019200       0.977674
    13726.836000       0.976650
    13745.704500       0.975609
    13764.624900       0.974551
    13783.597500       0.973476
    13802.622500       0.972385
    13821.700100       0.971278
    13840.830400       0.970155
    13860.013900       0.969017
    13879.250500       0.967865
    13898.540700       0.966698
    13917.884500       0.965518
    13937.282200       0.964324
    13956.734100       0.963117
    13976.240400       0.961897
    13995.801300       0.960665
    14015.417000       0.959422
    14035.087700       0.958167
    14054.813800       0.956901
    14074.595400       0.955625
    14094.432700       0.954339
    14114.326000       0.953043
    14134.275600       0.951737
    14154.281700       0.950423
    14174.344400       0.949101
    14194.464200       0.947770
    14214.641100       0.946432
    14234.875400       0.945087
    14255.167500       0.943735
    14275.517500       0.942377
    14295.925700       0.941012
    14316.392300       0.939643
    14336.917600       0.938268
    14357.501800       0.936889
    14378.145200       0.935505
    14398.848100       0.934118
    14419.610700       0.932727
    14440.433200       0.931333
    14461.316000       0.929936
    14482.259200       0.928538
    14503.263200       0.927137
    14524.328200       0.925735
    14545.454500       0.924333
    14566.642400       0.922929
    14587.892000       0.921526
    14609.203800       0.920122
    14630.577900       0.918719
    14652.014700       0.917317
    14673.514300       0.915916
    14695.077100       0.914518
    14716.703500       0.913121
    14738.393500       0.911726
    14760.147600       0.910335
    14781.966000       0.908946
    14803.849000       0.907562
    14825.796900       0.906181
    14847.809900       0.904804
    14869.888500       0.903432
    14892.032800       0.902065
    14914.243100       0.900703
    14936.519800       0.899347
    14958.863100       0.897997
    14981.273400       0.896654
    15003.750900       0.895316
    15026.296000       0.893986
    15048.909000       0.892663
    15071.590100       0.891348
    15094.339600       0.890041
    15117.158000       0.888741
    15140.045400       0.887451
    15163.002300       0.886169
    15186.028900       0.884896
    15209.125500       0.883632
    15232.292500       0.882378
    15255.530100       0.881134
    15278.838800       0.879900
    15302.218800       0.878676
    15325.670500       0.877463
    15349.194200       0.876261
    15372.790200       0.875070
    15396.458800       0.873890
    15420.200500       0.872722
    15444.015400       0.871565
    15467.904100       0.870421
    15491.866800       0.869289
    15515.903800       0.868169
    15540.015500       0.867061
    15564.202300       0.865967
    15588.464500       0.864885
    15612.802500       0.863816
    15637.216600       0.862761
    15661.707100       0.861719
    15686.274500       0.860690
    15710.919100       0.859675
    15735.641200       0.858674
    15760.441300       0.857687
    15785.319700       0.856714
    15810.276700       0.855755
    15835.312700       0.854810
    15860.428200       0.853879
    15885.623500       0.852963
    15910.899000       0.852061
    15936.255000       0.851174
    15961.691900       0.850302
    15987.210200       0.849444
    16012.810200       0.848600
    16038.492400       0.847771
    16064.257000       0.846957
    16090.104600       0.846158
    16116.035500       0.845373
    16142.050000       0.844603
    16168.148700       0.843848
    16194.332000       0.843107
    16220.600200       0.842381
    16246.953700       0.841670
    16273.393000       0.840973
    16299.918500       0.840290
    16326.530600       0.839622
    16353.229800       0.838968
    16380.016400       0.838328
    16406.890900       0.837703
    16433.853700       0.837091
    16460.905300       0.836493
    16488.046200       0.835909
    16515.276600       0.835339
    16542.597200       0.834782
    16570.008300       0.834238
    16597.510400       0.833707
    16625.103900       0.833189
    16652.789300       0.832684
    16680.567100       0.832192
    16708.437800       0.831711
    16736.401700       0.831243
    16764.459300       0.830787
    16792.611300       0.830342
    16820.857900       0.829909
    16849.199700       0.829487
    16877.637100       0.829076
    16906.170800       0.828675
    16934.801000       0.828285
    16963.528400       0.827904
    16992.353400       0.827533
    17021.276600       0.827172
    17050.298400       0.826820
    17079.419300       0.826476
    17108.639900       0.826141
    17137.960600       0.825813
    17167.382000       0.825493
    17196.904600       0.825181
    17226.528900       0.824875
    17256.255400       0.824576
    17286.084700       0.824282
