03 , goes_11_imager_04.flt
Number of data points:
1111
Wavenumber (cm-1)   Filter response
      878.000000       0.014910
      878.100000       0.015290
      878.200000       0.015690
      878.300000       0.016120
      878.400000       0.016590
      878.500000       0.017070
      878.600000       0.017590
      878.700000       0.018130
      878.800000       0.018690
      878.900000       0.019280
      879.000000       0.019890
      879.100000       0.020520
      879.200000       0.021190
      879.300000       0.021880
      879.400000       0.022600
      879.500000       0.023350
      879.600000       0.024140
      879.700000       0.024960
      879.800000       0.025830
      879.900000       0.026750
      880.000000       0.027720
      880.100000       0.028740
      880.200000       0.029810
      880.300000       0.030940
      880.400000       0.032120
      880.500000       0.033350
      880.600000       0.034630
      880.700000       0.035970
      880.800000       0.037370
      880.900000       0.038820
      881.000000       0.040330
      881.100000       0.041910
      881.200000       0.043550
      881.300000       0.045240
      881.400000       0.046980
      881.500000       0.048770
      881.600000       0.050600
      881.700000       0.052470
      881.800000       0.054370
      881.900000       0.056320
      882.000000       0.058290
      882.100000       0.060300
      882.200000       0.062350
      882.300000       0.064430
      882.400000       0.066540
      882.500000       0.068690
      882.600000       0.070880
      882.700000       0.073110
      882.800000       0.075380
      882.900000       0.077700
      883.000000       0.080060
      883.100000       0.082480
      883.200000       0.084960
      883.300000       0.087510
      883.400000       0.090130
      883.500000       0.092820
      883.600000       0.095610
      883.700000       0.098490
      883.800000       0.101490
      883.900000       0.104600
      884.000000       0.107840
      884.100000       0.111230
      884.200000       0.114770
      884.300000       0.118460
      884.400000       0.122300
      884.500000       0.126310
      884.600000       0.130490
      884.700000       0.134860
      884.800000       0.139420
      884.900000       0.144200
      885.000000       0.149200
      885.100000       0.154440
      885.200000       0.159910
      885.300000       0.165600
      885.400000       0.171500
      885.500000       0.177600
      885.600000       0.183900
      885.700000       0.190400
      885.800000       0.197100
      885.900000       0.204000
      886.000000       0.211100
      886.100000       0.218410
      886.200000       0.225910
      886.300000       0.233590
      886.400000       0.241440
      886.500000       0.249460
      886.600000       0.257630
      886.700000       0.265960
      886.800000       0.274430
      886.900000       0.283050
      887.000000       0.291820
      887.100000       0.300730
      887.200000       0.309790
      887.300000       0.318970
      887.400000       0.328280
      887.500000       0.337720
      887.600000       0.347270
      887.700000       0.356940
      887.800000       0.366730
      887.900000       0.376640
      888.000000       0.386670
      888.100000       0.396820
      888.200000       0.407080
      888.300000       0.417450
      888.400000       0.427910
      888.500000       0.438450
      888.600000       0.449070
      888.700000       0.459770
      888.800000       0.470530
      888.900000       0.481370
      889.000000       0.492260
      889.100000       0.503210
      889.200000       0.514240
      889.300000       0.525330
      889.400000       0.536500
      889.500000       0.547760
      889.600000       0.559120
      889.700000       0.570590
      889.800000       0.582180
      889.900000       0.593900
      890.000000       0.605760
      890.100000       0.617780
      890.200000       0.629940
      890.300000       0.642210
      890.400000       0.654590
      890.500000       0.667050
      890.600000       0.679590
      890.700000       0.692190
      890.800000       0.704840
      890.900000       0.717520
      891.000000       0.730220
      891.100000       0.742920
      891.200000       0.755590
      891.300000       0.768140
      891.400000       0.780560
      891.500000       0.792770
      891.600000       0.804720
      891.700000       0.816360
      891.800000       0.827620
      891.900000       0.838440
      892.000000       0.848750
      892.100000       0.858500
      892.200000       0.867720
      892.300000       0.876440
      892.400000       0.884680
      892.500000       0.892450
      892.600000       0.899780
      892.700000       0.906680
      892.800000       0.913140
      892.900000       0.919180
      893.000000       0.924780
      893.100000       0.929960
      893.200000       0.934740
      893.300000       0.939160
      893.400000       0.943240
      893.500000       0.947020
      893.600000       0.950500
      893.700000       0.953720
      893.800000       0.956680
      893.900000       0.959400
      894.000000       0.961900
      894.100000       0.964180
      894.200000       0.966280
      894.300000       0.968210
      894.400000       0.970000
      894.500000       0.971670
      894.600000       0.973240
      894.700000       0.974730
      894.800000       0.976160
      894.900000       0.977550
      895.000000       0.978900
      895.100000       0.980250
      895.200000       0.981580
      895.300000       0.982900
      895.400000       0.984200
      895.500000       0.985480
      895.600000       0.986730
      895.700000       0.987970
      895.800000       0.989180
      895.900000       0.990360
      896.000000       0.991510
      896.100000       0.992620
      896.200000       0.993690
      896.300000       0.994710
      896.400000       0.995660
      896.500000       0.996550
      896.600000       0.997360
      896.700000       0.998090
      896.800000       0.998710
      896.900000       0.999220
      897.000000       0.999600
      897.100000       0.999850
      897.200000       0.999980
      897.300000       1.000000
      897.400000       0.999910
      897.500000       0.999740
      897.600000       0.999470
      897.700000       0.999130
      897.800000       0.998720
      897.900000       0.998240
      898.000000       0.997700
      898.100000       0.997110
      898.200000       0.996470
      898.300000       0.995790
      898.400000       0.995080
      898.500000       0.994340
      898.600000       0.993580
      898.700000       0.992800
      898.800000       0.992020
      898.900000       0.991230
      899.000000       0.990450
      899.100000       0.989670
      899.200000       0.988900
      899.300000       0.988140
      899.400000       0.987400
      899.500000       0.986660
      899.600000       0.985940
      899.700000       0.985240
      899.800000       0.984560
      899.900000       0.983900
      900.000000       0.983260
      900.100000       0.982650
      900.200000       0.982060
      900.300000       0.981490
      900.400000       0.980940
      900.500000       0.980410
      900.600000       0.979890
      900.700000       0.979400
      900.800000       0.978910
      900.900000       0.978440
      901.000000       0.977990
      901.100000       0.977540
      901.200000       0.977110
      901.300000       0.976700
      901.400000       0.976300
      901.500000       0.975920
      901.600000       0.975560
      901.700000       0.975210
      901.800000       0.974890
      901.900000       0.974590
      902.000000       0.974320
      902.100000       0.974070
      902.200000       0.973850
      902.300000       0.973650
      902.400000       0.973470
      902.500000       0.973310
      902.600000       0.973160
      902.700000       0.973040
      902.800000       0.972920
      902.900000       0.972820
      903.000000       0.972730
      903.100000       0.972660
      903.200000       0.972590
      903.300000       0.972530
      903.400000       0.972490
      903.500000       0.972450
      903.600000       0.972430
      903.700000       0.972420
      903.800000       0.972410
      903.900000       0.972420
      904.000000       0.972440
      904.100000       0.972470
      904.200000       0.972510
      904.300000       0.972560
      904.400000       0.972610
      904.500000       0.972670
      904.600000       0.972740
      904.700000       0.972810
      904.800000       0.972870
      904.900000       0.972940
      905.000000       0.973010
      905.100000       0.973070
      905.200000       0.973130
      905.300000       0.973190
      905.400000       0.973250
      905.500000       0.973300
      905.600000       0.973350
      905.700000       0.973400
      905.800000       0.973440
      905.900000       0.973490
      906.000000       0.973530
      906.100000       0.973560
      906.200000       0.973600
      906.300000       0.973620
      906.400000       0.973650
      906.500000       0.973660
      906.600000       0.973670
      906.700000       0.973670
      906.800000       0.973660
      906.900000       0.973640
      907.000000       0.973610
      907.100000       0.973560
      907.200000       0.973490
      907.300000       0.973410
      907.400000       0.973290
      907.500000       0.973150
      907.600000       0.972970
      907.700000       0.972760
      907.800000       0.972500
      907.900000       0.972190
      908.000000       0.971820
      908.100000       0.971400
      908.200000       0.970930
      908.300000       0.970420
      908.400000       0.969890
      908.500000       0.969340
      908.600000       0.968790
      908.700000       0.968240
      908.800000       0.967710
      908.900000       0.967210
      909.000000       0.966750
      909.100000       0.966330
      909.200000       0.965960
      909.300000       0.965630
      909.400000       0.965350
      909.500000       0.965110
      909.600000       0.964920
      909.700000       0.964780
      909.800000       0.964680
      909.900000       0.964640
      910.000000       0.964650
      910.100000       0.964710
      910.200000       0.964820
      910.300000       0.964960
      910.400000       0.965130
      910.500000       0.965320
      910.600000       0.965520
      910.700000       0.965720
      910.800000       0.965910
      910.900000       0.966090
      911.000000       0.966250
      911.100000       0.966380
      911.200000       0.966490
      911.300000       0.966580
      911.400000       0.966640
      911.500000       0.966700
      911.600000       0.966740
      911.700000       0.966770
      911.800000       0.966800
      911.900000       0.966830
      912.000000       0.966860
      912.100000       0.966890
      912.200000       0.966920
      912.300000       0.966960
      912.400000       0.967010
      912.500000       0.967070
      912.600000       0.967140
      912.700000       0.967220
      912.800000       0.967320
      912.900000       0.967430
      913.000000       0.967570
      913.100000       0.967730
      913.200000       0.967900
      913.300000       0.968100
      913.400000       0.968310
      913.500000       0.968540
      913.600000       0.968790
      913.700000       0.969060
      913.800000       0.969340
      913.900000       0.969630
      914.000000       0.969940
      914.100000       0.970270
      914.200000       0.970610
      914.300000       0.970960
      914.400000       0.971310
      914.500000       0.971680
      914.600000       0.972050
      914.700000       0.972430
      914.800000       0.972810
      914.900000       0.973200
      915.000000       0.973580
      915.100000       0.973960
      915.200000       0.974340
      915.300000       0.974710
      915.400000       0.975090
      915.500000       0.975460
      915.600000       0.975820
      915.700000       0.976190
      915.800000       0.976540
      915.900000       0.976890
      916.000000       0.977230
      916.100000       0.977570
      916.200000       0.977890
      916.300000       0.978210
      916.400000       0.978530
      916.500000       0.978830
      916.600000       0.979130
      916.700000       0.979420
      916.800000       0.979710
      916.900000       0.979980
      917.000000       0.980250
      917.100000       0.980510
      917.200000       0.980760
      917.300000       0.981000
      917.400000       0.981210
      917.500000       0.981410
      917.600000       0.981580
      917.700000       0.981730
      917.800000       0.981840
      917.900000       0.981920
      918.000000       0.981950
      918.100000       0.981940
      918.200000       0.981880
      918.300000       0.981770
      918.400000       0.981610
      918.500000       0.981400
      918.600000       0.981130
      918.700000       0.980790
      918.800000       0.980400
      918.900000       0.979930
      919.000000       0.979380
      919.100000       0.978760
      919.200000       0.978060
      919.300000       0.977300
      919.400000       0.976490
      919.500000       0.975620
      919.600000       0.974710
      919.700000       0.973770
      919.800000       0.972790
      919.900000       0.971780
      920.000000       0.970760
      920.100000       0.969720
      920.200000       0.968670
      920.300000       0.967630
      920.400000       0.966590
      920.500000       0.965580
      920.600000       0.964590
      920.700000       0.963650
      920.800000       0.962750
      920.900000       0.961900
      921.000000       0.961130
      921.100000       0.960430
      921.200000       0.959790
      921.300000       0.959200
      921.400000       0.958650
      921.500000       0.958110
      921.600000       0.957590
      921.700000       0.957070
      921.800000       0.956530
      921.900000       0.955970
      922.000000       0.955370
      922.100000       0.954710
      922.200000       0.954000
      922.300000       0.953240
      922.400000       0.952400
      922.500000       0.951490
      922.600000       0.950510
      922.700000       0.949440
      922.800000       0.948270
      922.900000       0.947000
      923.000000       0.945620
      923.100000       0.944120
      923.200000       0.942520
      923.300000       0.940840
      923.400000       0.939110
      923.500000       0.937330
      923.600000       0.935540
      923.700000       0.933750
      923.800000       0.931980
      923.900000       0.930240
      924.000000       0.928560
      924.100000       0.926950
      924.200000       0.925400
      924.300000       0.923900
      924.400000       0.922430
      924.500000       0.920980
      924.600000       0.919550
      924.700000       0.918110
      924.800000       0.916660
      924.900000       0.915180
      925.000000       0.913670
      925.100000       0.912110
      925.200000       0.910510
      925.300000       0.908870
      925.400000       0.907190
      925.500000       0.905470
      925.600000       0.903720
      925.700000       0.901930
      925.800000       0.900100
      925.900000       0.898240
      926.000000       0.896350
      926.100000       0.894420
      926.200000       0.892470
      926.300000       0.890510
      926.400000       0.888540
      926.500000       0.886590
      926.600000       0.884650
      926.700000       0.882740
      926.800000       0.880870
      926.900000       0.879060
      927.000000       0.877310
      927.100000       0.875630
      927.200000       0.874020
      927.300000       0.872470
      927.400000       0.870970
      927.500000       0.869520
      927.600000       0.868130
      927.700000       0.866770
      927.800000       0.865460
      927.900000       0.864180
      928.000000       0.862940
      928.100000       0.861740
      928.200000       0.860560
      928.300000       0.859400
      928.400000       0.858270
      928.500000       0.857160
      928.600000       0.856060
      928.700000       0.854970
      928.800000       0.853900
      928.900000       0.852840
      929.000000       0.851780
      929.100000       0.850730
      929.200000       0.849680
      929.300000       0.848650
      929.400000       0.847640
      929.500000       0.846640
      929.600000       0.845670
      929.700000       0.844730
      929.800000       0.843820
      929.900000       0.842950
      930.000000       0.842130
      930.100000       0.841350
      930.200000       0.840620
      930.300000       0.839920
      930.400000       0.839250
      930.500000       0.838620
      930.600000       0.838010
      930.700000       0.837420
      930.800000       0.836840
      930.900000       0.836280
      931.000000       0.835730
      931.100000       0.835180
      931.200000       0.834640
      931.300000       0.834110
      931.400000       0.833600
      931.500000       0.833090
      931.600000       0.832600
      931.700000       0.832130
      931.800000       0.831680
      931.900000       0.831250
      932.000000       0.830840
      932.100000       0.830460
      932.200000       0.830110
      932.300000       0.829800
      932.400000       0.829520
      932.500000       0.829270
      932.600000       0.829070
      932.700000       0.828910
      932.800000       0.828810
      932.900000       0.828750
      933.000000       0.828760
      933.100000       0.828830
      933.200000       0.828970
      933.300000       0.829160
      933.400000       0.829410
      933.500000       0.829720
      933.600000       0.830090
      933.700000       0.830510
      933.800000       0.830990
      933.900000       0.831530
      934.000000       0.832130
      934.100000       0.832790
      934.200000       0.833510
      934.300000       0.834280
      934.400000       0.835100
      934.500000       0.835980
      934.600000       0.836890
      934.700000       0.837860
      934.800000       0.838870
      934.900000       0.839920
      935.000000       0.841010
      935.100000       0.842150
      935.200000       0.843320
      935.300000       0.844520
      935.400000       0.845740
      935.500000       0.846980
      935.600000       0.848230
      935.700000       0.849490
      935.800000       0.850740
      935.900000       0.851990
      936.000000       0.853230
      936.100000       0.854450
      936.200000       0.855650
      936.300000       0.856820
      936.400000       0.857940
      936.500000       0.859010
      936.600000       0.860020
      936.700000       0.860960
      936.800000       0.861820
      936.900000       0.862580
      937.000000       0.863240
      937.100000       0.863790
      937.200000       0.864220
      937.300000       0.864550
      937.400000       0.864780
      937.500000       0.864910
      937.600000       0.864950
      937.700000       0.864890
      937.800000       0.864730
      937.900000       0.864480
      938.000000       0.864130
      938.100000       0.863680
      938.200000       0.863170
      938.300000       0.862610
      938.400000       0.862040
      938.500000       0.861480
      938.600000       0.860960
      938.700000       0.860500
      938.800000       0.860130
      938.900000       0.859890
      939.000000       0.859790
      939.100000       0.859870
      939.200000       0.860140
      939.300000       0.860610
      939.400000       0.861300
      939.500000       0.862230
      939.600000       0.863420
      939.700000       0.864890
      939.800000       0.866670
      939.900000       0.868790
      940.000000       0.871280
      940.100000       0.874140
