48,   48, MVIRI VIS channel from srf_MET5_1997078_1997079_1801-Release_S10EL_10.dat
Number of data points:
806
Wavenumber (cm-1)   Filter response
     8350.730700       0.000000
     8357.710000       0.000000
     8364.701000       0.000000
     8371.703600       0.000002
     8378.718100       0.000004
     8385.744200       0.000009
     8392.782200       0.000016
     8399.832000       0.000027
     8406.893700       0.000041
     8413.967200       0.000059
     8421.052600       0.000082
     8428.150000       0.000110
     8435.259400       0.000144
     8442.380800       0.000183
     8449.514200       0.000229
     8456.659600       0.000282
     8463.817200       0.000342
     8470.986900       0.000409
     8478.168700       0.000485
     8485.362700       0.000569
     8492.569000       0.000661
     8499.787500       0.000763
     8507.018300       0.000873
     8514.261400       0.000993
     8521.516800       0.001124
     8528.784600       0.001264
     8536.064900       0.001415
     8543.357500       0.001576
     8550.662700       0.001749
     8557.980300       0.001932
     8565.310500       0.002127
     8572.653200       0.002334
     8580.008600       0.002553
     8587.376600       0.002784
     8594.757200       0.003027
     8602.150500       0.003283
     8609.556600       0.003552
     8616.975400       0.003834
     8624.407100       0.004129
     8631.851500       0.004437
     8639.308900       0.004759
     8646.779100       0.005094
     8654.262200       0.005444
     8661.758300       0.005807
     8669.267400       0.006185
     8676.789600       0.006577
     8684.324800       0.006984
     8691.873100       0.007405
     8699.434500       0.007841
     8707.009100       0.008292
     8714.596900       0.008758
     8722.198000       0.009240
     8729.812300       0.009737
     8737.439900       0.010249
     8745.080900       0.010777
     8752.735200       0.011321
     8760.403000       0.011881
     8768.084200       0.012457
     8775.778900       0.013049
     8783.487000       0.013657
     8791.208800       0.014282
     8798.944100       0.014923
     8806.693100       0.015581
     8814.455700       0.016256
     8822.232000       0.016948
     8830.022100       0.017656
     8837.825900       0.018382
     8845.643500       0.019125
     8853.475000       0.019885
     8861.320300       0.020663
     8869.179600       0.021458
     8877.052800       0.022271
     8884.940000       0.023101
     8892.841300       0.023950
     8900.756600       0.024816
     8908.686000       0.025701
     8916.629500       0.026604
     8924.587200       0.027525
     8932.559200       0.028464
     8940.545400       0.029422
     8948.545900       0.030399
     8956.560700       0.031394
     8964.589900       0.032408
     8972.633500       0.033441
     8980.691500       0.034493
     8988.764000       0.035564
     8996.851100       0.036655
     9004.952700       0.037764
     9013.068900       0.038893
     9021.199800       0.040042
     9029.345400       0.041210
     9037.505600       0.042398
     9045.680700       0.043606
     9053.870500       0.044834
     9062.075200       0.046082
     9070.294800       0.047350
     9078.529300       0.048638
     9086.778700       0.049946
     9095.043200       0.051275
     9103.322700       0.052624
     9111.617300       0.053994
     9119.927000       0.055385
     9128.251900       0.056796
     9136.592100       0.058229
     9144.947400       0.059682
     9153.318100       0.061156
     9161.704100       0.062651
     9170.105500       0.064168
     9178.522300       0.065706
     9186.954500       0.067266
     9195.402300       0.068847
     9203.865600       0.070449
     9212.344500       0.072073
     9220.839100       0.073720
     9229.349300       0.075387
     9237.875300       0.077077
     9246.417000       0.078789
     9254.974500       0.080523
     9263.547900       0.082279
     9272.137200       0.084057
     9280.742500       0.085858
     9289.363700       0.087681
     9298.000900       0.089526
     9306.654300       0.091395
     9315.323700       0.093285
     9324.009300       0.095198
     9332.711200       0.097135
     9341.429200       0.099093
     9350.163600       0.101075
     9358.914400       0.103079
     9367.681500       0.105107
     9376.465100       0.107158
     9385.265100       0.109231
     9394.081700       0.111328
     9402.914900       0.113448
     9411.764700       0.115591
     9420.631200       0.117758
     9429.514400       0.119948
     9438.414300       0.122161
     9447.331100       0.124397
     9456.264800       0.126657
     9465.215300       0.128941
     9474.182900       0.131247
     9483.167400       0.133578
     9492.169000       0.135932
     9501.187600       0.138309
     9510.223500       0.140710
     9519.276500       0.143135
     9528.346800       0.145583
     9537.434400       0.148055
     9546.539400       0.150550
     9555.661700       0.153069
     9564.801500       0.155612
     9573.958800       0.158178
     9583.133700       0.160768
     9592.326100       0.163381
     9601.536200       0.166018
     9610.764100       0.168678
     9620.009600       0.171363
     9629.273000       0.174070
     9638.554200       0.176801
     9647.853400       0.179556
     9657.170400       0.182333
     9666.505600       0.185135
     9675.858700       0.187959
     9685.230000       0.190807
     9694.619500       0.193678
     9704.027200       0.196572
     9713.453100       0.199490
     9722.897400       0.202431
     9732.360100       0.205394
     9741.841200       0.208380
     9751.340800       0.211390
     9760.859000       0.214422
     9770.395700       0.217477
     9779.951100       0.220554
     9789.525200       0.223654
     9799.118100       0.226776
     9808.729800       0.229921
     9818.360300       0.233088
     9828.009800       0.236277
     9837.678300       0.239488
     9847.365800       0.242721
     9857.072400       0.245976
     9866.798200       0.249252
     9876.543200       0.252550
     9886.307500       0.255869
     9896.091000       0.259210
     9905.894000       0.262572
     9915.716400       0.265955
     9925.558300       0.269358
     9935.419800       0.272783
     9945.300800       0.276228
     9955.201600       0.279693
     9965.122100       0.283179
     9975.062300       0.286684
     9985.022500       0.290210
     9995.002500       0.293755
    10005.002500       0.297320
    10015.022500       0.300904
    10025.062700       0.304507
    10035.122900       0.308130
    10045.203400       0.311771
    10055.304200       0.315430
    10065.425300       0.319108
    10075.566800       0.322804
    10085.728700       0.326518
    10095.911200       0.330250
    10106.114200       0.334000
    10116.337900       0.337766
    10126.582300       0.341550
    10136.847400       0.345350
    10147.133400       0.349167
    10157.440300       0.353000
    10167.768200       0.356850
    10178.117000       0.360715
    10188.487000       0.364596
    10198.878100       0.368492
    10209.290500       0.372403
    10219.724100       0.376329
    10230.179000       0.380270
    10240.655400       0.384225
    10251.153300       0.388193
    10261.672700       0.392176
    10272.213700       0.396172
    10282.776300       0.400181
    10293.360800       0.404203
    10303.967000       0.408237
    10314.595200       0.412284
    10325.245200       0.416342
    10335.917300       0.420413
    10346.611500       0.424494
    10357.327800       0.428587
    10368.066400       0.432690
    10378.827200       0.436803
    10389.610400       0.440927
    10400.416000       0.445061
    10411.244100       0.449203
    10422.094800       0.453355
    10432.968200       0.457516
    10443.864200       0.461685
    10454.783100       0.465862
    10465.724800       0.470047
    10476.689400       0.474239
    10487.677000       0.478439
    10498.687700       0.482645
    10509.721500       0.486857
    10520.778500       0.491075
    10531.858900       0.495299
    10542.962600       0.499528
    10554.089700       0.503762
    10565.240400       0.508001
    10576.414600       0.512243
    10587.612500       0.516490
    10598.834100       0.520740
    10610.079600       0.524993
    10621.348900       0.529248
    10632.642200       0.533506
    10643.959600       0.537766
    10655.301000       0.542028
    10666.666700       0.546290
    10678.056600       0.550553
    10689.470900       0.554817
    10700.909600       0.559081
    10712.372800       0.563344
    10723.860600       0.567606
    10735.373100       0.571867
    10746.910300       0.576127
    10758.472300       0.580385
    10770.059200       0.584640
    10781.671200       0.588892
    10793.308100       0.593142
    10804.970300       0.597388
    10816.657700       0.601629
    10828.370300       0.605867
    10840.108400       0.610099
    10851.871900       0.614327
    10863.661100       0.618549
    10875.475800       0.622765
    10887.316300       0.626975
    10899.182600       0.631177
    10911.074700       0.635373
    10922.992900       0.639561
    10934.937100       0.643741
    10946.907500       0.647913
    10958.904100       0.652076
    10970.927000       0.656230
    10982.976400       0.660374
    10995.052200       0.664509
    11007.154700       0.668632
    11019.283700       0.672745
    11031.439600       0.676847
    11043.622300       0.680938
    11055.832000       0.685016
    11068.068600       0.689082
    11080.332400       0.693135
    11092.623400       0.697175
    11104.941700       0.701202
    11117.287400       0.705214
    11129.660500       0.709212
    11142.061300       0.713196
    11154.489700       0.717164
    11166.945800       0.721117
    11179.429800       0.725054
    11191.941800       0.728974
    11204.481800       0.732878
    11217.049900       0.736765
    11229.646300       0.740635
    11242.270900       0.744486
    11254.924000       0.748320
    11267.605600       0.752135
    11280.315800       0.755931
    11293.054800       0.759708
    11305.822500       0.763465
    11318.619100       0.767202
    11331.444800       0.770919
    11344.299500       0.774615
    11357.183400       0.778289
    11370.096600       0.781943
    11383.039300       0.785575
    11396.011400       0.789184
    11409.013100       0.792772
    11422.044500       0.796336
    11435.105800       0.799877
    11448.196900       0.803395
    11461.318100       0.806889
    11474.469300       0.810358
    11487.650800       0.813804
    11500.862600       0.817224
    11514.104800       0.820620
    11527.377500       0.823989
    11540.680900       0.827334
    11554.015000       0.830652
    11567.380000       0.833944
    11580.775900       0.837209
    11594.202900       0.840447
    11607.661100       0.843659
    11621.150500       0.846842
    11634.671300       0.849998
    11648.223600       0.853126
    11661.807600       0.856225
    11675.423200       0.859296
    11689.070700       0.862338
    11702.750100       0.865351
    11716.461600       0.868335
    11730.205300       0.871288
    11743.981200       0.874212
    11757.789500       0.877106
    11771.630400       0.879970
    11785.503800       0.882803
    11799.410000       0.885605
    11813.349100       0.888376
    11827.321100       0.891116
    11841.326200       0.893824
    11855.364600       0.896501
    11869.436200       0.899146
    11883.541300       0.901758
    11897.680000       0.904339
    11911.852300       0.906887
    11926.058400       0.909402
    11940.298500       0.911885
    11954.572600       0.914334
    11968.880900       0.916750
    11983.223500       0.919134
    11997.600500       0.921483
    12012.012000       0.923799
    12026.458200       0.926082
    12040.939200       0.928330
    12055.455100       0.930544
    12070.006000       0.932725
    12084.592100       0.934871
    12099.213600       0.936982
    12113.870400       0.939059
    12128.562800       0.941102
    12143.290800       0.943110
    12158.054700       0.945083
    12172.854500       0.947021
    12187.690400       0.948924
    12202.562500       0.950792
    12217.471000       0.952625
    12232.415900       0.954423
    12247.397400       0.956186
    12262.415700       0.957913
    12277.470800       0.959605
    12292.563000       0.961262
    12307.692300       0.962884
    12322.858900       0.964470
    12338.062900       0.966020
    12353.304500       0.967535
    12368.583800       0.969015
    12383.900900       0.970459
    12399.256000       0.971868
    12414.649300       0.973242
    12430.080800       0.974580
    12445.550700       0.975882
    12461.059200       0.977149
    12476.606400       0.978381
    12492.192400       0.979578
    12507.817400       0.980739
    12523.481500       0.981866
    12539.185000       0.982957
    12554.927800       0.984013
    12570.710200       0.985034
    12586.532400       0.986020
    12602.394500       0.986971
    12618.296500       0.987888
    12634.238800       0.988770
    12650.221400       0.989617
    12666.244500       0.990430
    12682.308200       0.991209
    12698.412700       0.991953
    12714.558200       0.992664
    12730.744700       0.993340
    12746.972600       0.993983
    12763.241900       0.994592
    12779.552700       0.995167
    12795.905300       0.995709
    12812.299800       0.996218
    12828.736400       0.996694
    12845.215200       0.997137
    12861.736300       0.997547
    12878.300100       0.997925
    12894.906500       0.998271
    12911.555800       0.998584
    12928.248200       0.998866
    12944.983800       0.999116
    12961.762800       0.999334
    12978.585300       0.999521
    12995.451600       0.999677
    13012.361700       0.999803
    13029.316000       0.999897
    13046.314400       0.999961
    13063.357300       0.999996
    13080.444700       1.000000
    13097.576900       0.999975
    13114.754100       0.999920
    13131.976400       0.999836
    13149.243900       0.999724
    13166.556900       0.999583
    13183.915600       0.999413
    13201.320100       0.999216
    13218.770700       0.998991
    13236.267400       0.998739
    13253.810500       0.998459
    13271.400100       0.998153
    13289.036500       0.997820
    13306.719900       0.997461
    13324.450400       0.997076
    13342.228200       0.996666
    13360.053400       0.996230
    13377.926400       0.995770
    13395.847300       0.995285
    13413.816200       0.994775
    13431.833400       0.994242
    13449.899100       0.993685
    13468.013500       0.993105
    13486.176700       0.992502
    13504.388900       0.991877
    13522.650400       0.991230
    13540.961400       0.990560
    13559.322000       0.989870
    13577.732500       0.989158
    13596.193100       0.988425
    13614.703900       0.987672
    13633.265200       0.986900
    13651.877100       0.986107
    13670.540000       0.985296
    13689.253900       0.984466
    13708.019200       0.983617
    13726.836000       0.982750
    13745.704500       0.981866
    13764.624900       0.980965
    13783.597500       0.980046
    13802.622500       0.979111
    13821.700100       0.978161
    13840.830400       0.977194
    13860.013900       0.976212
    13879.250500       0.975216
    13898.540700       0.974205
    13917.884500       0.973180
    13937.282200       0.972141
    13956.734100       0.971090
    13976.240400       0.970025
    13995.801300       0.968948
    14015.417000       0.967859
    14035.087700       0.966759
    14054.813800       0.965647
    14074.595400       0.964525
    14094.432700       0.963393
    14114.326000       0.962251
    14134.275600       0.961099
    14154.281700       0.959938
    14174.344400       0.958769
    14194.464200       0.957591
    14214.641100       0.956406
    14234.875400       0.955213
    14255.167500       0.954014
    14275.517500       0.952808
    14295.925700       0.951596
    14316.392300       0.950378
    14336.917600       0.949155
    14357.501800       0.947927
    14378.145200       0.946694
    14398.848100       0.945458
    14419.610700       0.944218
    14440.433200       0.942975
    14461.316000       0.941729
    14482.259200       0.940480
    14503.263200       0.939230
    14524.328200       0.937978
    14545.454500       0.936725
    14566.642400       0.935471
    14587.892000       0.934217
    14609.203800       0.932963
    14630.577900       0.931709
    14652.014700       0.930456
    14673.514300       0.929205
    14695.077100       0.927954
    14716.703500       0.926706
    14738.393500       0.925460
    14760.147600       0.924217
    14781.966000       0.922977
    14803.849000       0.921741
    14825.796900       0.920508
    14847.809900       0.919279
    14869.888500       0.918055
    14892.032800       0.916836
    14914.243100       0.915622
    14936.519800       0.914414
    14958.863100       0.913212
    14981.273400       0.912015
    15003.750900       0.910826
    15026.296000       0.909643
    15048.909000       0.908468
    15071.590100       0.907300
    15094.339600       0.906140
    15117.158000       0.904989
    15140.045400       0.903845
    15163.002300       0.902711
    15186.028900       0.901586
    15209.125500       0.900470
    15232.292500       0.899364
    15255.530100       0.898267
    15278.838800       0.897181
    15302.218800       0.896105
    15325.670500       0.895040
    15349.194200       0.893986
    15372.790200       0.892944
    15396.458800       0.891912
    15420.200500       0.890893
    15444.015400       0.889885
    15467.904100       0.888890
    15491.866800       0.887906
    15515.903800       0.886936
    15540.015500       0.885978
    15564.202300       0.885033
    15588.464500       0.884101
    15612.802500       0.883182
    15637.216600       0.882277
    15661.707100       0.881386
    15686.274500       0.880508
    15710.919100       0.879645
    15735.641200       0.878795
    15760.441300       0.877960
    15785.319700       0.877138
    15810.276700       0.876332
    15835.312700       0.875540
    15860.428200       0.874762
    15885.623500       0.873999
    15910.899000       0.873251
    15936.255000       0.872518
    15961.691900       0.871800
    15987.210200       0.871097
    16012.810200       0.870409
    16038.492400       0.869736
    16064.257000       0.869078
    16090.104600       0.868435
    16116.035500       0.867807
    16142.050000       0.867195
    16168.148700       0.866597
    16194.332000       0.866015
    16220.600200       0.865447
    16246.953700       0.864895
    16273.393000       0.864358
    16299.918500       0.863836
    16326.530600       0.863328
    16353.229800       0.862835
    16380.016400       0.862357
    16406.890900       0.861894
    16433.853700       0.861445
    16460.905300       0.861011
    16488.046200       0.860591
    16515.276600       0.860184
    16542.597200       0.859792
    16570.008300       0.859414
    16597.510400       0.859049
    16625.103900       0.858698
    16652.789300       0.858360
    16680.567100       0.858035
    16708.437800       0.857724
    16736.401700       0.857424
    16764.459300       0.857137
    16792.611300       0.856863
    16820.857900       0.856600
    16849.199700       0.856349
    16877.637100       0.856110
    16906.170800       0.855881
    16934.801000       0.855663
    16963.528400       0.855456
    16992.353400       0.855259
    17021.276600       0.855073
    17050.298400       0.854895
    17079.419300       0.854727
    17108.639900       0.854568
    17137.960600       0.854417
    17167.382000       0.854274
    17196.904600       0.854139
    17226.528900       0.854012
    17256.255400       0.853891
    17286.084700       0.853777
