 5    , ATSR modified 12 micron filter. Detector temperature 97.5K
Number of data points:
4096
Wavenumber (cm-1)   Filter response
      760.000000       0.000000
      760.040000       0.000000
      760.080000       0.000000
      760.120000       0.000000
      760.160000       0.000000
      760.200000       0.000000
      760.240000       0.000000
      760.280000       0.000000
      760.320000       0.000000
      760.360000       0.000000
      760.400000       0.000000
      760.440000       0.000000
      760.480000       0.000000
      760.520000       0.000000
      760.560000       0.000000
      760.600000       0.000000
      760.640000       0.000000
      760.680000       0.000000
      760.720000       0.000000
      760.760000       0.000000
      760.800000       0.000000
      760.840000       0.000000
      760.880000       0.000000
      760.920000       0.000000
      760.960000       0.000000
      761.000000       0.000000
      761.040000       0.000000
      761.080000       0.000000
      761.120000       0.000000
      761.160000       0.000000
      761.200000       0.000000
      761.240000       0.000000
      761.280000       0.000000
      761.320000       0.000000
      761.360000       0.000000
      761.400000       0.000000
      761.440000       0.000000
      761.480000       0.000000
      761.520000       0.000000
      761.560000       0.000000
      761.600000       0.000000
      761.640000       0.000000
      761.680000       0.000000
      761.720000       0.000000
      761.760000       0.000000
      761.800000       0.000000
      761.840000       0.000000
      761.880000       0.000000
      761.920000       0.000000
      761.960000       0.000000
      762.000000       0.000000
      762.040000       0.000000
      762.080000       0.000000
      762.120000       0.000000
      762.160000       0.000000
      762.200000       0.000000
      762.240000       0.000000
      762.280000       0.000000
      762.320000       0.000000
      762.360000       0.000000
      762.400000       0.000000
      762.440000       0.000000
      762.480000       0.000000
      762.520000       0.000000
      762.560000       0.000000
      762.600000       0.000000
      762.640000       0.000000
      762.680000       0.000000
      762.720000       0.000000
      762.760000       0.000000
      762.800000       0.000000
      762.840000       0.000000
      762.880000       0.000000
      762.920000       0.000000
      762.960000       0.000000
      763.000000       0.000000
      763.040000       0.000000
      763.080000       0.000000
      763.120000       0.000000
      763.160000       0.000021
      763.200000       0.000046
      763.240000       0.000072
      763.280000       0.000099
      763.320000       0.000127
      763.360000       0.000155
      763.400000       0.000185
      763.440000       0.000215
      763.480000       0.000246
      763.520000       0.000278
      763.560000       0.000310
      763.600000       0.000344
      763.640000       0.000378
      763.680000       0.000413
      763.720000       0.000448
      763.760000       0.000485
      763.800000       0.000522
      763.840000       0.000560
      763.880000       0.000599
      763.920000       0.000639
      763.960000       0.000679
      764.000000       0.000720
      764.040000       0.000762
      764.080000       0.000805
      764.120000       0.000848
      764.160000       0.000892
      764.200000       0.000937
      764.240000       0.000983
      764.280000       0.001029
      764.320000       0.001076
      764.360000       0.001124
      764.400000       0.001172
      764.440000       0.001221
      764.480000       0.001271
      764.520000       0.001322
      764.560000       0.001373
      764.600000       0.001424
      764.640000       0.001477
      764.680000       0.001530
      764.720000       0.001583
      764.760000       0.001638
      764.800000       0.001692
      764.840000       0.001748
      764.880000       0.001804
      764.920000       0.001860
      764.960000       0.001917
      765.000000       0.001975
      765.040000       0.002033
      765.080000       0.002092
      765.120000       0.002151
      765.160000       0.002211
      765.200000       0.002271
      765.240000       0.002331
      765.280000       0.002392
      765.320000       0.002454
      765.360000       0.002516
      765.400000       0.002578
      765.440000       0.002641
      765.480000       0.002704
      765.520000       0.002767
      765.560000       0.002831
      765.600000       0.002895
      765.640000       0.002959
      765.680000       0.003024
      765.720000       0.003089
      765.760000       0.003154
      765.800000       0.003220
      765.840000       0.003285
      765.880000       0.003351
      765.920000       0.003417
      765.960000       0.003472
      766.000000       0.003522
      766.040000       0.003573
      766.080000       0.003623
      766.120000       0.003673
      766.160000       0.003723
      766.200000       0.003773
      766.240000       0.003823
      766.280000       0.003873
      766.320000       0.003922
      766.360000       0.003972
      766.400000       0.004022
      766.440000       0.004072
      766.480000       0.004121
      766.520000       0.004171
      766.560000       0.004220
      766.600000       0.004270
      766.640000       0.004320
      766.680000       0.004369
      766.720000       0.004419
      766.760000       0.004468
      766.800000       0.004518
      766.840000       0.004567
      766.880000       0.004617
      766.920000       0.004667
      766.960000       0.004716
      767.000000       0.004766
      767.040000       0.004816
      767.080000       0.004865
      767.120000       0.004915
      767.160000       0.004965
      767.200000       0.005015
      767.240000       0.005065
      767.280000       0.005115
      767.320000       0.005165
      767.360000       0.005216
      767.400000       0.005266
      767.440000       0.005317
      767.480000       0.005367
      767.520000       0.005418
      767.560000       0.005469
      767.600000       0.005521
      767.640000       0.005572
      767.680000       0.005624
      767.720000       0.005676
      767.760000       0.005728
      767.800000       0.005780
      767.840000       0.005833
      767.880000       0.005886
      767.920000       0.005939
      767.960000       0.005992
      768.000000       0.006046
      768.040000       0.006100
      768.080000       0.006154
      768.120000       0.006209
      768.160000       0.006264
      768.200000       0.006320
      768.240000       0.006375
      768.280000       0.006432
      768.320000       0.006489
      768.360000       0.006546
      768.400000       0.006603
      768.440000       0.006661
      768.480000       0.006720
      768.520000       0.006779
      768.560000       0.006839
      768.600000       0.006899
      768.640000       0.006960
      768.680000       0.007021
      768.720000       0.007083
      768.760000       0.007147
      768.800000       0.007231
      768.840000       0.007316
      768.880000       0.007402
      768.920000       0.007488
      768.960000       0.007576
      769.000000       0.007665
      769.040000       0.007754
      769.080000       0.007845
      769.120000       0.007936
      769.160000       0.008028
      769.200000       0.008121
      769.240000       0.008215
      769.280000       0.008309
      769.320000       0.008404
      769.360000       0.008498
      769.400000       0.008594
      769.440000       0.008690
      769.480000       0.008786
      769.520000       0.008884
      769.560000       0.008982
      769.600000       0.009081
      769.640000       0.009181
      769.680000       0.009281
      769.720000       0.009382
      769.760000       0.009484
      769.800000       0.009586
      769.840000       0.009689
      769.880000       0.009793
      769.920000       0.009897
      769.960000       0.010001
      770.000000       0.010106
      770.040000       0.010212
      770.080000       0.010318
      770.120000       0.010425
      770.160000       0.010532
      770.200000       0.010640
      770.240000       0.010748
      770.280000       0.010856
      770.320000       0.010965
      770.360000       0.011074
      770.400000       0.011184
      770.440000       0.011293
      770.480000       0.011403
      770.520000       0.011514
      770.560000       0.011624
      770.600000       0.011735
      770.640000       0.011846
      770.680000       0.011957
      770.720000       0.012068
      770.760000       0.012179
      770.800000       0.012291
      770.840000       0.012403
      770.880000       0.012514
      770.920000       0.012626
      770.960000       0.012738
      771.000000       0.012849
      771.040000       0.012960
      771.080000       0.013072
      771.120000       0.013183
      771.160000       0.013294
      771.200000       0.013405
      771.240000       0.013516
      771.280000       0.013626
      771.320000       0.013736
      771.360000       0.013846
      771.400000       0.013956
      771.440000       0.014065
      771.480000       0.014173
      771.520000       0.014282
      771.560000       0.014389
      771.600000       0.014497
      771.640000       0.014581
      771.680000       0.014661
      771.720000       0.014740
      771.760000       0.014819
      771.800000       0.014896
      771.840000       0.014973
      771.880000       0.015048
      771.920000       0.015123
      771.960000       0.015196
      772.000000       0.015269
      772.040000       0.015341
      772.080000       0.015412
      772.120000       0.015482
      772.160000       0.015552
      772.200000       0.015620
      772.240000       0.015687
      772.280000       0.015754
      772.320000       0.015819
      772.360000       0.015884
      772.400000       0.015948
      772.440000       0.016011
      772.480000       0.016072
      772.520000       0.016133
      772.560000       0.016194
      772.600000       0.016253
      772.640000       0.016311
      772.680000       0.016369
      772.720000       0.016426
      772.760000       0.016482
      772.800000       0.016537
      772.840000       0.016591
      772.880000       0.016644
      772.920000       0.016697
      772.960000       0.016749
      773.000000       0.016800
      773.040000       0.016850
      773.080000       0.016900
      773.120000       0.016948
      773.160000       0.016996
      773.200000       0.017044
      773.240000       0.017090
      773.280000       0.017136
      773.320000       0.017181
      773.360000       0.017226
      773.400000       0.017269
      773.440000       0.017312
      773.480000       0.017355
      773.520000       0.017396
      773.560000       0.017438
      773.600000       0.017478
      773.640000       0.017518
      773.680000       0.017558
      773.720000       0.017597
      773.760000       0.017635
      773.800000       0.017673
      773.840000       0.017711
      773.880000       0.017748
      773.920000       0.017784
      773.960000       0.017820
      774.000000       0.017856
      774.040000       0.017891
      774.080000       0.017926
      774.120000       0.017961
      774.160000       0.017995
      774.200000       0.018029
      774.240000       0.018063
      774.280000       0.018096
      774.320000       0.018129
      774.360000       0.018162
      774.400000       0.018195
      774.440000       0.018228
      774.480000       0.018264
      774.520000       0.018318
      774.560000       0.018373
      774.600000       0.018428
      774.640000       0.018483
      774.680000       0.018538
      774.720000       0.018594
      774.760000       0.018649
      774.800000       0.018705
      774.840000       0.018761
      774.880000       0.018817
      774.920000       0.018873
      774.960000       0.018930
      775.000000       0.018986
      775.040000       0.019043
      775.080000       0.019100
      775.120000       0.019157
      775.160000       0.019214
      775.200000       0.019272
      775.240000       0.019329
      775.280000       0.019392
      775.320000       0.019458
      775.360000       0.019524
      775.400000       0.019590
      775.440000       0.019657
      775.480000       0.019723
      775.520000       0.019790
      775.560000       0.019856
      775.600000       0.019923
      775.640000       0.019990
      775.680000       0.020057
      775.720000       0.020124
      775.760000       0.020192
      775.800000       0.020259
      775.840000       0.020326
      775.880000       0.020394
      775.920000       0.020461
      775.960000       0.020529
      776.000000       0.020596
      776.040000       0.020664
      776.080000       0.020731
      776.120000       0.020798
      776.160000       0.020866
      776.200000       0.020933
      776.240000       0.021000
      776.280000       0.021068
      776.320000       0.021135
      776.360000       0.021202
      776.400000       0.021269
      776.440000       0.021336
      776.480000       0.021403
      776.520000       0.021469
      776.560000       0.021535
      776.600000       0.021602
      776.640000       0.021668
      776.680000       0.021733
      776.720000       0.021799
      776.760000       0.021864
      776.800000       0.021929
      776.840000       0.021994
      776.880000       0.022059
      776.920000       0.022123
      776.960000       0.022187
      777.000000       0.022250
      777.040000       0.022313
      777.080000       0.022376
      777.120000       0.022438
      777.160000       0.022500
      777.200000       0.022561
      777.240000       0.022622
      777.280000       0.022682
      777.320000       0.022742
      777.360000       0.022801
      777.400000       0.022840
      777.440000       0.022876
      777.480000       0.022911
      777.520000       0.022946
      777.560000       0.022979
      777.600000       0.023012
      777.640000       0.023044
      777.680000       0.023075
      777.720000       0.023105
      777.760000       0.023134
      777.800000       0.023162
      777.840000       0.023190
      777.880000       0.023217
      777.920000       0.023243
      777.960000       0.023268
      778.000000       0.023292
      778.040000       0.023316
      778.080000       0.023339
      778.120000       0.023361
      778.160000       0.023382
      778.200000       0.023403
      778.240000       0.023423
      778.280000       0.023442
      778.320000       0.023460
      778.360000       0.023478
      778.400000       0.023495
      778.440000       0.023512
      778.480000       0.023528
      778.520000       0.023543
      778.560000       0.023557
      778.600000       0.023571
      778.640000       0.023585
      778.680000       0.023597
      778.720000       0.023610
      778.760000       0.023621
      778.800000       0.023632
      778.840000       0.023643
      778.880000       0.023653
      778.920000       0.023663
      778.960000       0.023672
      779.000000       0.023681
      779.040000       0.023689
      779.080000       0.023697
      779.120000       0.023704
      779.160000       0.023711
      779.200000       0.023718
      779.240000       0.023724
      779.280000       0.023731
      779.320000       0.023737
      779.360000       0.023742
      779.400000       0.023748
      779.440000       0.023753
      779.480000       0.023758
      779.520000       0.023762
      779.560000       0.023767
      779.600000       0.023772
      779.640000       0.023776
      779.680000       0.023780
      779.720000       0.023785
      779.760000       0.023789
      779.800000       0.023793
      779.840000       0.023798
      779.880000       0.023802
      779.920000       0.023807
      779.960000       0.023811
      780.000000       0.023816
      780.040000       0.023821
      780.080000       0.023826
      780.120000       0.023832
      780.160000       0.023838
      780.200000       0.023844
      780.240000       0.023850
      780.280000       0.023859
      780.320000       0.023883
      780.360000       0.023908
      780.400000       0.023934
      780.440000       0.023960
      780.480000       0.023987
      780.520000       0.024015
      780.560000       0.024043
      780.600000       0.024072
      780.640000       0.024102
      780.680000       0.024133
      780.720000       0.024164
      780.760000       0.024196
      780.800000       0.024229
      780.840000       0.024263
      780.880000       0.024298
      780.920000       0.024333
      780.960000       0.024369
      781.000000       0.024406
      781.040000       0.024444
      781.080000       0.024483
      781.120000       0.024522
      781.160000       0.024563
      781.200000       0.024604
      781.240000       0.024646
      781.280000       0.024689
      781.320000       0.024733
      781.360000       0.024778
      781.400000       0.024820
      781.440000       0.024860
      781.480000       0.024902
      781.520000       0.024945
      781.560000       0.024988
      781.600000       0.025033
      781.640000       0.025078
      781.680000       0.025125
      781.720000       0.025172
      781.760000       0.025221
      781.800000       0.025270
      781.840000       0.025320
      781.880000       0.025372
      781.920000       0.025424
      781.960000       0.025478
      782.000000       0.025532
      782.040000       0.025588
      782.080000       0.025644
      782.120000       0.025702
      782.160000       0.025760
      782.200000       0.025820
      782.240000       0.025881
      782.280000       0.025943
      782.320000       0.026006
      782.360000       0.026070
      782.400000       0.026135
      782.440000       0.026201
      782.480000       0.026268
      782.520000       0.026337
      782.560000       0.026406
      782.600000       0.026477
      782.640000       0.026549
      782.680000       0.026622
      782.720000       0.026696
      782.760000       0.026771
      782.800000       0.026847
      782.840000       0.026925
      782.880000       0.027003
      782.920000       0.027083
      782.960000       0.027164
      783.000000       0.027245
      783.040000       0.027329
      783.080000       0.027413
      783.120000       0.027498
      783.160000       0.027585
      783.200000       0.027673
      783.240000       0.027763
      783.280000       0.027855
      783.320000       0.027948
      783.360000       0.028042
      783.400000       0.028138
      783.440000       0.028234
      783.480000       0.028332
      783.520000       0.028431
      783.560000       0.028531
      783.600000       0.028633
      783.640000       0.028736
      783.680000       0.028839
      783.720000       0.028944
      783.760000       0.029050
      783.800000       0.029158
      783.840000       0.029266
      783.880000       0.029376
      783.920000       0.029487
      783.960000       0.029599
      784.000000       0.029712
      784.040000       0.029826
      784.080000       0.029942
      784.120000       0.030058
      784.160000       0.030176
      784.200000       0.030295
      784.240000       0.030415
      784.280000       0.030536
      784.320000       0.030659
      784.360000       0.030782
      784.400000       0.030907
      784.440000       0.031032
      784.480000       0.031159
      784.520000       0.031287
      784.560000       0.031416
      784.600000       0.031546
      784.640000       0.031677
      784.680000       0.031810
      784.720000       0.031943
      784.760000       0.032078
