32,   32, MVIRI VIS channel from srf_MET5_1995078_1995079_1801-Release_S10EL_10.dat
Number of data points:
806
Wavenumber (cm-1)   Filter response
     8350.730700       0.000000
     8357.710000       0.000000
     8364.701000       0.000000
     8371.703600       0.000001
     8378.718100       0.000004
     8385.744200       0.000009
     8392.782200       0.000016
     8399.832000       0.000026
     8406.893700       0.000040
     8413.967200       0.000059
     8421.052600       0.000081
     8428.150000       0.000109
     8435.259400       0.000142
     8442.380800       0.000181
     8449.514200       0.000227
     8456.659600       0.000279
     8463.817200       0.000338
     8470.986900       0.000405
     8478.168700       0.000480
     8485.362700       0.000563
     8492.569000       0.000655
     8499.787500       0.000755
     8507.018300       0.000864
     8514.261400       0.000984
     8521.516800       0.001112
     8528.784600       0.001251
     8536.064900       0.001401
     8543.357500       0.001560
     8550.662700       0.001731
     8557.980300       0.001913
     8565.310500       0.002106
     8572.653200       0.002311
     8580.008600       0.002528
     8587.376600       0.002757
     8594.757200       0.002998
     8602.150500       0.003251
     8609.556600       0.003517
     8616.975400       0.003796
     8624.407100       0.004088
     8631.851500       0.004394
     8639.308900       0.004713
     8646.779100       0.005045
     8654.262200       0.005391
     8661.758300       0.005751
     8669.267400       0.006125
     8676.789600       0.006514
     8684.324800       0.006916
     8691.873100       0.007334
     8699.434500       0.007766
     8707.009100       0.008213
     8714.596900       0.008675
     8722.198000       0.009152
     8729.812300       0.009644
     8737.439900       0.010152
     8745.080900       0.010675
     8752.735200       0.011214
     8760.403000       0.011769
     8768.084200       0.012339
     8775.778900       0.012926
     8783.487000       0.013529
     8791.208800       0.014148
     8798.944100       0.014783
     8806.693100       0.015435
     8814.455700       0.016104
     8822.232000       0.016790
     8830.022100       0.017492
     8837.825900       0.018211
     8845.643500       0.018947
     8853.475000       0.019701
     8861.320300       0.020472
     8869.179600       0.021260
     8877.052800       0.022066
     8884.940000       0.022889
     8892.841300       0.023730
     8900.756600       0.024589
     8908.686000       0.025466
     8916.629500       0.026361
     8924.587200       0.027274
     8932.559200       0.028206
     8940.545400       0.029156
     8948.545900       0.030124
     8956.560700       0.031111
     8964.589900       0.032116
     8972.633500       0.033141
     8980.691500       0.034184
     8988.764000       0.035246
     8996.851100       0.036327
     9004.952700       0.037428
     9013.068900       0.038547
     9021.199800       0.039687
     9029.345400       0.040845
     9037.505600       0.042023
     9045.680700       0.043221
     9053.870500       0.044439
     9062.075200       0.045677
     9070.294800       0.046934
     9078.529300       0.048212
     9086.778700       0.049510
     9095.043200       0.050828
     9103.322700       0.052166
     9111.617300       0.053526
     9119.927000       0.054905
     9128.251900       0.056305
     9136.592100       0.057726
     9144.947400       0.059168
     9153.318100       0.060631
     9161.704100       0.062115
     9170.105500       0.063620
     9178.522300       0.065146
     9186.954500       0.066693
     9195.402300       0.068262
     9203.865600       0.069852
     9212.344500       0.071464
     9220.839100       0.073098
     9229.349300       0.074753
     9237.875300       0.076430
     9246.417000       0.078129
     9254.974500       0.079850
     9263.547900       0.081593
     9272.137200       0.083358
     9280.742500       0.085145
     9289.363700       0.086955
     9298.000900       0.088787
     9306.654300       0.090641
     9315.323700       0.092518
     9324.009300       0.094417
     9332.711200       0.096339
     9341.429200       0.098284
     9350.163600       0.100251
     9358.914400       0.102242
     9367.681500       0.104255
     9376.465100       0.106291
     9385.265100       0.108350
     9394.081700       0.110432
     9402.914900       0.112537
     9411.764700       0.114665
     9420.631200       0.116817
     9429.514400       0.118991
     9438.414300       0.121189
     9447.331100       0.123410
     9456.264800       0.125655
     9465.215300       0.127923
     9474.182900       0.130214
     9483.167400       0.132529
     9492.169000       0.134867
     9501.187600       0.137229
     9510.223500       0.139614
     9519.276500       0.142022
     9528.346800       0.144455
     9537.434400       0.146910
     9546.539400       0.149389
     9555.661700       0.151892
     9564.801500       0.154418
     9573.958800       0.156968
     9583.133700       0.159541
     9592.326100       0.162138
     9601.536200       0.164759
     9610.764100       0.167402
     9620.009600       0.170069
     9629.273000       0.172760
     9638.554200       0.175474
     9647.853400       0.178212
     9657.170400       0.180973
     9666.505600       0.183757
     9675.858700       0.186565
     9685.230000       0.189395
     9694.619500       0.192249
     9704.027200       0.195126
     9713.453100       0.198026
     9722.897400       0.200950
     9732.360100       0.203896
     9741.841200       0.206865
     9751.340800       0.209856
     9760.859000       0.212871
     9770.395700       0.215909
     9779.951100       0.218968
     9789.525200       0.222051
     9799.118100       0.225156
     9808.729800       0.228283
     9818.360300       0.231432
     9828.009800       0.234603
     9837.678300       0.237797
     9847.365800       0.241013
     9857.072400       0.244250
     9866.798200       0.247509
     9876.543200       0.250789
     9886.307500       0.254091
     9896.091000       0.257414
     9905.894000       0.260758
     9915.716400       0.264124
     9925.558300       0.267510
     9935.419800       0.270917
     9945.300800       0.274344
     9955.201600       0.277792
     9965.122100       0.281260
     9975.062300       0.284748
     9985.022500       0.288257
     9995.002500       0.291785
    10005.002500       0.295332
    10015.022500       0.298899
    10025.062700       0.302485
    10035.122900       0.306090
    10045.203400       0.309714
    10055.304200       0.313357
    10065.425300       0.317018
    10075.566800       0.320697
    10085.728700       0.324394
    10095.911200       0.328109
    10106.114200       0.331842
    10116.337900       0.335592
    10126.582300       0.339359
    10136.847400       0.343143
    10147.133400       0.346943
    10157.440300       0.350760
    10167.768200       0.354593
    10178.117000       0.358443
    10188.487000       0.362307
    10198.878100       0.366188
    10209.290500       0.370083
    10219.724100       0.373993
    10230.179000       0.377918
    10240.655400       0.381858
    10251.153300       0.385811
    10261.672700       0.389778
    10272.213700       0.393759
    10282.776300       0.397753
    10293.360800       0.401760
    10303.967000       0.405780
    10314.595200       0.409812
    10325.245200       0.413856
    10335.917300       0.417912
    10346.611500       0.421979
    10357.327800       0.426058
    10368.066400       0.430147
    10378.827200       0.434247
    10389.610400       0.438357
    10400.416000       0.442477
    10411.244100       0.446607
    10422.094800       0.450746
    10432.968200       0.454894
    10443.864200       0.459050
    10454.783100       0.463215
    10465.724800       0.467387
    10476.689400       0.471567
    10487.677000       0.475755
    10498.687700       0.479949
    10509.721500       0.484149
    10520.778500       0.488356
    10531.858900       0.492569
    10542.962600       0.496787
    10554.089700       0.501011
    10565.240400       0.505238
    10576.414600       0.509471
    10587.612500       0.513707
    10598.834100       0.517947
    10610.079600       0.522190
    10621.348900       0.526437
    10632.642200       0.530685
    10643.959600       0.534936
    10655.301000       0.539189
    10666.666700       0.543442
    10678.056600       0.547697
    10689.470900       0.551953
    10700.909600       0.556209
    10712.372800       0.560464
    10723.860600       0.564719
    10735.373100       0.568973
    10746.910300       0.573226
    10758.472300       0.577477
    10770.059200       0.581726
    10781.671200       0.585973
    10793.308100       0.590216
    10804.970300       0.594457
    10816.657700       0.598693
    10828.370300       0.602926
    10840.108400       0.607154
    10851.871900       0.611377
    10863.661100       0.615595
    10875.475800       0.619807
    10887.316300       0.624013
    10899.182600       0.628212
    10911.074700       0.632405
    10922.992900       0.636591
    10934.937100       0.640768
    10946.907500       0.644938
    10958.904100       0.649099
    10970.927000       0.653251
    10982.976400       0.657394
    10995.052200       0.661528
    11007.154700       0.665651
    11019.283700       0.669763
    11031.439600       0.673865
    11043.622300       0.677956
    11055.832000       0.682035
    11068.068600       0.686102
    11080.332400       0.690156
    11092.623400       0.694198
    11104.941700       0.698226
    11117.287400       0.702240
    11129.660500       0.706241
    11142.061300       0.710227
    11154.489700       0.714199
    11166.945800       0.718155
    11179.429800       0.722095
    11191.941800       0.726020
    11204.481800       0.729929
    11217.049900       0.733820
    11229.646300       0.737695
    11242.270900       0.741551
    11254.924000       0.745391
    11267.605600       0.749212
    11280.315800       0.753014
    11293.054800       0.756797
    11305.822500       0.760562
    11318.619100       0.764306
    11331.444800       0.768030
    11344.299500       0.771734
    11357.183400       0.775418
    11370.096600       0.779080
    11383.039300       0.782721
    11396.011400       0.786339
    11409.013100       0.789936
    11422.044500       0.793510
    11435.105800       0.797062
    11448.196900       0.800590
    11461.318100       0.804095
    11474.469300       0.807576
    11487.650800       0.811033
    11500.862600       0.814465
    11514.104800       0.817873
    11527.377500       0.821255
    11540.680900       0.824612
    11554.015000       0.827944
    11567.380000       0.831249
    11580.775900       0.834528
    11594.202900       0.837781
    11607.661100       0.841007
    11621.150500       0.844205
    11634.671300       0.847376
    11648.223600       0.850519
    11661.807600       0.853635
    11675.423200       0.856722
    11689.070700       0.859780
    11702.750100       0.862810
    11716.461600       0.865810
    11730.205300       0.868781
    11743.981200       0.871723
    11757.789500       0.874635
    11771.630400       0.877517
    11785.503800       0.880368
    11799.410000       0.883189
    11813.349100       0.885980
    11827.321100       0.888739
    11841.326200       0.891467
    11855.364600       0.894164
    11869.436200       0.896829
    11883.541300       0.899463
    11897.680000       0.902064
    11911.852300       0.904634
    11926.058400       0.907170
    11940.298500       0.909675
    11954.572600       0.912147
    11968.880900       0.914586
    11983.223500       0.916991
    11997.600500       0.919364
    12012.012000       0.921704
    12026.458200       0.924009
    12040.939200       0.926282
    12055.455100       0.928520
    12070.006000       0.930725
    12084.592100       0.932896
    12099.213600       0.935032
    12113.870400       0.937134
    12128.562800       0.939202
    12143.290800       0.941236
    12158.054700       0.943235
    12172.854500       0.945199
    12187.690400       0.947129
    12202.562500       0.949024
    12217.471000       0.950884
    12232.415900       0.952709
    12247.397400       0.954499
    12262.415700       0.956254
    12277.470800       0.957974
    12292.563000       0.959659
    12307.692300       0.961309
    12322.858900       0.962923
    12338.062900       0.964503
    12353.304500       0.966047
    12368.583800       0.967556
    12383.900900       0.969030
    12399.256000       0.970468
    12414.649300       0.971871
    12430.080800       0.973239
    12445.550700       0.974572
    12461.059200       0.975870
    12476.606400       0.977132
    12492.192400       0.978360
    12507.817400       0.979552
    12523.481500       0.980710
    12539.185000       0.981832
    12554.927800       0.982920
    12570.710200       0.983972
    12586.532400       0.984990
    12602.394500       0.985974
    12618.296500       0.986923
    12634.238800       0.987837
    12650.221400       0.988717
    12666.244500       0.989562
    12682.308200       0.990374
    12698.412700       0.991151
    12714.558200       0.991895
    12730.744700       0.992605
    12746.972600       0.993281
    12763.241900       0.993923
    12779.552700       0.994532
    12795.905300       0.995108
    12812.299800       0.995651
    12828.736400       0.996161
    12845.215200       0.996638
    12861.736300       0.997083
    12878.300100       0.997495
    12894.906500       0.997875
    12911.555800       0.998223
    12928.248200       0.998539
    12944.983800       0.998824
    12961.762800       0.999077
    12978.585300       0.999299
    12995.451600       0.999491
    13012.361700       0.999651
    13029.316000       0.999781
    13046.314400       0.999880
    13063.357300       0.999950
    13080.444700       0.999990
    13097.576900       1.000000
    13114.754100       0.999981
    13131.976400       0.999933
    13149.243900       0.999856
    13166.556900       0.999751
    13183.915600       0.999617
    13201.320100       0.999456
    13218.770700       0.999267
    13236.267400       0.999050
    13253.810500       0.998807
    13271.400100       0.998537
    13289.036500       0.998240
    13306.719900       0.997917
    13324.450400       0.997568
    13342.228200       0.997194
    13360.053400       0.996795
    13377.926400       0.996371
    13395.847300       0.995922
    13413.816200       0.995449
    13431.833400       0.994952
    13449.899100       0.994431
    13468.013500       0.993888
    13486.176700       0.993321
    13504.388900       0.992732
    13522.650400       0.992121
    13540.961400       0.991488
    13559.322000       0.990834
    13577.732500       0.990158
    13596.193100       0.989462
    13614.703900       0.988746
    13633.265200       0.988009
    13651.877100       0.987253
    13670.540000       0.986478
    13689.253900       0.985684
    13708.019200       0.984872
    13726.836000       0.984042
    13745.704500       0.983194
    13764.624900       0.982328
    13783.597500       0.981446
    13802.622500       0.980548
    13821.700100       0.979633
    13840.830400       0.978703
    13860.013900       0.977757
    13879.250500       0.976797
    13898.540700       0.975822
    13917.884500       0.974833
    13937.282200       0.973831
    13956.734100       0.972815
    13976.240400       0.971786
    13995.801300       0.970745
    14015.417000       0.969692
    14035.087700       0.968628
    14054.813800       0.967552
    14074.595400       0.966466
    14094.432700       0.965369
    14114.326000       0.964263
    14134.275600       0.963147
    14154.281700       0.962022
    14174.344400       0.960888
    14194.464200       0.959746
    14214.641100       0.958597
    14234.875400       0.957439
    14255.167500       0.956275
    14275.517500       0.955105
    14295.925700       0.953928
    14316.392300       0.952746
    14336.917600       0.951558
    14357.501800       0.950365
    14378.145200       0.949168
    14398.848100       0.947967
    14419.610700       0.946762
    14440.433200       0.945554
    14461.316000       0.944344
    14482.259200       0.943130
    14503.263200       0.941915
    14524.328200       0.940698
    14545.454500       0.939480
    14566.642400       0.938262
    14587.892000       0.937042
    14609.203800       0.935823
    14630.577900       0.934604
    14652.014700       0.933386
    14673.514300       0.932170
    14695.077100       0.930954
    14716.703500       0.929741
    14738.393500       0.928530
    14760.147600       0.927322
    14781.966000       0.926116
    14803.849000       0.924914
    14825.796900       0.923716
    14847.809900       0.922523
    14869.888500       0.921333
    14892.032800       0.920149
    14914.243100       0.918970
    14936.519800       0.917796
    14958.863100       0.916628
    14981.273400       0.915467
    15003.750900       0.914312
    15026.296000       0.913164
    15048.909000       0.912024
    15071.590100       0.910890
    15094.339600       0.909765
    15117.158000       0.908648
    15140.045400       0.907540
    15163.002300       0.906440
    15186.028900       0.905350
    15209.125500       0.904269
    15232.292500       0.903197
    15255.530100       0.902136
    15278.838800       0.901084
    15302.218800       0.900044
    15325.670500       0.899014
    15349.194200       0.897995
    15372.790200       0.896987
    15396.458800       0.895991
    15420.200500       0.895006
    15444.015400       0.894033
    15467.904100       0.893073
    15491.866800       0.892125
    15515.903800       0.891190
    15540.015500       0.890267
    15564.202300       0.889357
    15588.464500       0.888461
    15612.802500       0.887578
    15637.216600       0.886709
    15661.707100       0.885853
    15686.274500       0.885011
    15710.919100       0.884183
    15735.641200       0.883369
    15760.441300       0.882570
    15785.319700       0.881784
    15810.276700       0.881014
    15835.312700       0.880258
    15860.428200       0.879517
    15885.623500       0.878790
    15910.899000       0.878078
    15936.255000       0.877382
    15961.691900       0.876700
    15987.210200       0.876034
    16012.810200       0.875383
    16038.492400       0.874746
    16064.257000       0.874125
    16090.104600       0.873520
    16116.035500       0.872929
    16142.050000       0.872354
    16168.148700       0.871794
    16194.332000       0.871249
    16220.600200       0.870720
    16246.953700       0.870205
    16273.393000       0.869706
    16299.918500       0.869222
    16326.530600       0.868753
    16353.229800       0.868298
    16380.016400       0.867859
    16406.890900       0.867434
    16433.853700       0.867024
    16460.905300       0.866628
    16488.046200       0.866247
    16515.276600       0.865880
    16542.597200       0.865527
    16570.008300       0.865188
    16597.510400       0.864863
    16625.103900       0.864551
    16652.789300       0.864253
    16680.567100       0.863968
    16708.437800       0.863697
    16736.401700       0.863438
    16764.459300       0.863191
    16792.611300       0.862957
    16820.857900       0.862735
    16849.199700       0.862525
    16877.637100       0.862326
    16906.170800       0.862139
    16934.801000       0.861962
    16963.528400       0.861797
    16992.353400       0.861641
    17021.276600       0.861496
    17050.298400       0.861360
    17079.419300       0.861234
    17108.639900       0.861117
    17137.960600       0.861008
    17167.382000       0.860908
    17196.904600       0.860816
    17226.528900       0.860731
    17256.255400       0.860653
    17286.084700       0.860581
