15, GOES 12.3um ABI FM3 SRF CWG processed March 10, 2016
Number of data points:
1438
Wavenumber (cm-1)   Filter response
      752.100000       0.001051
      752.200000       0.001130
      752.300000       0.001190
      752.400000       0.001255
      752.500000       0.001328
      752.600000       0.001393
      752.700000       0.001458
      752.800000       0.001525
      752.900000       0.001597
      753.000000       0.001659
      753.100000       0.001640
      753.200000       0.001616
      753.300000       0.001581
      753.400000       0.001016
      753.500000       0.001142
      753.600000       0.001250
      753.700000       0.001352
      753.800000       0.001455
      753.900000       0.001558
      754.000000       0.001661
      754.100000       0.001764
      754.200000       0.001867
      754.300000       0.001970
      754.400000       0.002078
      754.500000       0.002113
      754.600000       0.002074
      754.700000       0.002036
      754.800000       0.001998
      754.900000       0.001960
      755.000000       0.001922
      755.100000       0.001884
      755.200000       0.001845
      755.300000       0.001806
      755.400000       0.001789
      755.500000       0.001862
      755.600000       0.001942
      755.700000       0.002023
      755.800000       0.002103
      755.900000       0.002184
      756.000000       0.002265
      756.100000       0.002345
      756.200000       0.002426
      756.300000       0.002510
      756.400000       0.002546
      756.500000       0.002571
      756.600000       0.002597
      756.700000       0.002623
      756.800000       0.002649
      756.900000       0.002675
      757.000000       0.002700
      757.100000       0.002726
      757.200000       0.002751
      757.300000       0.002861
      757.400000       0.003098
      757.500000       0.003331
      757.600000       0.003564
      757.700000       0.003797
      757.800000       0.004030
      757.900000       0.004264
      758.000000       0.004497
      758.100000       0.004730
      758.200000       0.004950
      758.300000       0.005051
      758.400000       0.005149
      758.500000       0.005247
      758.600000       0.005344
      758.700000       0.005442
      758.800000       0.005539
      758.900000       0.005636
      759.000000       0.005731
      759.100000       0.005824
      759.200000       0.005821
      759.300000       0.005772
      759.400000       0.005725
      759.500000       0.005677
      759.600000       0.005630
      759.700000       0.005583
      759.800000       0.005536
      759.900000       0.005489
      760.000000       0.005441
      760.100000       0.005335
      760.200000       0.005138
      760.300000       0.004938
      760.400000       0.004738
      760.500000       0.004539
      760.600000       0.004339
      760.700000       0.004140
      760.800000       0.003941
      760.900000       0.003741
      761.000000       0.003587
      761.100000       0.003648
      761.200000       0.003747
      761.300000       0.003845
      761.400000       0.003943
      761.500000       0.004042
      761.600000       0.004140
      761.700000       0.004239
      761.800000       0.004337
      761.900000       0.004433
      762.000000       0.004437
      762.100000       0.004389
      762.200000       0.004343
      762.300000       0.004297
      762.400000       0.004250
      762.500000       0.004203
      762.600000       0.004157
      762.700000       0.004111
      762.800000       0.004062
      762.900000       0.004057
      763.000000       0.004124
      763.100000       0.004192
      763.200000       0.004260
      763.300000       0.004329
      763.400000       0.004397
      763.500000       0.004465
      763.600000       0.004533
      763.700000       0.004601
      763.800000       0.004648
      763.900000       0.004582
      764.000000       0.004494
      764.100000       0.004406
      764.200000       0.004317
      764.300000       0.004228
      764.400000       0.004140
      764.500000       0.004051
      764.600000       0.003963
      764.700000       0.003873
      764.800000       0.003956
      764.900000       0.004142
      765.000000       0.004326
      765.100000       0.004509
      765.200000       0.004692
      765.300000       0.004876
      765.400000       0.005060
      765.500000       0.005243
      765.600000       0.005427
      765.700000       0.005615
      765.800000       0.005816
      765.900000       0.006017
      766.000000       0.006217
      766.100000       0.006418
      766.200000       0.006619
      766.300000       0.006820
      766.400000       0.007021
      766.500000       0.007222
      766.600000       0.007432
      766.700000       0.007712
      766.800000       0.008006
      766.900000       0.008301
      767.000000       0.008596
      767.100000       0.008891
      767.200000       0.009186
      767.300000       0.009481
      767.400000       0.009776
      767.500000       0.010072
      767.600000       0.010303
      767.700000       0.010483
      767.800000       0.010664
      767.900000       0.010848
      768.000000       0.011030
      768.100000       0.011212
      768.200000       0.011395
      768.300000       0.011578
      768.400000       0.011761
      768.500000       0.012045
      768.600000       0.012622
      768.700000       0.013205
      768.800000       0.013788
      768.900000       0.014369
      769.000000       0.014950
      769.100000       0.015530
      769.200000       0.016109
      769.300000       0.016685
      769.400000       0.017255
      769.500000       0.017777
      769.600000       0.018285
      769.700000       0.018792
      769.800000       0.019299
      769.900000       0.019805
      770.000000       0.020310
      770.100000       0.020814
      770.200000       0.021317
      770.300000       0.021821
      770.400000       0.022221
      770.500000       0.022533
      770.600000       0.022846
      770.700000       0.023158
      770.800000       0.023466
      770.900000       0.023753
      771.000000       0.024039
      771.100000       0.024328
      771.200000       0.024618
      771.300000       0.024913
      771.400000       0.025338
      771.500000       0.025823
      771.600000       0.026304
      771.700000       0.026784
      771.800000       0.027265
      771.900000       0.027746
      772.000000       0.028228
      772.100000       0.028709
      772.200000       0.029190
      772.300000       0.029663
      772.400000       0.030341
      772.500000       0.031191
      772.600000       0.032034
      772.700000       0.032876
      772.800000       0.033717
      772.900000       0.034553
      773.000000       0.035393
      773.100000       0.036233
      773.200000       0.037068
      773.300000       0.037903
      773.400000       0.038837
      773.500000       0.039928
      773.600000       0.041019
      773.700000       0.042115
      773.800000       0.043206
      773.900000       0.044301
      774.000000       0.045396
      774.100000       0.046493
      774.200000       0.047562
      774.300000       0.048599
      774.400000       0.049671
      774.500000       0.050932
      774.600000       0.052227
      774.700000       0.053523
      774.800000       0.054820
      774.900000       0.056117
      775.000000       0.057414
      775.100000       0.058711
      775.200000       0.060003
      775.300000       0.061302
      775.400000       0.062595
      775.500000       0.064054
      775.600000       0.065938
      775.700000       0.067858
      775.800000       0.069778
      775.900000       0.071702
      776.000000       0.073630
      776.100000       0.075554
      776.200000       0.077490
      776.300000       0.079428
      776.400000       0.081372
      776.500000       0.083312
      776.600000       0.085409
      776.700000       0.087721
      776.800000       0.090039
      776.900000       0.092353
      777.000000       0.094661
      777.100000       0.096974
      777.200000       0.099285
      777.300000       0.101599
      777.400000       0.103911
      777.500000       0.106221
      777.600000       0.108516
      777.700000       0.111083
      777.800000       0.113854
      777.900000       0.116620
      778.000000       0.119386
      778.100000       0.122152
      778.200000       0.124921
      778.300000       0.127685
      778.400000       0.130449
      778.500000       0.133214
      778.600000       0.135977
      778.700000       0.138751
      778.800000       0.141982
      778.900000       0.145412
      779.000000       0.148847
      779.100000       0.152278
      779.200000       0.155684
      779.300000       0.159107
      779.400000       0.162510
      779.500000       0.165928
      779.600000       0.169338
      779.700000       0.172745
      779.800000       0.176260
      779.900000       0.180405
      780.000000       0.184687
      780.100000       0.188967
      780.200000       0.193230
      780.300000       0.197504
      780.400000       0.201776
      780.500000       0.206040
      780.600000       0.210301
      780.700000       0.214556
      780.800000       0.218796
      780.900000       0.223320
      781.000000       0.228461
      781.100000       0.233644
      781.200000       0.238828
      781.300000       0.244035
      781.400000       0.249248
      781.500000       0.254462
      781.600000       0.259678
      781.700000       0.264894
      781.800000       0.270110
      781.900000       0.275310
      782.000000       0.280812
      782.100000       0.286600
      782.200000       0.292256
      782.300000       0.297853
      782.400000       0.303451
      782.500000       0.309047
      782.600000       0.314649
      782.700000       0.320257
      782.800000       0.325875
      782.900000       0.331499
      783.000000       0.337110
      783.100000       0.343043
      783.200000       0.349344
      783.300000       0.355663
      783.400000       0.361988
      783.500000       0.368317
      783.600000       0.374645
      783.700000       0.380966
      783.800000       0.387243
      783.900000       0.393566
      784.000000       0.399887
      784.100000       0.406200
      784.200000       0.412628
      784.300000       0.419328
      784.400000       0.425981
      784.500000       0.432674
      784.600000       0.439341
      784.700000       0.445997
      784.800000       0.452684
      784.900000       0.459326
      785.000000       0.465968
      785.100000       0.472599
      785.200000       0.479235
      785.300000       0.485922
      785.400000       0.492721
      785.500000       0.499545
      785.600000       0.506375
      785.700000       0.513209
      785.800000       0.520045
      785.900000       0.526850
      786.000000       0.533609
      786.100000       0.540438
      786.200000       0.547230
      786.300000       0.554019
      786.400000       0.560834
      786.500000       0.567463
      786.600000       0.574026
      786.700000       0.580592
      786.800000       0.587163
      786.900000       0.593731
      787.000000       0.600296
      787.100000       0.606844
      787.200000       0.613394
      787.300000       0.619931
      787.400000       0.626464
      787.500000       0.632978
      787.600000       0.639374
      787.700000       0.645581
      787.800000       0.651745
      787.900000       0.657897
      788.000000       0.664053
      788.100000       0.670195
      788.200000       0.676341
      788.300000       0.682475
      788.400000       0.688604
      788.500000       0.694625
      788.600000       0.700764
      788.700000       0.706943
      788.800000       0.712663
      788.900000       0.718256
      789.000000       0.723910
      789.100000       0.729497
      789.200000       0.734943
      789.300000       0.740504
      789.400000       0.746117
      789.500000       0.751767
      789.600000       0.757358
      789.700000       0.763050
      789.800000       0.768717
      789.900000       0.774294
      790.000000       0.779452
      790.100000       0.784474
      790.200000       0.789519
      790.300000       0.794467
      790.400000       0.799495
      790.500000       0.804483
      790.600000       0.809452
      790.700000       0.814416
      790.800000       0.819372
      790.900000       0.824319
      791.000000       0.829189
      791.100000       0.833822
      791.200000       0.837924
      791.300000       0.841822
      791.400000       0.845699
      791.500000       0.849562
      791.600000       0.853412
      791.700000       0.857256
      791.800000       0.861087
      791.900000       0.864899
      792.000000       0.868705
      792.100000       0.872493
      792.200000       0.876272
      792.300000       0.879982
      792.400000       0.883299
      792.500000       0.886491
      792.600000       0.889675
      792.700000       0.892848
      792.800000       0.896018
      792.900000       0.899180
      793.000000       0.902329
      793.100000       0.905473
      793.200000       0.908614
      793.300000       0.911719
      793.400000       0.914811
      793.500000       0.917868
      793.600000       0.920386
      793.700000       0.922739
      793.800000       0.925118
      793.900000       0.927532
      794.000000       0.929956
      794.100000       0.932384
      794.200000       0.934825
      794.300000       0.937267
      794.400000       0.939718
      794.500000       0.942189
      794.600000       0.944665
      794.700000       0.947149
      794.800000       0.948866
      794.900000       0.950435
      795.000000       0.952009
      795.100000       0.953572
      795.200000       0.955024
      795.300000       0.956587
      795.400000       0.958060
      795.500000       0.959580
      795.600000       0.961123
      795.700000       0.962646
      795.800000       0.964162
      795.900000       0.965626
      796.000000       0.966556
      796.100000       0.967301
      796.200000       0.968043
      796.300000       0.968682
      796.400000       0.969404
      796.500000       0.970133
      796.600000       0.970851
      796.700000       0.971552
      796.800000       0.971876
      796.900000       0.972052
      797.000000       0.972231
      797.100000       0.972384
      797.200000       0.972391
      797.300000       0.972324
      797.400000       0.972257
      797.500000       0.972188
      797.600000       0.972121
      797.700000       0.972070
      797.800000       0.972007
      797.900000       0.971951
      798.000000       0.971654
      798.100000       0.971564
      798.200000       0.971536
      798.300000       0.971509
      798.400000       0.971274
      798.500000       0.970952
      798.600000       0.970647
      798.700000       0.970362
      798.800000       0.970106
      798.900000       0.969907
      799.000000       0.969761
      799.100000       0.969641
      799.200000       0.969552
      799.300000       0.969473
      799.400000       0.969385
      799.500000       0.969297
      799.600000       0.969034
      799.700000       0.968668
      799.800000       0.968289
      799.900000       0.967893
      800.000000       0.967488
      800.100000       0.967053
      800.200000       0.966611
      800.300000       0.966144
      800.400000       0.965671
      800.500000       0.965198
      800.600000       0.964725
      800.700000       0.964150
      800.800000       0.963550
      800.900000       0.962835
      801.000000       0.962129
      801.100000       0.961424
      801.200000       0.960709
      801.300000       0.959986
      801.400000       0.959264
      801.500000       0.958545
      801.600000       0.957818
      801.700000       0.957076
      801.800000       0.956324
      801.900000       0.955534
      802.000000       0.954700
      802.100000       0.953807
      802.200000       0.952894
      802.300000       0.951959
      802.400000       0.951002
      802.500000       0.949978
      802.600000       0.949246
      802.700000       0.948615
      802.800000       0.947971
      802.900000       0.947358
      803.000000       0.946774
      803.100000       0.946196
      803.200000       0.945684
      803.300000       0.945239
      803.400000       0.944800
      803.500000       0.944355
      803.600000       0.943895
      803.700000       0.943442
      803.800000       0.942989
      803.900000       0.942525
      804.000000       0.942058
      804.100000       0.941580
      804.200000       0.941106
      804.300000       0.940637
      804.400000       0.940112
      804.500000       0.939805
      804.600000       0.939520
      804.700000       0.939271
      804.800000       0.939058
      804.900000       0.938890
      805.000000       0.938752
      805.100000       0.938664
      805.200000       0.938590
      805.300000       0.938583
      805.400000       0.938601
      805.500000       0.938637
      805.600000       0.938593
      805.700000       0.938626
      805.800000       0.938621
      805.900000       0.938590
      806.000000       0.938550
      806.100000       0.938512
      806.200000       0.938443
      806.300000       0.938335
      806.400000       0.938184
      806.500000       0.937986
      806.600000       0.937778
      806.700000       0.937476
      806.800000       0.937216
      806.900000       0.936911
      807.000000       0.936576
      807.100000       0.936242
      807.200000       0.935868
      807.300000       0.935393
      807.400000       0.935018
      807.500000       0.934633
      807.600000       0.934243
      807.700000       0.933846
      807.800000       0.933431
      807.900000       0.932969
      808.000000       0.932526
      808.100000       0.932221
      808.200000       0.931922
      808.300000       0.931517
      808.400000       0.931250
      808.500000       0.931214
      808.600000       0.931190
      808.700000       0.931116
      808.800000       0.931042
      808.900000       0.931009
      809.000000       0.930992
      809.100000       0.930983
      809.200000       0.931042
      809.300000       0.931337
      809.400000       0.931704
      809.500000       0.932101
      809.600000       0.932530
      809.700000       0.932961
      809.800000       0.933421
      809.900000       0.933934
      810.000000       0.934489
      810.100000       0.935082
      810.200000       0.935691
      810.300000       0.936326
      810.400000       0.936987
      810.500000       0.937884
      810.600000       0.938862
      810.700000       0.939858
      810.800000       0.940863
      810.900000       0.941859
      811.000000       0.942842
      811.100000       0.943805
      811.200000       0.944733
      811.300000       0.945633
      811.400000       0.946402
      811.500000       0.947182
      811.600000       0.947953
      811.700000       0.948586
      811.800000       0.949169
      811.900000       0.949738
      812.000000       0.950234
      812.100000       0.950780
      812.200000       0.951355
      812.300000       0.951942
      812.400000       0.952465
      812.500000       0.953054
      812.600000       0.953667
      812.700000       0.954296
      812.800000       0.954925
      812.900000       0.955459
      813.000000       0.955961
      813.100000       0.956479
      813.200000       0.956985
      813.300000       0.957496
      813.400000       0.958006
      813.500000       0.958535
      813.600000       0.959064
      813.700000       0.959586
      813.800000       0.960093
      813.900000       0.960608
      814.000000       0.961138
      814.100000       0.961707
