17,    channel 17 SRF extracted from SRF_FY-3F_MERSI-III.zip(FY3F_MERSI_SRF_CH17_Pub.txt) (received Nov 2023)
Number of data points:
153
Wavenumber (cm-1)   Filter response
    10368.073900       0.000277
    10373.452600       0.000277
    10378.819700       0.000277
    10384.212800       0.000277
    10389.613600       0.000553
    10395.000700       0.000555
    10400.416000       0.001109
    10405.818600       0.001387
    10411.248500       0.001664
    10416.663400       0.001944
    10422.088300       0.002501
    10427.538500       0.003060
    10432.975800       0.004454
    10438.421000       0.005571
    10443.871900       0.006969
    10449.311000       0.008648
    10454.778700       0.010890
    10460.252100       0.013975
    10465.732400       0.018184
    10471.202000       0.023801
    10476.697000       0.031111
    10482.179200       0.040119
    10487.669300       0.051113
    10493.186000       0.065501
    10498.689900       0.082451
    10504.201700       0.102533
    10509.720400       0.126323
    10515.247100       0.153548
    10520.779600       0.183941
    10526.320200       0.217795
    10531.868900       0.254553
    10537.405600       0.293660
    10542.967000       0.334839
    10548.516500       0.377810
    10554.094200       0.422010
    10559.657600       0.467728
    10565.232500       0.513825
    10570.831200       0.560018
    10576.416800       0.605417
    10582.011700       0.650023
    10587.611400       0.692123
    10593.221500       0.732572
    10598.837500       0.769651
    10604.460600       0.804540
    10610.071700       0.836375
    10615.710100       0.864573
    10621.356800       0.888553
    10626.990300       0.910320
    10632.647900       0.927636
    10638.297900       0.942501
    10643.952800       0.954884
    10649.637500       0.965630
    10655.309000       0.974431
    10660.985400       0.981470
    10666.668900       0.986164
    10672.363100       0.990833
    10678.063400       0.993720
    10683.750400       0.995993
    10689.466300       0.997563
    10695.189500       0.999037
    10700.899300       0.999848
    10706.638100       1.000000
    10712.383100       0.999221
    10718.117100       0.997301
    10723.857100       0.993357
    10729.604500       0.986497
    10735.382300       0.977594
    10741.146600       0.963683
    10746.916000       0.945948
    10752.694000       0.924372
    10758.480400       0.898634
    10764.252200       0.869009
    10770.054600       0.836059
    10775.864400       0.800336
    10781.682800       0.760336
    10787.485400       0.717833
    10793.318600       0.673717
    10799.137200       0.627669
    10804.964400       0.580887
    10810.819000       0.535471
    10816.662300       0.489612
    10822.512000       0.443614
    10828.370300       0.398976
    10834.236200       0.355709
    10840.109600       0.312604
    10845.991700       0.272397
    10851.881400       0.233882
    10857.757400       0.198591
    10863.661100       0.166546
    10869.575900       0.138370
    10875.473400       0.113472
    10881.402300       0.092787
    10887.317500       0.075411
    10893.239100       0.060749
    10899.193300       0.048503
    10905.131400       0.038690
    10911.077100       0.030389
    10917.033000       0.023923
    10922.995300       0.018990
    10928.966500       0.014970
    10934.944300       0.011562
    10940.908300       0.009393
    10946.902700       0.007214
    10952.906100       0.005344
    10958.895700       0.004410
    10964.912300       0.003471
    10970.918600       0.002531
    10976.954400       0.002219
    10982.972800       0.001587
    10989.002500       0.001274
    10995.061900       0.001277
    11001.107400       0.001280
    11007.160700       0.001283
    11013.221900       0.001283
    11019.289800       0.000964
    11025.370500       0.000967
    11031.432300       0.000646
    11037.526400       0.000324
    11043.627200       0.000650
    11049.717700       0.000650
    11055.834400       0.000653
    11061.940800       0.000653
    11068.074700       0.000982
    11074.194700       0.000985
    11080.323800       0.000985
    11086.484300       0.000658
    11092.630800       0.000658
    11098.785300       0.000662
    11104.946600       0.000665
    11111.117300       0.000665
    11117.297300       0.000999
    11123.459400       0.000999
    11129.654400       0.000667
    11135.859900       0.000335
    11142.073700       0.000335
    11148.270800       0.000338
    11154.498400       0.000676
    11160.714300       0.000676
    11166.937100       0.000676
    11173.190600       0.001017
    11179.432300       0.001020
    11185.681100       0.000682
    11191.935500       0.000682
    11198.199500       0.000682
    11204.473000       0.000686
    11210.756000       0.000690
    11217.047400       0.000690
    11223.347100       0.000690
    11229.653800       0.001037
    11235.948700       0.000693
    11242.272200       0.000348
    11248.604000       0.000348
    11254.924000       0.000348
