93,   93, MVIRI VIS channel from srf_MET5_2002303_2002304_1801-Release_S10EL_10.dat
Number of data points:
806
Wavenumber (cm-1)   Filter response
     8350.730700       0.000000
     8357.710000       0.000000
     8364.701000       0.000000
     8371.703600       0.000002
     8378.718100       0.000004
     8385.744200       0.000009
     8392.782200       0.000017
     8399.832000       0.000028
     8406.893700       0.000042
     8413.967200       0.000061
     8421.052600       0.000084
     8428.150000       0.000113
     8435.259400       0.000148
     8442.380800       0.000189
     8449.514200       0.000236
     8456.659600       0.000290
     8463.817200       0.000352
     8470.986900       0.000421
     8478.168700       0.000499
     8485.362700       0.000585
     8492.569000       0.000680
     8499.787500       0.000784
     8507.018300       0.000898
     8514.261400       0.001022
     8521.516800       0.001155
     8528.784600       0.001300
     8536.064900       0.001455
     8543.357500       0.001621
     8550.662700       0.001798
     8557.980300       0.001987
     8565.310500       0.002187
     8572.653200       0.002400
     8580.008600       0.002624
     8587.376600       0.002862
     8594.757200       0.003112
     8602.150500       0.003375
     8609.556600       0.003651
     8616.975400       0.003940
     8624.407100       0.004243
     8631.851500       0.004559
     8639.308900       0.004890
     8646.779100       0.005234
     8654.262200       0.005593
     8661.758300       0.005966
     8669.267400       0.006354
     8676.789600       0.006757
     8684.324800       0.007174
     8691.873100       0.007606
     8699.434500       0.008054
     8707.009100       0.008517
     8714.596900       0.008996
     8722.198000       0.009490
     8729.812300       0.010000
     8737.439900       0.010525
     8745.080900       0.011067
     8752.735200       0.011625
     8760.403000       0.012199
     8768.084200       0.012790
     8775.778900       0.013397
     8783.487000       0.014021
     8791.208800       0.014662
     8798.944100       0.015319
     8806.693100       0.015994
     8814.455700       0.016686
     8822.232000       0.017395
     8830.022100       0.018121
     8837.825900       0.018865
     8845.643500       0.019626
     8853.475000       0.020406
     8861.320300       0.021203
     8869.179600       0.022017
     8877.052800       0.022850
     8884.940000       0.023702
     8892.841300       0.024571
     8900.756600       0.025459
     8908.686000       0.026365
     8916.629500       0.027290
     8924.587200       0.028233
     8932.559200       0.029195
     8940.545400       0.030176
     8948.545900       0.031176
     8956.560700       0.032195
     8964.589900       0.033234
     8972.633500       0.034291
     8980.691500       0.035368
     8988.764000       0.036465
     8996.851100       0.037581
     9004.952700       0.038717
     9013.068900       0.039872
     9021.199800       0.041048
     9029.345400       0.042243
     9037.505600       0.043458
     9045.680700       0.044694
     9053.870500       0.045950
     9062.075200       0.047227
     9070.294800       0.048523
     9078.529300       0.049841
     9086.778700       0.051179
     9095.043200       0.052538
     9103.322700       0.053918
     9111.617300       0.055318
     9119.927000       0.056740
     9128.251900       0.058183
     9136.592100       0.059647
     9144.947400       0.061132
     9153.318100       0.062640
     9161.704100       0.064168
     9170.105500       0.065718
     9178.522300       0.067289
     9186.954500       0.068883
     9195.402300       0.070498
     9203.865600       0.072135
     9212.344500       0.073794
     9220.839100       0.075476
     9229.349300       0.077179
     9237.875300       0.078905
     9246.417000       0.080653
     9254.974500       0.082423
     9263.547900       0.084216
     9272.137200       0.086032
     9280.742500       0.087870
     9289.363700       0.089731
     9298.000900       0.091615
     9306.654300       0.093521
     9315.323700       0.095450
     9324.009300       0.097403
     9332.711200       0.099378
     9341.429200       0.101377
     9350.163600       0.103398
     9358.914400       0.105443
     9367.681500       0.107511
     9376.465100       0.109603
     9385.265100       0.111717
     9394.081700       0.113856
     9402.914900       0.116017
     9411.764700       0.118203
     9420.631200       0.120411
     9429.514400       0.122643
     9438.414300       0.124899
     9447.331100       0.127179
     9456.264800       0.129482
     9465.215300       0.131809
     9474.182900       0.134159
     9483.167400       0.136534
     9492.169000       0.138932
     9501.187600       0.141354
     9510.223500       0.143800
     9519.276500       0.146269
     9528.346800       0.148762
     9537.434400       0.151279
     9546.539400       0.153820
     9555.661700       0.156385
     9564.801500       0.158973
     9573.958800       0.161586
     9583.133700       0.164222
     9592.326100       0.166882
     9601.536200       0.169565
     9610.764100       0.172272
     9620.009600       0.175004
     9629.273000       0.177758
     9638.554200       0.180536
     9647.853400       0.183338
     9657.170400       0.186164
     9666.505600       0.189013
     9675.858700       0.191885
     9685.230000       0.194781
     9694.619500       0.197700
     9704.027200       0.200643
     9713.453100       0.203608
     9722.897400       0.206597
     9732.360100       0.209609
     9741.841200       0.212644
     9751.340800       0.215702
     9760.859000       0.218783
     9770.395700       0.221887
     9779.951100       0.225013
     9789.525200       0.228162
     9799.118100       0.231333
     9808.729800       0.234526
     9818.360300       0.237742
     9828.009800       0.240980
     9837.678300       0.244240
     9847.365800       0.247523
     9857.072400       0.250826
     9866.798200       0.254152
     9876.543200       0.257498
     9886.307500       0.260867
     9896.091000       0.264257
     9905.894000       0.267667
     9915.716400       0.271099
     9925.558300       0.274551
     9935.419800       0.278025
     9945.300800       0.281518
     9955.201600       0.285032
     9965.122100       0.288566
     9975.062300       0.292120
     9985.022500       0.295694
     9995.002500       0.299288
    10005.002500       0.302900
    10015.022500       0.306532
    10025.062700       0.310183
    10035.122900       0.313853
    10045.203400       0.317542
    10055.304200       0.321249
    10065.425300       0.324974
    10075.566800       0.328717
    10085.728700       0.332477
    10095.911200       0.336256
    10106.114200       0.340051
    10116.337900       0.343864
    10126.582300       0.347693
    10136.847400       0.351539
    10147.133400       0.355402
    10157.440300       0.359280
    10167.768200       0.363175
    10178.117000       0.367084
    10188.487000       0.371009
    10198.878100       0.374950
    10209.290500       0.378905
    10219.724100       0.382874
    10230.179000       0.386857
    10240.655400       0.390855
    10251.153300       0.394866
    10261.672700       0.398891
    10272.213700       0.402928
    10282.776300       0.406979
    10293.360800       0.411042
    10303.967000       0.415116
    10314.595200       0.419203
    10325.245200       0.423302
    10335.917300       0.427411
    10346.611500       0.431532
    10357.327800       0.435663
    10368.066400       0.439804
    10378.827200       0.443955
    10389.610400       0.448116
    10400.416000       0.452286
    10411.244100       0.456465
    10422.094800       0.460653
    10432.968200       0.464849
    10443.864200       0.469053
    10454.783100       0.473264
    10465.724800       0.477483
    10476.689400       0.481708
    10487.677000       0.485940
    10498.687700       0.490178
    10509.721500       0.494422
    10520.778500       0.498671
    10531.858900       0.502925
    10542.962600       0.507184
    10554.089700       0.511448
    10565.240400       0.515715
    10576.414600       0.519985
    10587.612500       0.524259
    10598.834100       0.528536
    10610.079600       0.532815
    10621.348900       0.537096
    10632.642200       0.541379
    10643.959600       0.545663
    10655.301000       0.549948
    10666.666700       0.554233
    10678.056600       0.558519
    10689.470900       0.562804
    10700.909600       0.567088
    10712.372800       0.571371
    10723.860600       0.575653
    10735.373100       0.579933
    10746.910300       0.584211
    10758.472300       0.588486
    10770.059200       0.592757
    10781.671200       0.597025
    10793.308100       0.601290
    10804.970300       0.605550
    10816.657700       0.609805
    10828.370300       0.614055
    10840.108400       0.618300
    10851.871900       0.622539
    10863.661100       0.626771
    10875.475800       0.630997
    10887.316300       0.635215
    10899.182600       0.639426
    10911.074700       0.643629
    10922.992900       0.647823
    10934.937100       0.652009
    10946.907500       0.656185
    10958.904100       0.660352
    10970.927000       0.664509
    10982.976400       0.668655
    10995.052200       0.672791
    11007.154700       0.676915
    11019.283700       0.681028
    11031.439600       0.685129
    11043.622300       0.689217
    11055.832000       0.693292
    11068.068600       0.697354
    11080.332400       0.701403
    11092.623400       0.705437
    11104.941700       0.709457
    11117.287400       0.713462
    11129.660500       0.717452
    11142.061300       0.721426
    11154.489700       0.725384
    11166.945800       0.729326
    11179.429800       0.733251
    11191.941800       0.737159
    11204.481800       0.741049
    11217.049900       0.744922
    11229.646300       0.748776
    11242.270900       0.752611
    11254.924000       0.756427
    11267.605600       0.760224
    11280.315800       0.764001
    11293.054800       0.767757
    11305.822500       0.771493
    11318.619100       0.775209
    11331.444800       0.778903
    11344.299500       0.782575
    11357.183400       0.786225
    11370.096600       0.789853
    11383.039300       0.793458
    11396.011400       0.797040
    11409.013100       0.800599
    11422.044500       0.804134
    11435.105800       0.807645
    11448.196900       0.811132
    11461.318100       0.814593
    11474.469300       0.818030
    11487.650800       0.821441
    11500.862600       0.824827
    11514.104800       0.828187
    11527.377500       0.831520
    11540.680900       0.834827
    11554.015000       0.838107
    11567.380000       0.841359
    11580.775900       0.844584
    11594.202900       0.847781
    11607.661100       0.850950
    11621.150500       0.854091
    11634.671300       0.857203
    11648.223600       0.860286
    11661.807600       0.863339
    11675.423200       0.866363
    11689.070700       0.869358
    11702.750100       0.872323
    11716.461600       0.875257
    11730.205300       0.878161
    11743.981200       0.881034
    11757.789500       0.883876
    11771.630400       0.886686
    11785.503800       0.889466
    11799.410000       0.892213
    11813.349100       0.894929
    11827.321100       0.897613
    11841.326200       0.900264
    11855.364600       0.902883
    11869.436200       0.905469
    11883.541300       0.908023
    11897.680000       0.910543
    11911.852300       0.913030
    11926.058400       0.915483
    11940.298500       0.917903
    11954.572600       0.920289
    11968.880900       0.922642
    11983.223500       0.924960
    11997.600500       0.927243
    12012.012000       0.929493
    12026.458200       0.931708
    12040.939200       0.933888
    12055.455100       0.936034
    12070.006000       0.938144
    12084.592100       0.940220
    12099.213600       0.942261
    12113.870400       0.944266
    12128.562800       0.946236
    12143.290800       0.948171
    12158.054700       0.950070
    12172.854500       0.951933
    12187.690400       0.953761
    12202.562500       0.955553
    12217.471000       0.957310
    12232.415900       0.959031
    12247.397400       0.960715
    12262.415700       0.962364
    12277.470800       0.963977
    12292.563000       0.965554
    12307.692300       0.967095
    12322.858900       0.968600
    12338.062900       0.970069
    12353.304500       0.971502
    12368.583800       0.972899
    12383.900900       0.974260
    12399.256000       0.975585
    12414.649300       0.976874
    12430.080800       0.978127
    12445.550700       0.979344
    12461.059200       0.980525
    12476.606400       0.981670
    12492.192400       0.982780
    12507.817400       0.983853
    12523.481500       0.984891
    12539.185000       0.985894
    12554.927800       0.986861
    12570.710200       0.987792
    12586.532400       0.988688
    12602.394500       0.989549
    12618.296500       0.990375
    12634.238800       0.991165
    12650.221400       0.991921
    12666.244500       0.992642
    12682.308200       0.993328
    12698.412700       0.993979
    12714.558200       0.994596
    12730.744700       0.995179
    12746.972600       0.995728
    12763.241900       0.996242
    12779.552700       0.996723
    12795.905300       0.997170
    12812.299800       0.997583
    12828.736400       0.997963
    12845.215200       0.998310
    12861.736300       0.998624
    12878.300100       0.998906
    12894.906500       0.999154
    12911.555800       0.999370
    12928.248200       0.999554
    12944.983800       0.999707
    12961.762800       0.999827
    12978.585300       0.999916
    12995.451600       0.999973
    13012.361700       1.000000
    13029.316000       0.999996
    13046.314400       0.999961
    13063.357300       0.999896
    13080.444700       0.999801
    13097.576900       0.999676
    13114.754100       0.999521
    13131.976400       0.999338
    13149.243900       0.999125
    13166.556900       0.998884
    13183.915600       0.998614
    13201.320100       0.998316
    13218.770700       0.997991
    13236.267400       0.997637
    13253.810500       0.997257
    13271.400100       0.996850
    13289.036500       0.996416
    13306.719900       0.995956
    13324.450400       0.995470
    13342.228200       0.994958
    13360.053400       0.994421
    13377.926400       0.993859
    13395.847300       0.993273
    13413.816200       0.992662
    13431.833400       0.992027
    13449.899100       0.991369
    13468.013500       0.990688
    13486.176700       0.989983
    13504.388900       0.989256
    13522.650400       0.988507
    13540.961400       0.987737
    13559.322000       0.986944
    13577.732500       0.986131
    13596.193100       0.985297
    13614.703900       0.984443
    13633.265200       0.983569
    13651.877100       0.982675
    13670.540000       0.981763
    13689.253900       0.980831
    13708.019200       0.979881
    13726.836000       0.978913
    13745.704500       0.977928
    13764.624900       0.976925
    13783.597500       0.975906
    13802.622500       0.974870
    13821.700100       0.973819
    13840.830400       0.972752
    13860.013900       0.971669
    13879.250500       0.970572
    13898.540700       0.969461
    13917.884500       0.968336
    13937.282200       0.967197
    13956.734100       0.966045
    13976.240400       0.964880
    13995.801300       0.963704
    14015.417000       0.962515
    14035.087700       0.961315
    14054.813800       0.960104
    14074.595400       0.958882
    14094.432700       0.957650
    14114.326000       0.956409
    14134.275600       0.955158
    14154.281700       0.953898
    14174.344400       0.952630
    14194.464200       0.951354
    14214.641100       0.950070
    14234.875400       0.948778
    14255.167500       0.947480
    14275.517500       0.946176
    14295.925700       0.944866
    14316.392300       0.943550
    14336.917600       0.942229
    14357.501800       0.940903
    14378.145200       0.939573
    14398.848100       0.938239
    14419.610700       0.936901
    14440.433200       0.935561
    14461.316000       0.934218
    14482.259200       0.932872
    14503.263200       0.931525
    14524.328200       0.930176
    14545.454500       0.928826
    14566.642400       0.927475
    14587.892000       0.926125
    14609.203800       0.924774
    14630.577900       0.923424
    14652.014700       0.922074
    14673.514300       0.920726
    14695.077100       0.919380
    14716.703500       0.918035
    14738.393500       0.916694
    14760.147600       0.915354
    14781.966000       0.914018
    14803.849000       0.912686
    14825.796900       0.911357
    14847.809900       0.910033
    14869.888500       0.908713
    14892.032800       0.907398
    14914.243100       0.906089
    14936.519800       0.904785
    14958.863100       0.903487
    14981.273400       0.902195
    15003.750900       0.900910
    15026.296000       0.899632
    15048.909000       0.898361
    15071.590100       0.897098
    15094.339600       0.895842
    15117.158000       0.894595
    15140.045400       0.893356
    15163.002300       0.892126
    15186.028900       0.890905
    15209.125500       0.889693
    15232.292500       0.888491
    15255.530100       0.887299
    15278.838800       0.886117
    15302.218800       0.884946
    15325.670500       0.883785
    15349.194200       0.882635
    15372.790200       0.881496
    15396.458800       0.880368
    15420.200500       0.879252
    15444.015400       0.878148
    15467.904100       0.877056
    15491.866800       0.875976
    15515.903800       0.874909
    15540.015500       0.873854
    15564.202300       0.872812
    15588.464500       0.871783
    15612.802500       0.870767
    15637.216600       0.869764
    15661.707100       0.868775
    15686.274500       0.867800
    15710.919100       0.866838
    15735.641200       0.865890
    15760.441300       0.864956
    15785.319700       0.864036
    15810.276700       0.863131
    15835.312700       0.862239
    15860.428200       0.861363
    15885.623500       0.860500
    15910.899000       0.859652
    15936.255000       0.858819
    15961.691900       0.858001
    15987.210200       0.857197
    16012.810200       0.856408
    16038.492400       0.855634
    16064.257000       0.854875
    16090.104600       0.854130
    16116.035500       0.853401
    16142.050000       0.852686
    16168.148700       0.851986
    16194.332000       0.851301
    16220.600200       0.850630
    16246.953700       0.849975
    16273.393000       0.849334
    16299.918500       0.848707
    16326.530600       0.848096
    16353.229800       0.847498
    16380.016400       0.846915
    16406.890900       0.846346
    16433.853700       0.845792
    16460.905300       0.845251
    16488.046200       0.844724
    16515.276600       0.844211
    16542.597200       0.843712
    16570.008300       0.843226
    16597.510400       0.842754
    16625.103900       0.842294
    16652.789300       0.841848
    16680.567100       0.841414
    16708.437800       0.840992
    16736.401700       0.840583
    16764.459300       0.840186
    16792.611300       0.839801
    16820.857900       0.839428
    16849.199700       0.839065
    16877.637100       0.838714
    16906.170800       0.838374
    16934.801000       0.838044
    16963.528400       0.837724
    16992.353400       0.837414
    17021.276600       0.837113
    17050.298400       0.836822
    17079.419300       0.836540
    17108.639900       0.836266
    17137.960600       0.836000
    17167.382000       0.835742
    17196.904600       0.835492
    17226.528900       0.835248
    17256.255400       0.835011
    17286.084700       0.834781
