11,   11, MVIRI VIS channel from srf_MET7_1998348_1998349_1801-Release_S10EE_10.dat
Number of data points:
793
Wavenumber (cm-1)   Filter response
     8442.380800       0.000000
     8449.514200       0.000000
     8456.659600       0.000004
     8463.817200       0.000052
     8470.986900       0.000154
     8478.168700       0.000307
     8485.362700       0.000511
     8492.569000       0.000764
     8499.787500       0.001065
     8507.018300       0.001412
     8514.261400       0.001805
     8521.516800       0.002240
     8528.784600       0.002719
     8536.064900       0.003238
     8543.357500       0.003798
     8550.662700       0.004397
     8557.980300       0.005034
     8565.310500       0.005708
     8572.653200       0.006418
     8580.008600       0.007163
     8587.376600       0.007942
     8594.757200       0.008755
     8602.150500       0.009600
     8609.556600       0.010478
     8616.975400       0.011385
     8624.407100       0.012324
     8631.851500       0.013292
     8639.308900       0.014289
     8646.779100       0.015314
     8654.262200       0.016366
     8661.758300       0.017446
     8669.267400       0.018553
     8676.789600       0.019686
     8684.324800       0.020844
     8691.873100       0.022027
     8699.434500       0.023235
     8707.009100       0.024467
     8714.596900       0.025723
     8722.198000       0.027003
     8729.812300       0.028305
     8737.439900       0.029631
     8745.080900       0.030979
     8752.735200       0.032349
     8760.403000       0.033741
     8768.084200       0.035155
     8775.778900       0.036590
     8783.487000       0.038047
     8791.208800       0.039525
     8798.944100       0.041024
     8806.693100       0.042543
     8814.455700       0.044083
     8822.232000       0.045644
     8830.022100       0.047225
     8837.825900       0.048826
     8845.643500       0.050447
     8853.475000       0.052088
     8861.320300       0.053750
     8869.179600       0.055431
     8877.052800       0.057132
     8884.940000       0.058854
     8892.841300       0.060595
     8900.756600       0.062356
     8908.686000       0.064136
     8916.629500       0.065937
     8924.587200       0.067757
     8932.559200       0.069597
     8940.545400       0.071457
     8948.545900       0.073338
     8956.560700       0.075238
     8964.589900       0.077158
     8972.633500       0.079098
     8980.691500       0.081058
     8988.764000       0.083039
     8996.851100       0.085040
     9004.952700       0.087061
     9013.068900       0.089102
     9021.199800       0.091164
     9029.345400       0.093247
     9037.505600       0.095350
     9045.680700       0.097474
     9053.870500       0.099619
     9062.075200       0.101785
     9070.294800       0.103972
     9078.529300       0.106179
     9086.778700       0.108408
     9095.043200       0.110659
     9103.322700       0.112931
     9111.617300       0.115224
     9119.927000       0.117539
     9128.251900       0.119875
     9136.592100       0.122234
     9144.947400       0.124614
     9153.318100       0.127016
     9161.704100       0.129440
     9170.105500       0.131887
     9178.522300       0.134355
     9186.954500       0.136846
     9195.402300       0.139360
     9203.865600       0.141896
     9212.344500       0.144454
     9220.839100       0.147036
     9229.349300       0.149639
     9237.875300       0.152266
     9246.417000       0.154915
     9254.974500       0.157588
     9263.547900       0.160284
     9272.137200       0.163002
     9280.742500       0.165744
     9289.363700       0.168509
     9298.000900       0.171297
     9306.654300       0.174109
     9315.323700       0.176943
     9324.009300       0.179801
     9332.711200       0.182683
     9341.429200       0.185587
     9350.163600       0.188515
     9358.914400       0.191467
     9367.681500       0.194442
     9376.465100       0.197440
     9385.265100       0.200462
     9394.081700       0.203508
     9402.914900       0.206576
     9411.764700       0.209668
     9420.631200       0.212784
     9429.514400       0.215922
     9438.414300       0.219085
     9447.331100       0.222270
     9456.264800       0.225478
     9465.215300       0.228710
     9474.182900       0.231965
     9483.167400       0.235243
     9492.169000       0.238544
     9501.187600       0.241868
     9510.223500       0.245215
     9519.276500       0.248584
     9528.346800       0.251976
     9537.434400       0.255391
     9546.539400       0.258827
     9555.661700       0.262287
     9564.801500       0.265768
     9573.958800       0.269272
     9583.133700       0.272798
     9592.326100       0.276345
     9601.536200       0.279915
     9610.764100       0.283505
     9620.009600       0.287117
     9629.273000       0.290751
     9638.554200       0.294405
     9647.853400       0.298080
     9657.170400       0.301776
     9666.505600       0.305493
     9675.858700       0.309229
     9685.230000       0.312986
     9694.619500       0.316763
     9704.027200       0.320559
     9713.453100       0.324376
     9722.897400       0.328211
     9732.360100       0.332065
     9741.841200       0.335939
     9751.340800       0.339830
     9760.859000       0.343741
     9770.395700       0.347669
     9779.951100       0.351615
     9789.525200       0.355579
     9799.118100       0.359560
     9808.729800       0.363558
     9818.360300       0.367573
     9828.009800       0.371604
     9837.678300       0.375651
     9847.365800       0.379715
     9857.072400       0.383793
     9866.798200       0.387888
     9876.543200       0.391997
     9886.307500       0.396121
     9896.091000       0.400259
     9905.894000       0.404411
     9915.716400       0.408577
     9925.558300       0.412756
     9935.419800       0.416949
     9945.300800       0.421154
     9955.201600       0.425371
     9965.122100       0.429600
     9975.062300       0.433841
     9985.022500       0.438094
     9995.002500       0.442357
    10005.002500       0.446631
    10015.022500       0.450914
    10025.062700       0.455208
    10035.122900       0.459511
    10045.203400       0.463823
    10055.304200       0.468144
    10065.425300       0.472473
    10075.566800       0.476810
    10085.728700       0.481154
    10095.911200       0.485505
    10106.114200       0.489863
    10116.337900       0.494228
    10126.582300       0.498598
    10136.847400       0.502973
    10147.133400       0.507354
    10157.440300       0.511739
    10167.768200       0.516128
    10178.117000       0.520521
    10188.487000       0.524917
    10198.878100       0.529317
    10209.290500       0.533718
    10219.724100       0.538122
    10230.179000       0.542527
    10240.655400       0.546934
    10251.153300       0.551341
    10261.672700       0.555749
    10272.213700       0.560156
    10282.776300       0.564563
    10293.360800       0.568969
    10303.967000       0.573373
    10314.595200       0.577775
    10325.245200       0.582175
    10335.917300       0.586573
    10346.611500       0.590966
    10357.327800       0.595356
    10368.066400       0.599742
    10378.827200       0.604123
    10389.610400       0.608500
    10400.416000       0.612871
    10411.244100       0.617235
    10422.094800       0.621593
    10432.968200       0.625945
    10443.864200       0.630289
    10454.783100       0.634625
    10465.724800       0.638953
    10476.689400       0.643272
    10487.677000       0.647583
    10498.687700       0.651883
    10509.721500       0.656173
    10520.778500       0.660453
    10531.858900       0.664722
    10542.962600       0.668980
    10554.089700       0.673226
    10565.240400       0.677459
    10576.414600       0.681680
    10587.612500       0.685888
    10598.834100       0.690082
    10610.079600       0.694262
    10621.348900       0.698427
    10632.642200       0.702578
    10643.959600       0.706713
    10655.301000       0.710833
    10666.666700       0.714936
    10678.056600       0.719022
    10689.470900       0.723092
    10700.909600       0.727144
    10712.372800       0.731178
    10723.860600       0.735193
    10735.373100       0.739190
    10746.910300       0.743168
    10758.472300       0.747127
    10770.059200       0.751065
    10781.671200       0.754983
    10793.308100       0.758880
    10804.970300       0.762756
    10816.657700       0.766610
    10828.370300       0.770442
    10840.108400       0.774252
    10851.871900       0.778040
    10863.661100       0.781804
    10875.475800       0.785545
    10887.316300       0.789261
    10899.182600       0.792954
    10911.074700       0.796622
    10922.992900       0.800265
    10934.937100       0.803882
    10946.907500       0.807474
    10958.904100       0.811040
    10970.927000       0.814580
    10982.976400       0.818093
    10995.052200       0.821578
    11007.154700       0.825037
    11019.283700       0.828467
    11031.439600       0.831870
    11043.622300       0.835244
    11055.832000       0.838590
    11068.068600       0.841907
    11080.332400       0.845194
    11092.623400       0.848452
    11104.941700       0.851680
    11117.287400       0.854877
    11129.660500       0.858045
    11142.061300       0.861181
    11154.489700       0.864287
    11166.945800       0.867361
    11179.429800       0.870404
    11191.941800       0.873415
    11204.481800       0.876394
    11217.049900       0.879341
    11229.646300       0.882255
    11242.270900       0.885136
    11254.924000       0.887984
    11267.605600       0.890800
    11280.315800       0.893581
    11293.054800       0.896329
    11305.822500       0.899044
    11318.619100       0.901724
    11331.444800       0.904370
    11344.299500       0.906981
    11357.183400       0.909558
    11370.096600       0.912100
    11383.039300       0.914608
    11396.011400       0.917079
    11409.013100       0.919516
    11422.044500       0.921917
    11435.105800       0.924283
    11448.196900       0.926613
    11461.318100       0.928907
    11474.469300       0.931165
    11487.650800       0.933388
    11500.862600       0.935573
    11514.104800       0.937723
    11527.377500       0.939836
    11540.680900       0.941913
    11554.015000       0.943953
    11567.380000       0.945956
    11580.775900       0.947922
    11594.202900       0.949852
    11607.661100       0.951745
    11621.150500       0.953601
    11634.671300       0.955419
    11648.223600       0.957201
    11661.807600       0.958946
    11675.423200       0.960653
    11689.070700       0.962324
    11702.750100       0.963957
    11716.461600       0.965553
    11730.205300       0.967112
    11743.981200       0.968634
    11757.789500       0.970118
    11771.630400       0.971566
    11785.503800       0.972976
    11799.410000       0.974349
    11813.349100       0.975685
    11827.321100       0.976985
    11841.326200       0.978247
    11855.364600       0.979472
    11869.436200       0.980660
    11883.541300       0.981812
    11897.680000       0.982927
    11911.852300       0.984005
    11926.058400       0.985047
    11940.298500       0.986052
    11954.572600       0.987021
    11968.880900       0.987954
    11983.223500       0.988851
    11997.600500       0.989711
    12012.012000       0.990536
    12026.458200       0.991325
    12040.939200       0.992079
    12055.455100       0.992796
    12070.006000       0.993479
    12084.592100       0.994126
    12099.213600       0.994739
    12113.870400       0.995316
    12128.562800       0.995859
    12143.290800       0.996368
    12158.054700       0.996842
    12172.854500       0.997282
    12187.690400       0.997688
    12202.562500       0.998061
    12217.471000       0.998400
    12232.415900       0.998706
    12247.397400       0.998979
    12262.415700       0.999219
    12277.470800       0.999426
    12292.563000       0.999601
    12307.692300       0.999744
    12322.858900       0.999855
    12338.062900       0.999935
    12353.304500       0.999983
    12368.583800       1.000000
    12383.900900       0.999986
    12399.256000       0.999942
    12414.649300       0.999868
    12430.080800       0.999764
    12445.550700       0.999630
    12461.059200       0.999466
    12476.606400       0.999274
    12492.192400       0.999053
    12507.817400       0.998803
    12523.481500       0.998526
    12539.185000       0.998220
    12554.927800       0.997888
    12570.710200       0.997528
    12586.532400       0.997141
    12602.394500       0.996728
    12618.296500       0.996288
    12634.238800       0.995823
    12650.221400       0.995333
    12666.244500       0.994817
    12682.308200       0.994277
    12698.412700       0.993712
    12714.558200       0.993124
    12730.744700       0.992512
    12746.972600       0.991876
    12763.241900       0.991218
    12779.552700       0.990538
    12795.905300       0.989835
    12812.299800       0.989111
    12828.736400       0.988365
    12845.215200       0.987599
    12861.736300       0.986812
    12878.300100       0.986005
    12894.906500       0.985178
    12911.555800       0.984332
    12928.248200       0.983467
    12944.983800       0.982584
    12961.762800       0.981683
    12978.585300       0.980764
    12995.451600       0.979828
    13012.361700       0.978876
    13029.316000       0.977907
    13046.314400       0.976922
    13063.357300       0.975921
    13080.444700       0.974906
    13097.576900       0.973876
    13114.754100       0.972832
    13131.976400       0.971774
    13149.243900       0.970703
    13166.556900       0.969619
    13183.915600       0.968522
    13201.320100       0.967414
    13218.770700       0.966294
    13236.267400       0.965163
    13253.810500       0.964022
    13271.400100       0.962870
    13289.036500       0.961709
    13306.719900       0.960538
    13324.450400       0.959359
    13342.228200       0.958171
    13360.053400       0.956975
    13377.926400       0.955772
    13395.847300       0.954562
    13413.816200       0.953345
    13431.833400       0.952123
    13449.899100       0.950894
    13468.013500       0.949661
    13486.176700       0.948422
    13504.388900       0.947179
    13522.650400       0.945933
    13540.961400       0.944683
    13559.322000       0.943430
    13577.732500       0.942175
    13596.193100       0.940917
    13614.703900       0.939658
    13633.265200       0.938398
    13651.877100       0.937137
    13670.540000       0.935876
    13689.253900       0.934615
    13708.019200       0.933355
    13726.836000       0.932095
    13745.704500       0.930837
    13764.624900       0.929581
    13783.597500       0.928328
    13802.622500       0.927077
    13821.700100       0.925829
    13840.830400       0.924585
    13860.013900       0.923345
    13879.250500       0.922109
    13898.540700       0.920878
    13917.884500       0.919652
    13937.282200       0.918433
    13956.734100       0.917219
    13976.240400       0.916011
    13995.801300       0.914811
    14015.417000       0.913618
    14035.087700       0.912432
    14054.813800       0.911255
    14074.595400       0.910086
    14094.432700       0.908926
    14114.326000       0.907775
    14134.275600       0.906633
    14154.281700       0.905502
    14174.344400       0.904381
    14194.464200       0.903270
    14214.641100       0.902171
    14234.875400       0.901083
    14255.167500       0.900006
    14275.517500       0.898942
    14295.925700       0.897890
    14316.392300       0.896851
    14336.917600       0.895825
    14357.501800       0.894812
    14378.145200       0.893813
    14398.848100       0.892828
    14419.610700       0.891857
    14440.433200       0.890901
    14461.316000       0.889960
    14482.259200       0.889033
    14503.263200       0.888123
    14524.328200       0.887228
    14545.454500       0.886349
    14566.642400       0.885486
    14587.892000       0.884640
    14609.203800       0.883810
    14630.577900       0.882998
    14652.014700       0.882202
    14673.514300       0.881424
    14695.077100       0.880664
    14716.703500       0.879922
    14738.393500       0.879198
    14760.147600       0.878492
    14781.966000       0.877804
    14803.849000       0.877136
    14825.796900       0.876486
    14847.809900       0.875855
    14869.888500       0.875243
    14892.032800       0.874651
    14914.243100       0.874078
    14936.519800       0.873524
    14958.863100       0.872991
    14981.273400       0.872477
    15003.750900       0.871983
    15026.296000       0.871510
    15048.909000       0.871056
    15071.590100       0.870623
    15094.339600       0.870210
    15117.158000       0.869818
    15140.045400       0.869446
    15163.002300       0.869094
    15186.028900       0.868763
    15209.125500       0.868453
    15232.292500       0.868163
    15255.530100       0.867895
    15278.838800       0.867646
    15302.218800       0.867419
    15325.670500       0.867212
    15349.194200       0.867025
    15372.790200       0.866860
    15396.458800       0.866715
    15420.200500       0.866590
    15444.015400       0.866486
    15467.904100       0.866402
    15491.866800       0.866339
    15515.903800       0.866296
    15540.015500       0.866273
    15564.202300       0.866270
    15588.464500       0.866287
    15612.802500       0.866323
    15637.216600       0.866380
    15661.707100       0.866456
    15686.274500       0.866551
    15710.919100       0.866666
    15735.641200       0.866800
    15760.441300       0.866952
    15785.319700       0.867123
    15810.276700       0.867313
    15835.312700       0.867520
    15860.428200       0.867746
    15885.623500       0.867990
    15910.899000       0.868251
    15936.255000       0.868529
    15961.691900       0.868825
    15987.210200       0.869137
    16012.810200       0.869465
    16038.492400       0.869810
    16064.257000       0.870171
    16090.104600       0.870547
    16116.035500       0.870938
    16142.050000       0.871344
    16168.148700       0.871764
    16194.332000       0.872199
    16220.600200       0.872648
    16246.953700       0.873109
    16273.393000       0.873584
    16299.918500       0.874072
    16326.530600       0.874571
    16353.229800       0.875083
    16380.016400       0.875605
    16406.890900       0.876139
    16433.853700       0.876683
    16460.905300       0.877237
    16488.046200       0.877800
    16515.276600       0.878373
    16542.597200       0.878954
    16570.008300       0.879543
    16597.510400       0.880139
    16625.103900       0.880743
    16652.789300       0.881352
    16680.567100       0.881968
    16708.437800       0.882589
    16736.401700       0.883215
    16764.459300       0.883845
    16792.611300       0.884479
    16820.857900       0.885116
    16849.199700       0.885755
    16877.637100       0.886396
    16906.170800       0.887038
    16934.801000       0.887681
    16963.528400       0.888323
    16992.353400       0.888965
    17021.276600       0.889606
    17050.298400       0.890244
    17079.419300       0.890880
    17108.639900       0.891512
    17137.960600       0.892140
    17167.382000       0.892763
    17196.904600       0.893381
    17226.528900       0.893993
    17256.255400       0.894597
    17286.084700       0.895194
    17316.017300       0.895782
    17346.053800       0.896362
    17376.194600       0.896931
    17406.440400       0.897489
    17436.791600       0.898036
    17467.248900       0.898571
    17497.812800       0.899092
    17528.483800       0.899600
    17559.262500       0.900093
    17590.149500       0.900570
    17621.145400       0.901032
    17652.250700       0.901475
    17683.466000       0.901901
