43,   43, MVIRI VIS channel from srf_MET2_1987168_1987169_1801-Release_S10EL_10.dat
Number of data points:
730
Wavenumber (cm-1)   Filter response
     8916.629500       0.000000
     8924.587200       0.000000
     8932.559200       0.000002
     8940.545400       0.000011
     8948.545900       0.000032
     8956.560700       0.000069
     8964.589900       0.000126
     8972.633500       0.000208
     8980.691500       0.000319
     8988.764000       0.000462
     8996.851100       0.000641
     9004.952700       0.000860
     9013.068900       0.001122
     9021.199800       0.001430
     9029.345400       0.001787
     9037.505600       0.002196
     9045.680700       0.002661
     9053.870500       0.003182
     9062.075200       0.003764
     9070.294800       0.004409
     9078.529300       0.005117
     9086.778700       0.005893
     9095.043200       0.006737
     9103.322700       0.007652
     9111.617300       0.008639
     9119.927000       0.009701
     9128.251900       0.010837
     9136.592100       0.012051
     9144.947400       0.013343
     9153.318100       0.014714
     9161.704100       0.016165
     9170.105500       0.017698
     9178.522300       0.019314
     9186.954500       0.021013
     9195.402300       0.022796
     9203.865600       0.024663
     9212.344500       0.026615
     9220.839100       0.028653
     9229.349300       0.030777
     9237.875300       0.032988
     9246.417000       0.035285
     9254.974500       0.037669
     9263.547900       0.040139
     9272.137200       0.042696
     9280.742500       0.045341
     9289.363700       0.048071
     9298.000900       0.050889
     9306.654300       0.053793
     9315.323700       0.056782
     9324.009300       0.059857
     9332.711200       0.063018
     9341.429200       0.066263
     9350.163600       0.069592
     9358.914400       0.073005
     9367.681500       0.076501
     9376.465100       0.080079
     9385.265100       0.083739
     9394.081700       0.087481
     9402.914900       0.091301
     9411.764700       0.095202
     9420.631200       0.099181
     9429.514400       0.103238
     9438.414300       0.107371
     9447.331100       0.111579
     9456.264800       0.115863
     9465.215300       0.120220
     9474.182900       0.124649
     9483.167400       0.129151
     9492.169000       0.133722
     9501.187600       0.138362
     9510.223500       0.143071
     9519.276500       0.147846
     9528.346800       0.152687
     9537.434400       0.157592
     9546.539400       0.162560
     9555.661700       0.167591
     9564.801500       0.172681
     9573.958800       0.177831
     9583.133700       0.183039
     9592.326100       0.188303
     9601.536200       0.193623
     9610.764100       0.198996
     9620.009600       0.204422
     9629.273000       0.209900
     9638.554200       0.215426
     9647.853400       0.221001
     9657.170400       0.226623
     9666.505600       0.232290
     9675.858700       0.238002
     9685.230000       0.243756
     9694.619500       0.249552
     9704.027200       0.255386
     9713.453100       0.261260
     9722.897400       0.267171
     9732.360100       0.273117
     9741.841200       0.279097
     9751.340800       0.285109
     9760.859000       0.291153
     9770.395700       0.297227
     9779.951100       0.303329
     9789.525200       0.309458
     9799.118100       0.315613
     9808.729800       0.321791
     9818.360300       0.327992
     9828.009800       0.334214
     9837.678300       0.340457
     9847.365800       0.346718
     9857.072400       0.352995
     9866.798200       0.359289
     9876.543200       0.365596
     9886.307500       0.371917
     9896.091000       0.378250
     9905.894000       0.384592
     9915.716400       0.390944
     9925.558300       0.397303
     9935.419800       0.403669
     9945.300800       0.410040
     9955.201600       0.416414
     9965.122100       0.422791
     9975.062300       0.429168
     9985.022500       0.435546
     9995.002500       0.441923
    10005.002500       0.448297
    10015.022500       0.454667
    10025.062700       0.461032
    10035.122900       0.467391
    10045.203400       0.473742
    10055.304200       0.480085
    10065.425300       0.486419
    10075.566800       0.492741
    10085.728700       0.499052
    10095.911200       0.505350
    10106.114200       0.511633
    10116.337900       0.517901
    10126.582300       0.524153
    10136.847400       0.530388
    10147.133400       0.536605
    10157.440300       0.542802
    10167.768200       0.548979
    10178.117000       0.555134
    10188.487000       0.561268
    10198.878100       0.567378
    10209.290500       0.573464
    10219.724100       0.579525
    10230.179000       0.585560
    10240.655400       0.591568
    10251.153300       0.597549
    10261.672700       0.603500
    10272.213700       0.609423
    10282.776300       0.615315
    10293.360800       0.621177
    10303.967000       0.627006
    10314.595200       0.632803
    10325.245200       0.638567
    10335.917300       0.644297
    10346.611500       0.649992
    10357.327800       0.655652
    10368.066400       0.661275
    10378.827200       0.666862
    10389.610400       0.672412
    10400.416000       0.677923
    10411.244100       0.683395
    10422.094800       0.688829
    10432.968200       0.694222
    10443.864200       0.699575
    10454.783100       0.704888
    10465.724800       0.710158
    10476.689400       0.715387
    10487.677000       0.720573
    10498.687700       0.725716
    10509.721500       0.730816
    10520.778500       0.735871
    10531.858900       0.740883
    10542.962600       0.745849
    10554.089700       0.750771
    10565.240400       0.755646
    10576.414600       0.760476
    10587.612500       0.765259
    10598.834100       0.769996
    10610.079600       0.774686
    10621.348900       0.779329
    10632.642200       0.783923
    10643.959600       0.788470
    10655.301000       0.792969
    10666.666700       0.797419
    10678.056600       0.801820
    10689.470900       0.806173
    10700.909600       0.810477
    10712.372800       0.814730
    10723.860600       0.818935
    10735.373100       0.823090
    10746.910300       0.827194
    10758.472300       0.831249
    10770.059200       0.835254
    10781.671200       0.839208
    10793.308100       0.843111
    10804.970300       0.846965
    10816.657700       0.850767
    10828.370300       0.854519
    10840.108400       0.858220
    10851.871900       0.861870
    10863.661100       0.865469
    10875.475800       0.869018
    10887.316300       0.872515
    10899.182600       0.875961
    10911.074700       0.879357
    10922.992900       0.882701
    10934.937100       0.885995
    10946.907500       0.889237
    10958.904100       0.892429
    10970.927000       0.895570
    10982.976400       0.898660
    10995.052200       0.901699
    11007.154700       0.904688
    11019.283700       0.907626
    11031.439600       0.910514
    11043.622300       0.913352
    11055.832000       0.916139
    11068.068600       0.918876
    11080.332400       0.921564
    11092.623400       0.924201
    11104.941700       0.926789
    11117.287400       0.929327
    11129.660500       0.931815
    11142.061300       0.934255
    11154.489700       0.936645
    11166.945800       0.938987
    11179.429800       0.941280
    11191.941800       0.943525
    11204.481800       0.945721
    11217.049900       0.947869
    11229.646300       0.949969
    11242.270900       0.952022
    11254.924000       0.954027
    11267.605600       0.955985
    11280.315800       0.957897
    11293.054800       0.959761
    11305.822500       0.961579
    11318.619100       0.963351
    11331.444800       0.965077
    11344.299500       0.966757
    11357.183400       0.968392
    11370.096600       0.969981
    11383.039300       0.971526
    11396.011400       0.973026
    11409.013100       0.974482
    11422.044500       0.975894
    11435.105800       0.977262
    11448.196900       0.978587
    11461.318100       0.979868
    11474.469300       0.981107
    11487.650800       0.982303
    11500.862600       0.983456
    11514.104800       0.984568
    11527.377500       0.985638
    11540.680900       0.986667
    11554.015000       0.987655
    11567.380000       0.988602
    11580.775900       0.989509
    11594.202900       0.990376
    11607.661100       0.991202
    11621.150500       0.991990
    11634.671300       0.992738
    11648.223600       0.993448
    11661.807600       0.994119
    11675.423200       0.994752
    11689.070700       0.995347
    11702.750100       0.995905
    11716.461600       0.996426
    11730.205300       0.996909
    11743.981200       0.997357
    11757.789500       0.997768
    11771.630400       0.998143
    11785.503800       0.998483
    11799.410000       0.998787
    11813.349100       0.999057
    11827.321100       0.999292
    11841.326200       0.999493
    11855.364600       0.999661
    11869.436200       0.999794
    11883.541300       0.999895
    11897.680000       0.999962
    11911.852300       0.999997
    11926.058400       1.000000
    11940.298500       0.999971
    11954.572600       0.999910
    11968.880900       0.999818
    11983.223500       0.999695
    11997.600500       0.999542
    12012.012000       0.999358
    12026.458200       0.999144
    12040.939200       0.998900
    12055.455100       0.998628
    12070.006000       0.998326
    12084.592100       0.997995
    12099.213600       0.997636
    12113.870400       0.997249
    12128.562800       0.996833
    12143.290800       0.996391
    12158.054700       0.995921
    12172.854500       0.995424
    12187.690400       0.994901
    12202.562500       0.994351
    12217.471000       0.993775
    12232.415900       0.993173
    12247.397400       0.992546
    12262.415700       0.991894
    12277.470800       0.991216
    12292.563000       0.990514
    12307.692300       0.989788
    12322.858900       0.989038
    12338.062900       0.988263
    12353.304500       0.987465
    12368.583800       0.986644
    12383.900900       0.985800
    12399.256000       0.984933
    12414.649300       0.984044
    12430.080800       0.983132
    12445.550700       0.982198
    12461.059200       0.981242
    12476.606400       0.980265
    12492.192400       0.979267
    12507.817400       0.978247
    12523.481500       0.977207
    12539.185000       0.976146
    12554.927800       0.975065
    12570.710200       0.973964
    12586.532400       0.972842
    12602.394500       0.971701
    12618.296500       0.970541
    12634.238800       0.969361
    12650.221400       0.968162
    12666.244500       0.966945
    12682.308200       0.965709
    12698.412700       0.964454
    12714.558200       0.963181
    12730.744700       0.961890
    12746.972600       0.960582
    12763.241900       0.959255
    12779.552700       0.957911
    12795.905300       0.956550
    12812.299800       0.955172
    12828.736400       0.953777
    12845.215200       0.952365
    12861.736300       0.950937
    12878.300100       0.949492
    12894.906500       0.948031
    12911.555800       0.946554
    12928.248200       0.945061
    12944.983800       0.943552
    12961.762800       0.942028
    12978.585300       0.940489
    12995.451600       0.938934
    13012.361700       0.937364
    13029.316000       0.935779
    13046.314400       0.934179
    13063.357300       0.932564
    13080.444700       0.930935
    13097.576900       0.929291
    13114.754100       0.927633
    13131.976400       0.925961
    13149.243900       0.924275
    13166.556900       0.922576
    13183.915600       0.920862
    13201.320100       0.919134
    13218.770700       0.917393
    13236.267400       0.915639
    13253.810500       0.913871
    13271.400100       0.912090
    13289.036500       0.910297
    13306.719900       0.908490
    13324.450400       0.906670
    13342.228200       0.904837
    13360.053400       0.902992
    13377.926400       0.901134
    13395.847300       0.899264
    13413.816200       0.897381
    13431.833400       0.895486
    13449.899100       0.893579
    13468.013500       0.891660
    13486.176700       0.889729
    13504.388900       0.887785
    13522.650400       0.885830
    13540.961400       0.883864
    13559.322000       0.881885
    13577.732500       0.879895
    13596.193100       0.877894
    13614.703900       0.875881
    13633.265200       0.873856
    13651.877100       0.871821
    13670.540000       0.869774
    13689.253900       0.867716
    13708.019200       0.865647
    13726.836000       0.863567
    13745.704500       0.861477
    13764.624900       0.859375
    13783.597500       0.857263
    13802.622500       0.855140
    13821.700100       0.853006
    13840.830400       0.850862
    13860.013900       0.848707
    13879.250500       0.846542
    13898.540700       0.844366
    13917.884500       0.842180
    13937.282200       0.839984
    13956.734100       0.837778
    13976.240400       0.835562
    13995.801300       0.833335
    14015.417000       0.831099
    14035.087700       0.828853
    14054.813800       0.826597
    14074.595400       0.824331
    14094.432700       0.822055
    14114.326000       0.819770
    14134.275600       0.817475
    14154.281700       0.815170
    14174.344400       0.812857
    14194.464200       0.810533
    14214.641100       0.808200
    14234.875400       0.805859
    14255.167500       0.803507
    14275.517500       0.801147
    14295.925700       0.798778
    14316.392300       0.796399
    14336.917600       0.794011
    14357.501800       0.791615
    14378.145200       0.789210
    14398.848100       0.786796
    14419.610700       0.784373
    14440.433200       0.781942
    14461.316000       0.779502
    14482.259200       0.777053
    14503.263200       0.774596
    14524.328200       0.772131
    14545.454500       0.769657
    14566.642400       0.767176
    14587.892000       0.764686
    14609.203800       0.762188
    14630.577900       0.759682
    14652.014700       0.757168
    14673.514300       0.754646
    14695.077100       0.752116
    14716.703500       0.749579
    14738.393500       0.747034
    14760.147600       0.744481
    14781.966000       0.741921
    14803.849000       0.739354
    14825.796900       0.736779
    14847.809900       0.734197
    14869.888500       0.731608
    14892.032800       0.729012
    14914.243100       0.726409
    14936.519800       0.723799
    14958.863100       0.721182
    14981.273400       0.718559
    15003.750900       0.715929
    15026.296000       0.713292
    15048.909000       0.710649
    15071.590100       0.708000
    15094.339600       0.705345
    15117.158000       0.702683
    15140.045400       0.700015
    15163.002300       0.697342
    15186.028900       0.694663
    15209.125500       0.691978
    15232.292500       0.689287
    15255.530100       0.686591
    15278.838800       0.683889
    15302.218800       0.681183
    15325.670500       0.678471
    15349.194200       0.675754
    15372.790200       0.673032
    15396.458800       0.670305
    15420.200500       0.667573
    15444.015400       0.664837
    15467.904100       0.662097
    15491.866800       0.659352
    15515.903800       0.656602
    15540.015500       0.653849
    15564.202300       0.651092
    15588.464500       0.648331
    15612.802500       0.645566
    15637.216600       0.642797
    15661.707100       0.640025
    15686.274500       0.637250
    15710.919100       0.634471
    15735.641200       0.631690
    15760.441300       0.628905
    15785.319700       0.626117
    15810.276700       0.623327
    15835.312700       0.620534
    15860.428200       0.617739
    15885.623500       0.614942
    15910.899000       0.612142
    15936.255000       0.609341
    15961.691900       0.606537
    15987.210200       0.603732
    16012.810200       0.600925
    16038.492400       0.598117
    16064.257000       0.595308
    16090.104600       0.592497
    16116.035500       0.589685
    16142.050000       0.586873
    16168.148700       0.584060
    16194.332000       0.581246
    16220.600200       0.578432
    16246.953700       0.575617
    16273.393000       0.572802
    16299.918500       0.569988
    16326.530600       0.567173
    16353.229800       0.564359
    16380.016400       0.561546
    16406.890900       0.558733
    16433.853700       0.555920
    16460.905300       0.553109
    16488.046200       0.550299
    16515.276600       0.547489
    16542.597200       0.544682
    16570.008300       0.541876
    16597.510400       0.539071
    16625.103900       0.536268
    16652.789300       0.533468
    16680.567100       0.530669
    16708.437800       0.527873
    16736.401700       0.525079
    16764.459300       0.522287
    16792.611300       0.519498
    16820.857900       0.516712
    16849.199700       0.513930
    16877.637100       0.511150
    16906.170800       0.508373
    16934.801000       0.505600
    16963.528400       0.502830
    16992.353400       0.500065
    17021.276600       0.497302
    17050.298400       0.494544
    17079.419300       0.491790
    17108.639900       0.489041
    17137.960600       0.486296
    17167.382000       0.483555
    17196.904600       0.480818
    17226.528900       0.478087
    17256.255400       0.475361
    17286.084700       0.472639
    17316.017300       0.469923
    17346.053800       0.467212
    17376.194600       0.464506
    17406.440400       0.461806
    17436.791600       0.459111
    17467.248900       0.456423
    17497.812800       0.453740
    17528.483800       0.451063
    17559.262500       0.448392
    17590.149500       0.445728
    17621.145400       0.443069
    17652.250700       0.440417
    17683.466000       0.437772
    17714.791900       0.435133
    17746.228900       0.432501
    17777.777800       0.429876
    17809.439000       0.427257
    17841.213200       0.424646
    17873.101000       0.422041
    17905.103000       0.419444
    17937.219700       0.416854
    17969.451900       0.414271
    18001.800200       0.411695
    18034.265100       0.409127
    18066.847300       0.406566
    18099.547500       0.404013
    18132.366300       0.401468
    18165.304300       0.398930
    18198.362100       0.396400
    18231.540600       0.393877
    18264.840200       0.391363
    18298.261700       0.388856
    18331.805700       0.386357
    18365.472900       0.383866
    18399.264000       0.381383
    18433.179700       0.378908
    18467.220700       0.376441
    18501.387600       0.373982
    18535.681200       0.371531
    18570.102100       0.369088
    18604.651200       0.366653
    18639.329000       0.364226
    18674.136300       0.361807
    18709.073900       0.359396
    18744.142500       0.356993
    18779.342700       0.354599
    18814.675400       0.352212
    18850.141400       0.349833
    18885.741300       0.347462
    18921.475900       0.345099
    18957.346000       0.342744
    18993.352300       0.340397
    19029.495700       0.338057
    19065.776900       0.335726
    19102.196800       0.333402
    19138.756000       0.331085
    19175.455400       0.328777
    19212.295900       0.326476
    19249.278200       0.324182
    19286.403100       0.321896
    19323.671500       0.319617
    19361.084200       0.317345
    19398.642100       0.315080
    19436.346000       0.312822
    19474.196700       0.310572
    19512.195100       0.308328
    19550.342100       0.306091
    19588.638600       0.303860
    19627.085400       0.301637
    19665.683400       0.299419
    19704.433500       0.297208
    19743.336600       0.295003
    19782.393700       0.292804
    19821.605600       0.290611
    19860.973200       0.288424
    19900.497500       0.286242
