           8  , Jan 12th 2012 http://fy3.satellite.cma.gov.cn/ArssEn/Download/FY3A_calibration_info_params.rar
Number of data points:
1308
Wavenumber (cm-1)   Filter response
      722.543300       0.000045
      722.647800       0.000157
      722.752200       0.000315
      722.856800       0.000485
      722.961200       0.000663
      723.065800       0.000811
      723.170300       0.000943
      723.275000       0.001030
      723.379600       0.001100
      723.484300       0.001145
      723.589000       0.001183
      723.693700       0.001225
      723.798500       0.001266
      723.903300       0.001316
      724.008100       0.001365
      724.112900       0.001406
      724.217900       0.001446
      724.322800       0.001476
      724.427700       0.001503
      724.532700       0.001521
      724.637700       0.001535
      724.742700       0.001539
      724.847800       0.001535
      724.952900       0.001522
      725.058000       0.001506
      725.163100       0.001488
      725.268400       0.001490
      725.373500       0.001503
      725.478800       0.001554
      725.584100       0.001617
      725.689400       0.001693
      725.794700       0.001772
      725.900100       0.001807
      726.005500       0.001836
      726.111000       0.001786
      726.216400       0.001725
      726.321900       0.001597
      726.427400       0.001463
      726.533000       0.001306
      726.638500       0.001154
      726.744200       0.001011
      726.849800       0.000890
      726.955500       0.000791
      727.061200       0.000731
      727.167000       0.000701
      727.272700       0.000724
      727.378500       0.000773
      727.484300       0.000881
      727.590200       0.001004
      727.696100       0.001164
      727.802100       0.001327
      727.908000       0.001486
      728.014000       0.001637
      728.120000       0.001747
      728.226000       0.001839
      728.332200       0.001880
      728.438200       0.001894
      728.544400       0.001859
      728.650500       0.001793
      728.756700       0.001692
      728.863000       0.001574
      728.969200       0.001443
      729.075600       0.001331
      729.181900       0.001226
      729.288200       0.001175
      729.394600       0.001135
      729.501000       0.001153
      729.607500       0.001177
      729.713900       0.001219
      729.820500       0.001255
      729.927000       0.001267
      730.033600       0.001276
      730.140200       0.001244
      730.246800       0.001200
      730.353500       0.001140
      730.460200       0.001080
      730.567000       0.001019
      730.673700       0.000966
      730.780500       0.000916
      730.887300       0.000874
      730.994100       0.000834
      731.101000       0.000804
      731.207900       0.000776
      731.314900       0.000770
      731.421900       0.000772
      731.528900       0.000805
      731.635900       0.000854
      731.743000       0.000937
      731.850200       0.001033
      731.957300       0.001146
      732.064500       0.001258
      732.171600       0.001371
      732.278900       0.001461
      732.386100       0.001544
      732.493400       0.001597
      732.600800       0.001646
      732.708100       0.001672
      732.815500       0.001697
      732.922900       0.001722
      733.030300       0.001752
      733.137800       0.001792
      733.245400       0.001839
      733.352900       0.001896
      733.460400       0.001963
      733.568100       0.002036
      733.675700       0.002112
      733.783400       0.002189
      733.891100       0.002236
      733.998800       0.002278
      734.106600       0.002258
      734.214400       0.002228
      734.322200       0.002139
      734.430100       0.002044
      734.538000       0.001927
      734.645900       0.001820
      734.753900       0.001727
      734.861900       0.001666
      734.969800       0.001628
      735.077900       0.001630
      735.186000       0.001646
      735.294100       0.001691
      735.402300       0.001738
      735.510400       0.001787
      735.618700       0.001832
      735.726900       0.001851
      735.835100       0.001856
      735.943500       0.001827
      736.051800       0.001774
      736.160200       0.001693
      736.268600       0.001591
      736.377000       0.001476
      736.485500       0.001361
      736.594000       0.001248
      736.702500       0.001170
      736.811100       0.001101
      736.919700       0.001094
      737.028300       0.001107
      737.137000       0.001175
      737.245700       0.001266
      737.354400       0.001391
      737.463100       0.001526
      737.572000       0.001668
      737.680700       0.001788
      737.789600       0.001902
      737.898400       0.001956
      738.007400       0.002000
      738.116300       0.001986
      738.225300       0.001963
      738.334400       0.001912
      738.443400       0.001863
      738.552400       0.001820
      738.661600       0.001798
      738.770700       0.001800
      738.879800       0.001834
      738.989100       0.001880
      739.098300       0.001946
      739.207600       0.002013
      739.316900       0.002057
      739.426200       0.002086
      739.535600       0.002068
      739.645000       0.002019
      739.754400       0.001920
      739.863900       0.001801
      739.973400       0.001666
      740.082900       0.001557
      740.192400       0.001456
      740.302000       0.001453
      740.411700       0.001469
      740.521400       0.001587
      740.631000       0.001720
      740.740700       0.001894
      740.850500       0.001978
      740.960300       0.002128
      741.070100       0.002224
      741.180000       0.002291
      741.289900       0.002300
      741.399800       0.002295
      741.509700       0.002269
      741.619700       0.002245
      741.729700       0.002234
      741.839800       0.002233
      741.949900       0.002249
      742.060000       0.002265
      742.170100       0.002290
      742.280300       0.002323
      742.390500       0.002359
      742.500700       0.002404
      742.611000       0.002449
      742.721400       0.002493
      742.831700       0.002526
      742.942100       0.002534
      743.052400       0.002517
      743.162900       0.002447
      743.273400       0.002326
      743.383900       0.002178
      743.494400       0.002003
      743.605000       0.001826
      743.715600       0.001714
      743.826200       0.001636
      743.936900       0.001670
      744.047700       0.001767
      744.158400       0.001960
      744.269200       0.002190
      744.379900       0.002449
      744.490800       0.002691
      744.601600       0.002928
      744.712500       0.003079
      744.823500       0.003211
      744.934400       0.003267
      745.045500       0.003300
      745.156500       0.003298
      745.267500       0.003307
      745.378700       0.003289
      745.489800       0.003272
      745.601000       0.003256
      745.712200       0.003237
      745.823400       0.003214
      745.934600       0.003177
      746.046000       0.003130
      746.157300       0.003070
      746.268700       0.003008
      746.380100       0.002963
      746.491500       0.002910
      746.603000       0.002861
      746.714400       0.002847
      746.826000       0.002842
      746.937600       0.002869
      747.049200       0.002907
      747.160800       0.002959
      747.272500       0.003014
      747.384200       0.003071
      747.495800       0.003132
      747.607600       0.003166
      747.719500       0.003166
      747.831300       0.003154
      747.943200       0.003111
      748.055100       0.003052
      748.167000       0.002975
      748.278900       0.002888
      748.390900       0.002798
      748.503000       0.002717
      748.615100       0.002659
      748.727200       0.002610
      748.839300       0.002575
      748.951500       0.002568
      749.063700       0.002585
      749.175900       0.002619
      749.288200       0.002665
      749.400500       0.002715
      749.512800       0.002761
      749.625200       0.002801
      749.737500       0.002840
      749.850000       0.002855
      749.962500       0.002861
      750.075000       0.002869
      750.187600       0.002878
      750.300100       0.002914
      750.412700       0.002959
      750.525300       0.003049
      750.638100       0.003156
      750.750800       0.003299
      750.863500       0.003481
      750.976300       0.003660
      751.089100       0.003855
      751.201900       0.004055
      751.314800       0.004248
      751.427700       0.004431
      751.540600       0.004587
      751.653600       0.004711
      751.766700       0.004798
      751.879700       0.004833
      751.992700       0.004517
      752.105900       0.004523
      752.219100       0.004526
      752.332200       0.004536
      752.445400       0.004568
      752.558700       0.004633
      752.672000       0.004747
      752.785300       0.004890
      752.898700       0.005089
      753.012100       0.005300
      753.125500       0.005516
      753.239000       0.005675
      753.352400       0.005811
      753.465900       0.005906
      753.579500       0.005972
      753.693100       0.005963
      753.806800       0.005933
      753.920400       0.005829
      754.034100       0.005710
      754.147800       0.005558
      754.261500       0.005447
      754.375400       0.005290
      754.489300       0.005150
      754.603100       0.005015
      754.717000       0.004900
      754.830900       0.004797
      754.944900       0.004723
      755.058900       0.004703
      755.173000       0.004732
      755.287000       0.004878
      755.401100       0.005101
      755.515300       0.005410
      755.629500       0.005720
      755.743700       0.006027
      755.857900       0.006260
      755.972200       0.006422
      756.086500       0.006435
      756.200900       0.006402
      756.315200       0.006253
      756.429600       0.006114
      756.544100       0.006052
      756.658600       0.006027
      756.773100       0.006083
      756.887700       0.006268
      757.002300       0.006494
      757.116900       0.006783
      757.231600       0.007058
      757.346300       0.007296
      757.461000       0.007489
      757.575700       0.007644
      757.690600       0.007833
      757.805400       0.007951
      757.920200       0.008078
      758.035200       0.008208
      758.150100       0.008341
      758.265100       0.008447
      758.380100       0.008532
      758.495100       0.008555
      758.610200       0.008560
      758.725300       0.008505
      758.840500       0.008516
      758.955700       0.008430
      759.070900       0.008344
      759.186200       0.008256
      759.301500       0.008184
      759.416700       0.008121
      759.532100       0.008103
      759.647500       0.008125
      759.763000       0.008205
      759.878400       0.008370
      759.993900       0.008658
      760.109400       0.008957
      760.225000       0.009267
      760.340600       0.009592
      760.456300       0.009884
      760.572000       0.010141
      760.687700       0.010300
      760.803400       0.010423
      760.919200       0.010414
      761.035000       0.010382
      761.150900       0.010405
      761.266800       0.010323
      761.382700       0.010244
      761.498700       0.010231
      761.614600       0.010241
      761.730700       0.010332
      761.846700       0.010450
      761.962800       0.010608
      762.079000       0.010781
      762.195100       0.010961
      762.311300       0.011240
      762.427600       0.011389
      762.543800       0.011506
      762.660200       0.011607
      762.776600       0.011693
      762.892900       0.011779
      763.009300       0.011869
      763.125700       0.011986
      763.242200       0.012118
      763.358800       0.012276
      763.475300       0.013629
      763.592000       0.013715
      763.708600       0.013803
      763.825300       0.013883
      763.942000       0.013938
      764.058700       0.013970
      764.175400       0.013981
      764.292300       0.013964
      764.409100       0.013936
      764.526000       0.013884
      764.642900       0.013839
      764.759800       0.013959
      764.876800       0.014086
      764.993900       0.014215
      765.111000       0.014366
      765.228000       0.014527
      765.345200       0.014719
      765.462300       0.014938
      765.579500       0.015181
      765.696800       0.015447
      765.814100       0.015519
      765.931400       0.015783
      766.048700       0.016029
      766.166100       0.016247
      766.283500       0.016421
      766.400900       0.016578
      766.518500       0.016702
      766.636000       0.016831
      766.753600       0.016971
      766.871200       0.017151
      766.988800       0.017132
      767.106400       0.017415
      767.224200       0.017721
      767.342000       0.018078
      767.459700       0.018447
      767.577500       0.018829
      767.695400       0.019209
      767.813200       0.019606
      767.931200       0.019973
      768.049100       0.020323
      768.167200       0.020380
      768.285200       0.020680
      768.403300       0.020973
      768.521400       0.021254
      768.639500       0.021544
      768.757700       0.021848
      768.875900       0.022185
      768.994200       0.022540
      769.112400       0.022958
      769.230800       0.023396
      769.349100       0.023564
      769.467500       0.024047
      769.585900       0.024537
      769.704500       0.025012
      769.822900       0.025482
      769.941500       0.025932
      770.060100       0.026386
      770.178600       0.026844
      770.297300       0.027337
      770.416100       0.027842
      770.534800       0.028004
      770.653500       0.028529
      770.772300       0.029058
      770.891100       0.029585
      771.010000       0.030118
      771.128900       0.030705
      771.247900       0.031342
      771.366900       0.032053
      771.485900       0.032875
      771.604900       0.033758
      771.724000       0.034275
      771.843100       0.035225
      771.962300       0.036158
      772.081500       0.037005
      772.200800       0.037816
      772.320100       0.038480
      772.439300       0.039116
      772.558700       0.039687
      772.678100       0.040248
      772.797500       0.040805
      772.917000       0.040855
      773.036500       0.041458
      773.156000       0.042098
      773.275600       0.042774
      773.395200       0.043473
      773.514800       0.044239
      773.634600       0.045035
      773.754300       0.045894
      773.874000       0.046783
      773.993800       0.047691
      774.113600       0.047962
      774.233500       0.048876
      774.353500       0.049798
      774.473400       0.050778
      774.593300       0.051798
      774.713400       0.052971
      774.833400       0.054202
      774.953500       0.055551
      775.073600       0.056957
      775.193800       0.058402
      775.314000       0.053316
      775.434300       0.055338
      775.554500       0.057346
      775.674800       0.059371
      775.795200       0.061420
      775.915600       0.063472
      776.036000       0.065541
      776.156500       0.067604
      776.277000       0.069663
      776.397500       0.071733
      776.518100       0.073808
      776.638700       0.074831
      776.759400       0.075872
      776.880100       0.076952
      777.000800       0.078050
      777.121500       0.079201
      777.242300       0.080367
      777.363200       0.081561
      777.484000       0.082791
      777.605000       0.084038
      777.726000       0.086675
      777.846900       0.088067
      777.968000       0.089539
      778.089000       0.091117
      778.210100       0.092743
      778.331300       0.094492
      778.452500       0.096281
      778.573700       0.098126
      778.694900       0.100002
      778.816200       0.101888
      778.937500       0.105448
      779.058900       0.107370
      779.180300       0.109285
      779.301800       0.111172
      779.423200       0.113035
      779.544700       0.114875
      779.666300       0.116706
      779.787900       0.118530
      779.909500       0.120391
      780.031300       0.122277
      780.152900       0.126291
      780.274700       0.128369
      780.396400       0.130506
      780.518200       0.132813
      780.640100       0.135176
      780.762000       0.137647
      780.884000       0.140158
      781.005900       0.142685
      781.127900       0.145170
      781.250000       0.147609
      781.372100       0.152490
      781.494300       0.154864
      781.616400       0.157240
      781.738600       0.159720
      781.860800       0.162350
      781.983100       0.165128
      782.105400       0.168216
      782.227800       0.171406
      782.350200       0.174788
      782.472700       0.178207
      782.595100       0.184660
      782.717600       0.188114
      782.840100       0.191535
      782.962700       0.194900
      783.085300       0.198255
      783.208100       0.201645
      783.330700       0.205099
      783.453500       0.208595
      783.576200       0.212143
      783.699000       0.215794
      783.821900       0.223025
      783.944800       0.226875
      784.067700       0.230787
      784.190700       0.234749
      784.313700       0.238853
      784.436800       0.243023
      784.559800       0.247331
      784.683000       0.251785
      784.806200       0.256315
      784.929400       0.260991
      785.052600       0.269880
      785.175900       0.274684
      785.299200       0.279442
      785.422500       0.284172
      785.546000       0.288838
      785.669400       0.293500
      785.792800       0.298155
      785.916400       0.302888
      786.039900       0.307670
      786.163500       0.312554
      786.287100       0.322522
      786.410800       0.327697
      786.534500       0.333090
      786.658300       0.338591
      786.782000       0.344209
      786.905900       0.350000
      787.029700       0.355923
      787.153600       0.362002
      787.277600       0.368113
      787.401600       0.374242
      787.525600       0.376639
      787.649700       0.383983
      787.773700       0.391384
      787.897900       0.398859
      788.022100       0.406381
      788.146300       0.413946
      788.270600       0.421516
      788.394800       0.429100
      788.519200       0.436622
      788.643500       0.444146
      788.767900       0.451818
      788.892400       0.458612
      789.016900       0.465445
      789.141400       0.472423
      789.266000       0.479538
      789.390600       0.486779
      789.515200       0.494243
      789.640000       0.501761
      789.764600       0.509340
      789.889400       0.516819
      790.014200       0.525250
      790.139000       0.532398
      790.263900       0.539386
      790.388900       0.546221
      790.513900       0.552889
      790.638900       0.559548
      790.763900       0.566214
      790.889000       0.573248
      791.014000       0.580531
      791.139200       0.587898
      791.264500       0.596400
      791.389700       0.603816
      791.515000       0.611230
      791.640300       0.618662
      791.765600       0.626099
      791.891000       0.633535
      792.016400       0.640982
      792.142000       0.648425
      792.267500       0.655849
      792.393000       0.663262
      792.518600       0.671827
      792.644200       0.679134
      792.769900       0.686368
      792.895600       0.693469
      793.021400       0.700495
      793.147200       0.707321
      793.273100       0.713939
      793.398900       0.720408
