18,   18, MVIRI VIS channel from srf_MET4_1991258_1991259_1801-Release_S10EL_10.dat
Number of data points:
752
Wavenumber (cm-1)   Filter response
     8745.080900       0.000000
     8752.735200       0.000000
     8760.403000       0.000001
     8768.084200       0.000059
     8775.778900       0.000199
     8783.487000       0.000419
     8791.208800       0.000717
     8798.944100       0.001091
     8806.693100       0.001537
     8814.455700       0.002055
     8822.232000       0.002641
     8830.022100       0.003294
     8837.825900       0.004012
     8845.643500       0.004792
     8853.475000       0.005634
     8861.320300       0.006534
     8869.179600       0.007492
     8877.052800       0.008505
     8884.940000       0.009573
     8892.841300       0.010692
     8900.756600       0.011862
     8908.686000       0.013082
     8916.629500       0.014349
     8924.587200       0.015662
     8932.559200       0.017020
     8940.545400       0.018422
     8948.545900       0.019866
     8956.560700       0.021352
     8964.589900       0.022877
     8972.633500       0.024441
     8980.691500       0.026043
     8988.764000       0.027681
     8996.851100       0.029355
     9004.952700       0.031064
     9013.068900       0.032806
     9021.199800       0.034581
     9029.345400       0.036388
     9037.505600       0.038226
     9045.680700       0.040094
     9053.870500       0.041991
     9062.075200       0.043917
     9070.294800       0.045871
     9078.529300       0.047852
     9086.778700       0.049861
     9095.043200       0.051895
     9103.322700       0.053954
     9111.617300       0.056038
     9119.927000       0.058147
     9128.251900       0.060279
     9136.592100       0.062435
     9144.947400       0.064613
     9153.318100       0.066814
     9161.704100       0.069036
     9170.105500       0.071280
     9178.522300       0.073546
     9186.954500       0.075832
     9195.402300       0.078139
     9203.865600       0.080465
     9212.344500       0.082812
     9220.839100       0.085178
     9229.349300       0.087563
     9237.875300       0.089967
     9246.417000       0.092390
     9254.974500       0.094832
     9263.547900       0.097292
     9272.137200       0.099770
     9280.742500       0.102266
     9289.363700       0.104779
     9298.000900       0.107311
     9306.654300       0.109860
     9315.323700       0.112426
     9324.009300       0.115010
     9332.711200       0.117611
     9341.429200       0.120229
     9350.163600       0.122863
     9358.914400       0.125515
     9367.681500       0.128184
     9376.465100       0.130869
     9385.265100       0.133571
     9394.081700       0.136289
     9402.914900       0.139024
     9411.764700       0.141776
     9420.631200       0.144545
     9429.514400       0.147330
     9438.414300       0.150131
     9447.331100       0.152949
     9456.264800       0.155783
     9465.215300       0.158634
     9474.182900       0.161502
     9483.167400       0.164386
     9492.169000       0.167286
     9501.187600       0.170203
     9510.223500       0.173137
     9519.276500       0.176086
     9528.346800       0.179053
     9537.434400       0.182037
     9546.539400       0.185036
     9555.661700       0.188053
     9564.801500       0.191086
     9573.958800       0.194136
     9583.133700       0.197203
     9592.326100       0.200286
     9601.536200       0.203386
     9610.764100       0.206503
     9620.009600       0.209636
     9629.273000       0.212787
     9638.554200       0.215954
     9647.853400       0.219139
     9657.170400       0.222339
     9666.505600       0.225558
     9675.858700       0.228793
     9685.230000       0.232044
     9694.619500       0.235313
     9704.027200       0.238599
     9713.453100       0.241902
     9722.897400       0.245222
     9732.360100       0.248558
     9741.841200       0.251912
     9751.340800       0.255282
     9760.859000       0.258670
     9770.395700       0.262074
     9779.951100       0.265495
     9789.525200       0.268934
     9799.118100       0.272389
     9808.729800       0.275860
     9818.360300       0.279349
     9828.009800       0.282854
     9837.678300       0.286377
     9847.365800       0.289915
     9857.072400       0.293471
     9866.798200       0.297043
     9876.543200       0.300631
     9886.307500       0.304236
     9896.091000       0.307857
     9905.894000       0.311494
     9915.716400       0.315148
     9925.558300       0.318817
     9935.419800       0.322503
     9945.300800       0.326205
     9955.201600       0.329922
     9965.122100       0.333656
     9975.062300       0.337404
     9985.022500       0.341168
     9995.002500       0.344948
    10005.002500       0.348743
    10015.022500       0.352553
    10025.062700       0.356378
    10035.122900       0.360217
    10045.203400       0.364071
    10055.304200       0.367940
    10065.425300       0.371824
    10075.566800       0.375721
    10085.728700       0.379632
    10095.911200       0.383557
    10106.114200       0.387496
    10116.337900       0.391448
    10126.582300       0.395414
    10136.847400       0.399392
    10147.133400       0.403383
    10157.440300       0.407387
    10167.768200       0.411404
    10178.117000       0.415432
    10188.487000       0.419473
    10198.878100       0.423525
    10209.290500       0.427589
    10219.724100       0.431664
    10230.179000       0.435749
    10240.655400       0.439846
    10251.153300       0.443953
    10261.672700       0.448071
    10272.213700       0.452198
    10282.776300       0.456335
    10293.360800       0.460482
    10303.967000       0.464637
    10314.595200       0.468802
    10325.245200       0.472974
    10335.917300       0.477156
    10346.611500       0.481345
    10357.327800       0.485541
    10368.066400       0.489745
    10378.827200       0.493956
    10389.610400       0.498174
    10400.416000       0.502398
    10411.244100       0.506628
    10422.094800       0.510863
    10432.968200       0.515104
    10443.864200       0.519351
    10454.783100       0.523601
    10465.724800       0.527856
    10476.689400       0.532115
    10487.677000       0.536378
    10498.687700       0.540643
    10509.721500       0.544912
    10520.778500       0.549183
    10531.858900       0.553456
    10542.962600       0.557731
    10554.089700       0.562007
    10565.240400       0.566285
    10576.414600       0.570563
    10587.612500       0.574841
    10598.834100       0.579119
    10610.079600       0.583396
    10621.348900       0.587673
    10632.642200       0.591948
    10643.959600       0.596221
    10655.301000       0.600492
    10666.666700       0.604761
    10678.056600       0.609026
    10689.470900       0.613289
    10700.909600       0.617547
    10712.372800       0.621802
    10723.860600       0.626051
    10735.373100       0.630296
    10746.910300       0.634535
    10758.472300       0.638768
    10770.059200       0.642995
    10781.671200       0.647216
    10793.308100       0.651429
    10804.970300       0.655634
    10816.657700       0.659832
    10828.370300       0.664021
    10840.108400       0.668201
    10851.871900       0.672372
    10863.661100       0.676534
    10875.475800       0.680685
    10887.316300       0.684826
    10899.182600       0.688956
    10911.074700       0.693074
    10922.992900       0.697181
    10934.937100       0.701275
    10946.907500       0.705356
    10958.904100       0.709425
    10970.927000       0.713480
    10982.976400       0.717521
    10995.052200       0.721547
    11007.154700       0.725559
    11019.283700       0.729555
    11031.439600       0.733536
    11043.622300       0.737500
    11055.832000       0.741449
    11068.068600       0.745380
    11080.332400       0.749294
    11092.623400       0.753190
    11104.941700       0.757067
    11117.287400       0.760926
    11129.660500       0.764766
    11142.061300       0.768587
    11154.489700       0.772388
    11166.945800       0.776169
    11179.429800       0.779929
    11191.941800       0.783668
    11204.481800       0.787385
    11217.049900       0.791080
    11229.646300       0.794754
    11242.270900       0.798404
    11254.924000       0.802032
    11267.605600       0.805636
    11280.315800       0.809216
    11293.054800       0.812772
    11305.822500       0.816304
    11318.619100       0.819810
    11331.444800       0.823292
    11344.299500       0.826747
    11357.183400       0.830176
    11370.096600       0.833580
    11383.039300       0.836956
    11396.011400       0.840305
    11409.013100       0.843626
    11422.044500       0.846920
    11435.105800       0.850185
    11448.196900       0.853422
    11461.318100       0.856630
    11474.469300       0.859809
    11487.650800       0.862958
    11500.862600       0.866078
    11514.104800       0.869167
    11527.377500       0.872226
    11540.680900       0.875254
    11554.015000       0.878251
    11567.380000       0.881216
    11580.775900       0.884150
    11594.202900       0.887051
    11607.661100       0.889921
    11621.150500       0.892758
    11634.671300       0.895562
    11648.223600       0.898332
    11661.807600       0.901070
    11675.423200       0.903774
    11689.070700       0.906444
    11702.750100       0.909079
    11716.461600       0.911680
    11730.205300       0.914247
    11743.981200       0.916779
    11757.789500       0.919275
    11771.630400       0.921736
    11785.503800       0.924162
    11799.410000       0.926552
    11813.349100       0.928906
    11827.321100       0.931223
    11841.326200       0.933505
    11855.364600       0.935749
    11869.436200       0.937957
    11883.541300       0.940128
    11897.680000       0.942262
    11911.852300       0.944358
    11926.058400       0.946417
    11940.298500       0.948439
    11954.572600       0.950422
    11968.880900       0.952368
    11983.223500       0.954276
    11997.600500       0.956145
    12012.012000       0.957976
    12026.458200       0.959769
    12040.939200       0.961523
    12055.455100       0.963239
    12070.006000       0.964916
    12084.592100       0.966554
    12099.213600       0.968153
    12113.870400       0.969713
    12128.562800       0.971234
    12143.290800       0.972716
    12158.054700       0.974159
    12172.854500       0.975562
    12187.690400       0.976926
    12202.562500       0.978251
    12217.471000       0.979536
    12232.415900       0.980782
    12247.397400       0.981989
    12262.415700       0.983156
    12277.470800       0.984283
    12292.563000       0.985371
    12307.692300       0.986420
    12322.858900       0.987429
    12338.062900       0.988399
    12353.304500       0.989329
    12368.583800       0.990220
    12383.900900       0.991071
    12399.256000       0.991883
    12414.649300       0.992656
    12430.080800       0.993390
    12445.550700       0.994085
    12461.059200       0.994740
    12476.606400       0.995357
    12492.192400       0.995934
    12507.817400       0.996473
    12523.481500       0.996973
    12539.185000       0.997434
    12554.927800       0.997857
    12570.710200       0.998241
    12586.532400       0.998587
    12602.394500       0.998895
    12618.296500       0.999165
    12634.238800       0.999397
    12650.221400       0.999591
    12666.244500       0.999747
    12682.308200       0.999866
    12698.412700       0.999948
    12714.558200       0.999992
    12730.744700       1.000000
    12746.972600       0.999971
    12763.241900       0.999905
    12779.552700       0.999803
    12795.905300       0.999665
    12812.299800       0.999490
    12828.736400       0.999280
    12845.215200       0.999034
    12861.736300       0.998753
    12878.300100       0.998437
    12894.906500       0.998086
    12911.555800       0.997701
    12928.248200       0.997281
    12944.983800       0.996826
    12961.762800       0.996338
    12978.585300       0.995816
    12995.451600       0.995261
    13012.361700       0.994673
    13029.316000       0.994052
    13046.314400       0.993399
    13063.357300       0.992713
    13080.444700       0.991995
    13097.576900       0.991245
    13114.754100       0.990465
    13131.976400       0.989653
    13149.243900       0.988810
    13166.556900       0.987937
    13183.915600       0.987034
    13201.320100       0.986101
    13218.770700       0.985139
    13236.267400       0.984148
    13253.810500       0.983127
    13271.400100       0.982079
    13289.036500       0.981002
    13306.719900       0.979898
    13324.450400       0.978766
    13342.228200       0.977607
    13360.053400       0.976422
    13377.926400       0.975210
    13395.847300       0.973972
    13413.816200       0.972709
    13431.833400       0.971421
    13449.899100       0.970108
    13468.013500       0.968770
    13486.176700       0.967409
    13504.388900       0.966024
    13522.650400       0.964616
    13540.961400       0.963185
    13559.322000       0.961731
    13577.732500       0.960256
    13596.193100       0.958759
    13614.703900       0.957241
    13633.265200       0.955702
    13651.877100       0.954143
    13670.540000       0.952564
    13689.253900       0.950965
    13708.019200       0.949347
    13726.836000       0.947711
    13745.704500       0.946056
    13764.624900       0.944384
    13783.597500       0.942694
    13802.622500       0.940987
    13821.700100       0.939264
    13840.830400       0.937525
    13860.013900       0.935770
    13879.250500       0.934000
    13898.540700       0.932215
    13917.884500       0.930416
    13937.282200       0.928604
    13956.734100       0.926777
    13976.240400       0.924938
    13995.801300       0.923087
    14015.417000       0.921223
    14035.087700       0.919348
    14054.813800       0.917461
    14074.595400       0.915564
    14094.432700       0.913657
    14114.326000       0.911740
    14134.275600       0.909813
    14154.281700       0.907878
    14174.344400       0.905934
    14194.464200       0.903982
    14214.641100       0.902022
    14234.875400       0.900056
    14255.167500       0.898083
    14275.517500       0.896104
    14295.925700       0.894118
    14316.392300       0.892128
    14336.917600       0.890133
    14357.501800       0.888133
    14378.145200       0.886130
    14398.848100       0.884123
    14419.610700       0.882112
    14440.433200       0.880100
    14461.316000       0.878085
    14482.259200       0.876068
    14503.263200       0.874050
    14524.328200       0.872031
    14545.454500       0.870011
    14566.642400       0.867992
    14587.892000       0.865973
    14609.203800       0.863955
    14630.577900       0.861938
    14652.014700       0.859923
    14673.514300       0.857909
    14695.077100       0.855899
    14716.703500       0.853891
    14738.393500       0.851886
    14760.147600       0.849886
    14781.966000       0.847889
    14803.849000       0.845897
    14825.796900       0.843910
    14847.809900       0.841928
    14869.888500       0.839952
    14892.032800       0.837982
    14914.243100       0.836018
    14936.519800       0.834061
    14958.863100       0.832112
    14981.273400       0.830170
    15003.750900       0.828236
    15026.296000       0.826310
    15048.909000       0.824393
    15071.590100       0.822485
    15094.339600       0.820587
    15117.158000       0.818698
    15140.045400       0.816819
    15163.002300       0.814951
    15186.028900       0.813093
    15209.125500       0.811246
    15232.292500       0.809411
    15255.530100       0.807587
    15278.838800       0.805775
    15302.218800       0.803976
    15325.670500       0.802189
    15349.194200       0.800415
    15372.790200       0.798654
    15396.458800       0.796906
    15420.200500       0.795173
    15444.015400       0.793452
    15467.904100       0.791747
    15491.866800       0.790055
    15515.903800       0.788379
    15540.015500       0.786717
    15564.202300       0.785071
    15588.464500       0.783439
    15612.802500       0.781824
    15637.216600       0.780224
    15661.707100       0.778641
    15686.274500       0.777073
    15710.919100       0.775522
    15735.641200       0.773988
    15760.441300       0.772470
    15785.319700       0.770969
    15810.276700       0.769486
    15835.312700       0.768019
    15860.428200       0.766570
    15885.623500       0.765139
    15910.899000       0.763725
    15936.255000       0.762329
    15961.691900       0.760951
    15987.210200       0.759591
    16012.810200       0.758249
    16038.492400       0.756925
    16064.257000       0.755620
    16090.104600       0.754333
    16116.035500       0.753064
    16142.050000       0.751814
    16168.148700       0.750582
    16194.332000       0.749369
    16220.600200       0.748175
    16246.953700       0.746999
    16273.393000       0.745842
    16299.918500       0.744703
    16326.530600       0.743583
    16353.229800       0.742482
    16380.016400       0.741399
    16406.890900       0.740335
    16433.853700       0.739290
    16460.905300       0.738263
    16488.046200       0.737255
    16515.276600       0.736264
    16542.597200       0.735293
    16570.008300       0.734339
    16597.510400       0.733403
    16625.103900       0.732486
    16652.789300       0.731586
    16680.567100       0.730705
    16708.437800       0.729841
    16736.401700       0.728994
    16764.459300       0.728165
    16792.611300       0.727353
    16820.857900       0.726558
    16849.199700       0.725780
    16877.637100       0.725019
    16906.170800       0.724274
    16934.801000       0.723545
    16963.528400       0.722833
    16992.353400       0.722136
    17021.276600       0.721455
    17050.298400       0.720790
    17079.419300       0.720139
    17108.639900       0.719503
    17137.960600       0.718882
    17167.382000       0.718276
    17196.904600       0.717683
    17226.528900       0.717104
    17256.255400       0.716538
    17286.084700       0.715986
    17316.017300       0.715446
    17346.053800       0.714919
    17376.194600       0.714403
    17406.440400       0.713900
    17436.791600       0.713408
    17467.248900       0.712926
    17497.812800       0.712456
    17528.483800       0.711996
    17559.262500       0.711545
    17590.149500       0.711104
    17621.145400       0.710672
    17652.250700       0.710248
    17683.466000       0.709832
    17714.791900       0.709424
    17746.228900       0.709024
    17777.777800       0.708630
    17809.439000       0.708242
    17841.213200       0.707860
    17873.101000       0.707484
    17905.103000       0.707112
    17937.219700       0.706744
    17969.451900       0.706381
    18001.800200       0.706020
    18034.265100       0.705662
    18066.847300       0.705307
    18099.547500       0.704953
    18132.366300       0.704600
    18165.304300       0.704248
    18198.362100       0.703895
    18231.540600       0.703542
    18264.840200       0.703188
    18298.261700       0.702832
    18331.805700       0.702473
    18365.472900       0.702112
    18399.264000       0.701747
    18433.179700       0.701377
    18467.220700       0.701003
    18501.387600       0.700623
    18535.681200       0.700237
    18570.102100       0.699844
    18604.651200       0.699444
    18639.329000       0.699036
    18674.136300       0.698619
    18709.073900       0.698192
    18744.142500       0.697755
    18779.342700       0.697308
    18814.675400       0.696849
    18850.141400       0.696377
    18885.741300       0.695893
    18921.475900       0.695395
    18957.346000       0.694883
    18993.352300       0.694356
    19029.495700       0.693813
    19065.776900       0.693254
