113,   113, MVIRI VIS channel from srf_MET5_2005123_2005124_1801-Release_S10EL_10.dat
Number of data points:
806
Wavenumber (cm-1)   Filter response
     8350.730700       0.000000
     8357.710000       0.000000
     8364.701000       0.000000
     8371.703600       0.000002
     8378.718100       0.000004
     8385.744200       0.000009
     8392.782200       0.000017
     8399.832000       0.000028
     8406.893700       0.000043
     8413.967200       0.000062
     8421.052600       0.000086
     8428.150000       0.000115
     8435.259400       0.000150
     8442.380800       0.000191
     8449.514200       0.000239
     8456.659600       0.000294
     8463.817200       0.000356
     8470.986900       0.000427
     8478.168700       0.000505
     8485.362700       0.000592
     8492.569000       0.000689
     8499.787500       0.000794
     8507.018300       0.000909
     8514.261400       0.001034
     8521.516800       0.001170
     8528.784600       0.001316
     8536.064900       0.001473
     8543.357500       0.001641
     8550.662700       0.001820
     8557.980300       0.002011
     8565.310500       0.002214
     8572.653200       0.002429
     8580.008600       0.002657
     8587.376600       0.002897
     8594.757200       0.003150
     8602.150500       0.003416
     8609.556600       0.003695
     8616.975400       0.003988
     8624.407100       0.004294
     8631.851500       0.004615
     8639.308900       0.004949
     8646.779100       0.005298
     8654.262200       0.005661
     8661.758300       0.006038
     8669.267400       0.006431
     8676.789600       0.006838
     8684.324800       0.007260
     8691.873100       0.007697
     8699.434500       0.008150
     8707.009100       0.008619
     8714.596900       0.009103
     8722.198000       0.009602
     8729.812300       0.010118
     8737.439900       0.010650
     8745.080900       0.011198
     8752.735200       0.011762
     8760.403000       0.012343
     8768.084200       0.012940
     8775.778900       0.013554
     8783.487000       0.014185
     8791.208800       0.014833
     8798.944100       0.015498
     8806.693100       0.016180
     8814.455700       0.016879
     8822.232000       0.017596
     8830.022100       0.018331
     8837.825900       0.019083
     8845.643500       0.019853
     8853.475000       0.020640
     8861.320300       0.021446
     8869.179600       0.022270
     8877.052800       0.023112
     8884.940000       0.023972
     8892.841300       0.024851
     8900.756600       0.025748
     8908.686000       0.026664
     8916.629500       0.027599
     8924.587200       0.028552
     8932.559200       0.029524
     8940.545400       0.030516
     8948.545900       0.031526
     8956.560700       0.032556
     8964.589900       0.033606
     8972.633500       0.034674
     8980.691500       0.035762
     8988.764000       0.036870
     8996.851100       0.037998
     9004.952700       0.039145
     9013.068900       0.040313
     9021.199800       0.041500
     9029.345400       0.042708
     9037.505600       0.043936
     9045.680700       0.045184
     9053.870500       0.046453
     9062.075200       0.047742
     9070.294800       0.049052
     9078.529300       0.050382
     9086.778700       0.051734
     9095.043200       0.053107
     9103.322700       0.054500
     9111.617300       0.055914
     9119.927000       0.057350
     9128.251900       0.058807
     9136.592100       0.060285
     9144.947400       0.061785
     9153.318100       0.063307
     9161.704100       0.064850
     9170.105500       0.066415
     9178.522300       0.068002
     9186.954500       0.069610
     9195.402300       0.071241
     9203.865600       0.072893
     9212.344500       0.074568
     9220.839100       0.076265
     9229.349300       0.077985
     9237.875300       0.079727
     9246.417000       0.081491
     9254.974500       0.083278
     9263.547900       0.085087
     9272.137200       0.086919
     9280.742500       0.088775
     9289.363700       0.090652
     9298.000900       0.092553
     9306.654300       0.094477
     9315.323700       0.096423
     9324.009300       0.098393
     9332.711200       0.100386
     9341.429200       0.102403
     9350.163600       0.104442
     9358.914400       0.106505
     9367.681500       0.108591
     9376.465100       0.110701
     9385.265100       0.112834
     9394.081700       0.114991
     9402.914900       0.117171
     9411.764700       0.119375
     9420.631200       0.121603
     9429.514400       0.123854
     9438.414300       0.126129
     9447.331100       0.128427
     9456.264800       0.130750
     9465.215300       0.133096
     9474.182900       0.135466
     9483.167400       0.137860
     9492.169000       0.140278
     9501.187600       0.142720
     9510.223500       0.145186
     9519.276500       0.147675
     9528.346800       0.150189
     9537.434400       0.152726
     9546.539400       0.155287
     9555.661700       0.157872
     9564.801500       0.160481
     9573.958800       0.163114
     9583.133700       0.165771
     9592.326100       0.168451
     9601.536200       0.171156
     9610.764100       0.173884
     9620.009600       0.176636
     9629.273000       0.179412
     9638.554200       0.182211
     9647.853400       0.185034
     9657.170400       0.187880
     9666.505600       0.190751
     9675.858700       0.193645
     9685.230000       0.196562
     9694.619500       0.199502
     9704.027200       0.202466
     9713.453100       0.205453
     9722.897400       0.208464
     9732.360100       0.211497
     9741.841200       0.214554
     9751.340800       0.217633
     9760.859000       0.220736
     9770.395700       0.223861
     9779.951100       0.227009
     9789.525200       0.230180
     9799.118100       0.233373
     9808.729800       0.236588
     9818.360300       0.239826
     9828.009800       0.243085
     9837.678300       0.246367
     9847.365800       0.249671
     9857.072400       0.252996
     9866.798200       0.256344
     9876.543200       0.259712
     9886.307500       0.263103
     9896.091000       0.266514
     9905.894000       0.269946
     9915.716400       0.273400
     9925.558300       0.276874
     9935.419800       0.280368
     9945.300800       0.283884
     9955.201600       0.287419
     9965.122100       0.290975
     9975.062300       0.294550
     9985.022500       0.298145
     9995.002500       0.301760
    10005.002500       0.305394
    10015.022500       0.309047
    10025.062700       0.312719
    10035.122900       0.316410
    10045.203400       0.320120
    10055.304200       0.323847
    10065.425300       0.327593
    10075.566800       0.331357
    10085.728700       0.335138
    10095.911200       0.338937
    10106.114200       0.342753
    10116.337900       0.346586
    10126.582300       0.350436
    10136.847400       0.354302
    10147.133400       0.358184
    10157.440300       0.362083
    10167.768200       0.365997
    10178.117000       0.369926
    10188.487000       0.373871
    10198.878100       0.377830
    10209.290500       0.381804
    10219.724100       0.385793
    10230.179000       0.389795
    10240.655400       0.393812
    10251.153300       0.397841
    10261.672700       0.401884
    10272.213700       0.405940
    10282.776300       0.410008
    10293.360800       0.414089
    10303.967000       0.418182
    10314.595200       0.422286
    10325.245200       0.426402
    10335.917300       0.430529
    10346.611500       0.434666
    10357.327800       0.438814
    10368.066400       0.442972
    10378.827200       0.447140
    10389.610400       0.451317
    10400.416000       0.455503
    10411.244100       0.459698
    10422.094800       0.463901
    10432.968200       0.468112
    10443.864200       0.472331
    10454.783100       0.476557
    10465.724800       0.480790
    10476.689400       0.485030
    10487.677000       0.489276
    10498.687700       0.493528
    10509.721500       0.497786
    10520.778500       0.502048
    10531.858900       0.506316
    10542.962600       0.510587
    10554.089700       0.514863
    10565.240400       0.519143
    10576.414600       0.523425
    10587.612500       0.527711
    10598.834100       0.531999
    10610.079600       0.536289
    10621.348900       0.540581
    10632.642200       0.544875
    10643.959600       0.549169
    10655.301000       0.553464
    10666.666700       0.557759
    10678.056600       0.562054
    10689.470900       0.566348
    10700.909600       0.570641
    10712.372800       0.574933
    10723.860600       0.579223
    10735.373100       0.583510
    10746.910300       0.587795
    10758.472300       0.592077
    10770.059200       0.596356
    10781.671200       0.600631
    10793.308100       0.604901
    10804.970300       0.609167
    10816.657700       0.613428
    10828.370300       0.617683
    10840.108400       0.621932
    10851.871900       0.626175
    10863.661100       0.630412
    10875.475800       0.634641
    10887.316300       0.638863
    10899.182600       0.643076
    10911.074700       0.647282
    10922.992900       0.651479
    10934.937100       0.655666
    10946.907500       0.659844
    10958.904100       0.664012
    10970.927000       0.668169
    10982.976400       0.672316
    10995.052200       0.676452
    11007.154700       0.680575
    11019.283700       0.684687
    11031.439600       0.688787
    11043.622300       0.692873
    11055.832000       0.696947
    11068.068600       0.701006
    11080.332400       0.705052
    11092.623400       0.709083
    11104.941700       0.713100
    11117.287400       0.717101
    11129.660500       0.721086
    11142.061300       0.725056
    11154.489700       0.729009
    11166.945800       0.732945
    11179.429800       0.736864
    11191.941800       0.740766
    11204.481800       0.744649
    11217.049900       0.748514
    11229.646300       0.752361
    11242.270900       0.756188
    11254.924000       0.759996
    11267.605600       0.763784
    11280.315800       0.767551
    11293.054800       0.771298
    11305.822500       0.775024
    11318.619100       0.778729
    11331.444800       0.782412
    11344.299500       0.786073
    11357.183400       0.789712
    11370.096600       0.793328
    11383.039300       0.796920
    11396.011400       0.800489
    11409.013100       0.804035
    11422.044500       0.807556
    11435.105800       0.811053
    11448.196900       0.814525
    11461.318100       0.817972
    11474.469300       0.821393
    11487.650800       0.824788
    11500.862600       0.828158
    11514.104800       0.831501
    11527.377500       0.834817
    11540.680900       0.838106
    11554.015000       0.841368
    11567.380000       0.844603
    11580.775900       0.847809
    11594.202900       0.850987
    11607.661100       0.854136
    11621.150500       0.857257
    11634.671300       0.860349
    11648.223600       0.863411
    11661.807600       0.866444
    11675.423200       0.869447
    11689.070700       0.872419
    11702.750100       0.875362
    11716.461600       0.878273
    11730.205300       0.881154
    11743.981200       0.884004
    11757.789500       0.886822
    11771.630400       0.889609
    11785.503800       0.892363
    11799.410000       0.895086
    11813.349100       0.897777
    11827.321100       0.900435
    11841.326200       0.903060
    11855.364600       0.905653
    11869.436200       0.908212
    11883.541300       0.910738
    11897.680000       0.913231
    11911.852300       0.915690
    11926.058400       0.918115
    11940.298500       0.920507
    11954.572600       0.922864
    11968.880900       0.925187
    11983.223500       0.927475
    11997.600500       0.929729
    12012.012000       0.931949
    12026.458200       0.934133
    12040.939200       0.936282
    12055.455100       0.938397
    12070.006000       0.940476
    12084.592100       0.942520
    12099.213600       0.944528
    12113.870400       0.946501
    12128.562800       0.948438
    12143.290800       0.950339
    12158.054700       0.952205
    12172.854500       0.954035
    12187.690400       0.955829
    12202.562500       0.957586
    12217.471000       0.959308
    12232.415900       0.960994
    12247.397400       0.962644
    12262.415700       0.964257
    12277.470800       0.965834
    12292.563000       0.967375
    12307.692300       0.968880
    12322.858900       0.970348
    12338.062900       0.971780
    12353.304500       0.973176
    12368.583800       0.974536
    12383.900900       0.975859
    12399.256000       0.977146
    12414.649300       0.978397
    12430.080800       0.979612
    12445.550700       0.980790
    12461.059200       0.981932
    12476.606400       0.983039
    12492.192400       0.984109
    12507.817400       0.985143
    12523.481500       0.986142
    12539.185000       0.987104
    12554.927800       0.988031
    12570.710200       0.988922
    12586.532400       0.989778
    12602.394500       0.990598
    12618.296500       0.991383
    12634.238800       0.992132
    12650.221400       0.992847
    12666.244500       0.993526
    12682.308200       0.994171
    12698.412700       0.994780
    12714.558200       0.995356
    12730.744700       0.995896
    12746.972600       0.996403
    12763.241900       0.996875
    12779.552700       0.997313
    12795.905300       0.997717
    12812.299800       0.998088
    12828.736400       0.998425
    12845.215200       0.998729
    12861.736300       0.999000
    12878.300100       0.999238
    12894.906500       0.999443
    12911.555800       0.999616
    12928.248200       0.999756
    12944.983800       0.999865
    12961.762800       0.999941
    12978.585300       0.999986
    12995.451600       1.000000
    13012.361700       0.999982
    13029.316000       0.999934
    13046.314400       0.999855
    13063.357300       0.999746
    13080.444700       0.999606
    13097.576900       0.999437
    13114.754100       0.999238
    13131.976400       0.999009
    13149.243900       0.998752
    13166.556900       0.998466
    13183.915600       0.998152
    13201.320100       0.997809
    13218.770700       0.997439
    13236.267400       0.997041
    13253.810500       0.996615
    13271.400100       0.996163
    13289.036500       0.995684
    13306.719900       0.995179
    13324.450400       0.994648
    13342.228200       0.994091
    13360.053400       0.993509
    13377.926400       0.992903
    13395.847300       0.992271
    13413.816200       0.991615
    13431.833400       0.990935
    13449.899100       0.990232
    13468.013500       0.989505
    13486.176700       0.988756
    13504.388900       0.987984
    13522.650400       0.987190
    13540.961400       0.986374
    13559.322000       0.985537
    13577.732500       0.984678
    13596.193100       0.983799
    13614.703900       0.982900
    13633.265200       0.981981
    13651.877100       0.981043
    13670.540000       0.980085
    13689.253900       0.979108
    13708.019200       0.978114
    13726.836000       0.977101
    13745.704500       0.976071
    13764.624900       0.975024
    13783.597500       0.973960
    13802.622500       0.972879
    13821.700100       0.971783
    13840.830400       0.970672
    13860.013900       0.969545
    13879.250500       0.968403
    13898.540700       0.967247
    13917.884500       0.966078
    13937.282200       0.964895
    13956.734100       0.963698
    13976.240400       0.962490
    13995.801300       0.961269
    14015.417000       0.960036
    14035.087700       0.958792
    14054.813800       0.957537
    14074.595400       0.956271
    14094.432700       0.954996
    14114.326000       0.953710
    14134.275600       0.952416
    14154.281700       0.951112
    14174.344400       0.949800
    14194.464200       0.948481
    14214.641100       0.947153
    14234.875400       0.945819
    14255.167500       0.944477
    14275.517500       0.943130
    14295.925700       0.941776
    14316.392300       0.940417
    14336.917600       0.939053
    14357.501800       0.937684
    14378.145200       0.936311
    14398.848100       0.934934
    14419.610700       0.933553
    14440.433200       0.932170
    14461.316000       0.930784
    14482.259200       0.929396
    14503.263200       0.928006
    14524.328200       0.926614
    14545.454500       0.925222
    14566.642400       0.923829
    14587.892000       0.922435
    14609.203800       0.921042
    14630.577900       0.919650
    14652.014700       0.918258
    14673.514300       0.916868
    14695.077100       0.915479
    14716.703500       0.914093
    14738.393500       0.912708
    14760.147600       0.911327
    14781.966000       0.909949
    14803.849000       0.908575
    14825.796900       0.907204
    14847.809900       0.905838
    14869.888500       0.904476
    14892.032800       0.903119
    14914.243100       0.901768
    14936.519800       0.900422
    14958.863100       0.899082
    14981.273400       0.897748
    15003.750900       0.896421
    15026.296000       0.895101
    15048.909000       0.893789
    15071.590100       0.892484
    15094.339600       0.891186
    15117.158000       0.889897
    15140.045400       0.888617
    15163.002300       0.887345
    15186.028900       0.886082
    15209.125500       0.884829
    15232.292500       0.883585
    15255.530100       0.882351
    15278.838800       0.881127
    15302.218800       0.879914
    15325.670500       0.878711
    15349.194200       0.877519
    15372.790200       0.876338
    15396.458800       0.875168
    15420.200500       0.874010
    15444.015400       0.872864
    15467.904100       0.871730
    15491.866800       0.870608
    15515.903800       0.869498
    15540.015500       0.868401
    15564.202300       0.867317
    15588.464500       0.866245
    15612.802500       0.865187
    15637.216600       0.864142
    15661.707100       0.863110
    15686.274500       0.862092
    15710.919100       0.861087
    15735.641200       0.860097
    15760.441300       0.859120
    15785.319700       0.858157
    15810.276700       0.857209
    15835.312700       0.856274
    15860.428200       0.855354
    15885.623500       0.854449
    15910.899000       0.853557
    15936.255000       0.852681
    15961.691900       0.851819
    15987.210200       0.850971
    16012.810200       0.850139
    16038.492400       0.849321
    16064.257000       0.848517
    16090.104600       0.847729
    16116.035500       0.846955
    16142.050000       0.846195
    16168.148700       0.845451
    16194.332000       0.844721
    16220.600200       0.844006
    16246.953700       0.843305
    16273.393000       0.842619
    16299.918500       0.841948
    16326.530600       0.841291
    16353.229800       0.840648
    16380.016400       0.840019
    16406.890900       0.839405
    16433.853700       0.838804
    16460.905300       0.838217
    16488.046200       0.837645
    16515.276600       0.837085
    16542.597200       0.836539
    16570.008300       0.836007
    16597.510400       0.835488
    16625.103900       0.834981
    16652.789300       0.834488
    16680.567100       0.834007
    16708.437800       0.833538
    16736.401700       0.833081
    16764.459300       0.832637
    16792.611300       0.832204
    16820.857900       0.831782
    16849.199700       0.831372
    16877.637100       0.830972
    16906.170800       0.830583
    16934.801000       0.830204
    16963.528400       0.829836
    16992.353400       0.829477
    17021.276600       0.829127
    17050.298400       0.828787
    17079.419300       0.828455
    17108.639900       0.828132
    17137.960600       0.827816
    17167.382000       0.827509
    17196.904600       0.827208
    17226.528900       0.826915
    17256.255400       0.826627
    17286.084700       0.826346
