116,   116, MVIRI VIS channel from srf_MET5_2005258_2005259_1801-Release_S10EL_10.dat
Number of data points:
806
Wavenumber (cm-1)   Filter response
     8350.730700       0.000000
     8357.710000       0.000000
     8364.701000       0.000000
     8371.703600       0.000002
     8378.718100       0.000004
     8385.744200       0.000009
     8392.782200       0.000017
     8399.832000       0.000028
     8406.893700       0.000043
     8413.967200       0.000062
     8421.052600       0.000086
     8428.150000       0.000115
     8435.259400       0.000150
     8442.380800       0.000191
     8449.514200       0.000239
     8456.659600       0.000294
     8463.817200       0.000357
     8470.986900       0.000427
     8478.168700       0.000506
     8485.362700       0.000593
     8492.569000       0.000690
     8499.787500       0.000795
     8507.018300       0.000911
     8514.261400       0.001036
     8521.516800       0.001172
     8528.784600       0.001318
     8536.064900       0.001475
     8543.357500       0.001644
     8550.662700       0.001823
     8557.980300       0.002015
     8565.310500       0.002218
     8572.653200       0.002433
     8580.008600       0.002661
     8587.376600       0.002902
     8594.757200       0.003155
     8602.150500       0.003422
     8609.556600       0.003702
     8616.975400       0.003995
     8624.407100       0.004302
     8631.851500       0.004623
     8639.308900       0.004958
     8646.779100       0.005307
     8654.262200       0.005671
     8661.758300       0.006049
     8669.267400       0.006442
     8676.789600       0.006850
     8684.324800       0.007273
     8691.873100       0.007711
     8699.434500       0.008164
     8707.009100       0.008634
     8714.596900       0.009118
     8722.198000       0.009619
     8729.812300       0.010136
     8737.439900       0.010668
     8745.080900       0.011217
     8752.735200       0.011782
     8760.403000       0.012364
     8768.084200       0.012962
     8775.778900       0.013577
     8783.487000       0.014209
     8791.208800       0.014858
     8798.944100       0.015524
     8806.693100       0.016208
     8814.455700       0.016908
     8822.232000       0.017626
     8830.022100       0.018362
     8837.825900       0.019115
     8845.643500       0.019886
     8853.475000       0.020675
     8861.320300       0.021482
     8869.179600       0.022307
     8877.052800       0.023151
     8884.940000       0.024012
     8892.841300       0.024892
     8900.756600       0.025791
     8908.686000       0.026708
     8916.629500       0.027644
     8924.587200       0.028599
     8932.559200       0.029573
     8940.545400       0.030566
     8948.545900       0.031578
     8956.560700       0.032610
     8964.589900       0.033661
     8972.633500       0.034731
     8980.691500       0.035821
     8988.764000       0.036930
     8996.851100       0.038060
     9004.952700       0.039209
     9013.068900       0.040378
     9021.199800       0.041567
     9029.345400       0.042777
     9037.505600       0.044006
     9045.680700       0.045257
     9053.870500       0.046527
     9062.075200       0.047818
     9070.294800       0.049130
     9078.529300       0.050463
     9086.778700       0.051816
     9095.043200       0.053191
     9103.322700       0.054586
     9111.617300       0.056002
     9119.927000       0.057440
     9128.251900       0.058899
     9136.592100       0.060380
     9144.947400       0.061882
     9153.318100       0.063406
     9161.704100       0.064951
     9170.105500       0.066518
     9178.522300       0.068107
     9186.954500       0.069718
     9195.402300       0.071351
     9203.865600       0.073005
     9212.344500       0.074683
     9220.839100       0.076382
     9229.349300       0.078104
     9237.875300       0.079848
     9246.417000       0.081615
     9254.974500       0.083404
     9263.547900       0.085216
     9272.137200       0.087051
     9280.742500       0.088908
     9289.363700       0.090788
     9298.000900       0.092692
     9306.654300       0.094618
     9315.323700       0.096567
     9324.009300       0.098540
     9332.711200       0.100536
     9341.429200       0.102554
     9350.163600       0.104597
     9358.914400       0.106662
     9367.681500       0.108751
     9376.465100       0.110863
     9385.265100       0.112999
     9394.081700       0.115159
     9402.914900       0.117342
     9411.764700       0.119548
     9420.631200       0.121779
     9429.514400       0.124033
     9438.414300       0.126311
     9447.331100       0.128612
     9456.264800       0.130937
     9465.215300       0.133287
     9474.182900       0.135660
     9483.167400       0.138057
     9492.169000       0.140477
     9501.187600       0.142922
     9510.223500       0.145391
     9519.276500       0.147883
     9528.346800       0.150399
     9537.434400       0.152940
     9546.539400       0.155504
     9555.661700       0.158092
     9564.801500       0.160704
     9573.958800       0.163340
     9583.133700       0.166000
     9592.326100       0.168683
     9601.536200       0.171391
     9610.764100       0.174122
     9620.009600       0.176877
     9629.273000       0.179656
     9638.554200       0.182458
     9647.853400       0.185284
     9657.170400       0.188134
     9666.505600       0.191007
     9675.858700       0.193905
     9685.230000       0.196825
     9694.619500       0.199769
     9704.027200       0.202735
     9713.453100       0.205726
     9722.897400       0.208740
     9732.360100       0.211776
     9741.841200       0.214836
     9751.340800       0.217919
     9760.859000       0.221024
     9770.395700       0.224153
     9779.951100       0.227304
     9789.525200       0.230478
     9799.118100       0.233674
     9808.729800       0.236892
     9818.360300       0.240133
     9828.009800       0.243396
     9837.678300       0.246681
     9847.365800       0.249988
     9857.072400       0.253317
     9866.798200       0.256668
     9876.543200       0.260039
     9886.307500       0.263433
     9896.091000       0.266847
     9905.894000       0.270283
     9915.716400       0.273739
     9925.558300       0.277216
     9935.419800       0.280714
     9945.300800       0.284233
     9955.201600       0.287771
     9965.122100       0.291330
     9975.062300       0.294908
     9985.022500       0.298507
     9995.002500       0.302125
    10005.002500       0.305762
    10015.022500       0.309418
    10025.062700       0.313094
    10035.122900       0.316787
    10045.203400       0.320500
    10055.304200       0.324231
    10065.425300       0.327980
    10075.566800       0.331747
    10085.728700       0.335531
    10095.911200       0.339333
    10106.114200       0.343152
    10116.337900       0.346988
    10126.582300       0.350840
    10136.847400       0.354709
    10147.133400       0.358595
    10157.440300       0.362496
    10167.768200       0.366413
    10178.117000       0.370345
    10188.487000       0.374293
    10198.878100       0.378255
    10209.290500       0.382232
    10219.724100       0.386223
    10230.179000       0.390228
    10240.655400       0.394248
    10251.153300       0.398280
    10261.672700       0.402326
    10272.213700       0.406384
    10282.776300       0.410455
    10293.360800       0.414539
    10303.967000       0.418634
    10314.595200       0.422741
    10325.245200       0.426859
    10335.917300       0.430989
    10346.611500       0.435129
    10357.327800       0.439279
    10368.066400       0.443439
    10378.827200       0.447609
    10389.610400       0.451789
    10400.416000       0.455977
    10411.244100       0.460174
    10422.094800       0.464380
    10432.968200       0.468593
    10443.864200       0.472814
    10454.783100       0.477043
    10465.724800       0.481278
    10476.689400       0.485520
    10487.677000       0.489768
    10498.687700       0.494022
    10509.721500       0.498281
    10520.778500       0.502546
    10531.858900       0.506815
    10542.962600       0.511089
    10554.089700       0.515367
    10565.240400       0.519648
    10576.414600       0.523932
    10587.612500       0.528219
    10598.834100       0.532509
    10610.079600       0.536801
    10621.348900       0.541095
    10632.642200       0.545390
    10643.959600       0.549686
    10655.301000       0.553982
    10666.666700       0.558278
    10678.056600       0.562574
    10689.470900       0.566870
    10700.909600       0.571164
    10712.372800       0.575457
    10723.860600       0.579748
    10735.373100       0.584037
    10746.910300       0.588323
    10758.472300       0.592606
    10770.059200       0.596886
    10781.671200       0.601161
    10793.308100       0.605433
    10804.970300       0.609699
    10816.657700       0.613961
    10828.370300       0.618217
    10840.108400       0.622467
    10851.871900       0.626710
    10863.661100       0.630948
    10875.475800       0.635177
    10887.316300       0.639399
    10899.182600       0.643614
    10911.074700       0.647820
    10922.992900       0.652016
    10934.937100       0.656204
    10946.907500       0.660382
    10958.904100       0.664550
    10970.927000       0.668708
    10982.976400       0.672855
    10995.052200       0.676990
    11007.154700       0.681114
    11019.283700       0.685226
    11031.439600       0.689325
    11043.622300       0.693411
    11055.832000       0.697484
    11068.068600       0.701544
    11080.332400       0.705589
    11092.623400       0.709620
    11104.941700       0.713636
    11117.287400       0.717636
    11129.660500       0.721621
    11142.061300       0.725590
    11154.489700       0.729542
    11166.945800       0.733477
    11179.429800       0.737395
    11191.941800       0.741296
    11204.481800       0.745178
    11217.049900       0.749042
    11229.646300       0.752888
    11242.270900       0.756714
    11254.924000       0.760520
    11267.605600       0.764307
    11280.315800       0.768073
    11293.054800       0.771819
    11305.822500       0.775543
    11318.619100       0.779246
    11331.444800       0.782928
    11344.299500       0.786587
    11357.183400       0.790224
    11370.096600       0.793838
    11383.039300       0.797429
    11396.011400       0.800996
    11409.013100       0.804539
    11422.044500       0.808058
    11435.105800       0.811553
    11448.196900       0.815023
    11461.318100       0.818467
    11474.469300       0.821886
    11487.650800       0.825280
    11500.862600       0.828647
    11514.104800       0.831987
    11527.377500       0.835301
    11540.680900       0.838588
    11554.015000       0.841847
    11567.380000       0.845078
    11580.775900       0.848282
    11594.202900       0.851457
    11607.661100       0.854604
    11621.150500       0.857722
    11634.671300       0.860810
    11648.223600       0.863869
    11661.807600       0.866899
    11675.423200       0.869899
    11689.070700       0.872868
    11702.750100       0.875807
    11716.461600       0.878715
    11730.205300       0.881593
    11743.981200       0.884439
    11757.789500       0.887254
    11771.630400       0.890037
    11785.503800       0.892788
    11799.410000       0.895507
    11813.349100       0.898194
    11827.321100       0.900848
    11841.326200       0.903469
    11855.364600       0.906058
    11869.436200       0.908614
    11883.541300       0.911136
    11897.680000       0.913624
    11911.852300       0.916079
    11926.058400       0.918500
    11940.298500       0.920888
    11954.572600       0.923240
    11968.880900       0.925559
    11983.223500       0.927843
    11997.600500       0.930093
    12012.012000       0.932307
    12026.458200       0.934487
    12040.939200       0.936632
    12055.455100       0.938742
    12070.006000       0.940816
    12084.592100       0.942855
    12099.213600       0.944859
    12113.870400       0.946827
    12128.562800       0.948759
    12143.290800       0.950656
    12158.054700       0.952516
    12172.854500       0.954341
    12187.690400       0.956130
    12202.562500       0.957883
    12217.471000       0.959599
    12232.415900       0.961280
    12247.397400       0.962924
    12262.415700       0.964533
    12277.470800       0.966104
    12292.563000       0.967640
    12307.692300       0.969139
    12322.858900       0.970602
    12338.062900       0.972029
    12353.304500       0.973419
    12368.583800       0.974773
    12383.900900       0.976091
    12399.256000       0.977373
    12414.649300       0.978618
    12430.080800       0.979827
    12445.550700       0.981000
    12461.059200       0.982136
    12476.606400       0.983237
    12492.192400       0.984301
    12507.817400       0.985330
    12523.481500       0.986322
    12539.185000       0.987279
    12554.927800       0.988200
    12570.710200       0.989085
    12586.532400       0.989935
    12602.394500       0.990749
    12618.296500       0.991528
    12634.238800       0.992271
    12650.221400       0.992979
    12666.244500       0.993653
    12682.308200       0.994291
    12698.412700       0.994895
    12714.558200       0.995464
    12730.744700       0.995998
    12746.972600       0.996498
    12763.241900       0.996964
    12779.552700       0.997396
    12795.905300       0.997794
    12812.299800       0.998159
    12828.736400       0.998489
    12845.215200       0.998787
    12861.736300       0.999052
    12878.300100       0.999283
    12894.906500       0.999482
    12911.555800       0.999648
    12928.248200       0.999782
    12944.983800       0.999884
    12961.762800       0.999954
    12978.585300       0.999993
    12995.451600       1.000000
    13012.361700       0.999976
    13029.316000       0.999921
    13046.314400       0.999835
    13063.357300       0.999720
    13080.444700       0.999573
    13097.576900       0.999398
    13114.754100       0.999192
    13131.976400       0.998957
    13149.243900       0.998693
    13166.556900       0.998401
    13183.915600       0.998080
    13201.320100       0.997730
    13218.770700       0.997353
    13236.267400       0.996949
    13253.810500       0.996517
    13271.400100       0.996058
    13289.036500       0.995573
    13306.719900       0.995061
    13324.450400       0.994523
    13342.228200       0.993960
    13360.053400       0.993371
    13377.926400       0.992758
    13395.847300       0.992119
    13413.816200       0.991457
    13431.833400       0.990770
    13449.899100       0.990060
    13468.013500       0.989327
    13486.176700       0.988571
    13504.388900       0.987793
    13522.650400       0.986992
    13540.961400       0.986169
    13559.322000       0.985325
    13577.732500       0.984461
    13596.193100       0.983575
    13614.703900       0.982669
    13633.265200       0.981743
    13651.877100       0.980798
    13670.540000       0.979834
    13689.253900       0.978851
    13708.019200       0.977850
    13726.836000       0.976831
    13745.704500       0.975794
    13764.624900       0.974740
    13783.597500       0.973669
    13802.622500       0.972583
    13821.700100       0.971480
    13840.830400       0.970362
    13860.013900       0.969228
    13879.250500       0.968080
    13898.540700       0.966918
    13917.884500       0.965742
    13937.282200       0.964552
    13956.734100       0.963349
    13976.240400       0.962134
    13995.801300       0.960907
    14015.417000       0.959668
    14035.087700       0.958417
    14054.813800       0.957155
    14074.595400       0.955883
    14094.432700       0.954601
    14114.326000       0.953310
    14134.275600       0.952009
    14154.281700       0.950699
    14174.344400       0.949380
    14194.464200       0.948054
    14214.641100       0.946720
    14234.875400       0.945379
    14255.167500       0.944032
    14275.517500       0.942678
    14295.925700       0.941318
    14316.392300       0.939952
    14336.917600       0.938582
    14357.501800       0.937207
    14378.145200       0.935827
    14398.848100       0.934444
    14419.610700       0.933057
    14440.433200       0.931668
    14461.316000       0.930275
    14482.259200       0.928881
    14503.263200       0.927485
    14524.328200       0.926087
    14545.454500       0.924688
    14566.642400       0.923289
    14587.892000       0.921889
    14609.203800       0.920490
    14630.577900       0.919091
    14652.014700       0.917693
    14673.514300       0.916297
    14695.077100       0.914902
    14716.703500       0.913509
    14738.393500       0.912119
    14760.147600       0.910732
    14781.966000       0.909347
    14803.849000       0.907967
    14825.796900       0.906590
    14847.809900       0.905217
    14869.888500       0.903850
    14892.032800       0.902487
    14914.243100       0.901129
    14936.519800       0.899777
    14958.863100       0.898431
    14981.273400       0.897091
    15003.750900       0.895758
    15026.296000       0.894432
    15048.909000       0.893113
    15071.590100       0.891802
    15094.339600       0.890499
    15117.158000       0.889204
    15140.045400       0.887917
    15163.002300       0.886639
    15186.028900       0.885370
    15209.125500       0.884111
    15232.292500       0.882861
    15255.530100       0.881620
    15278.838800       0.880390
    15302.218800       0.879171
    15325.670500       0.877962
    15349.194200       0.876764
    15372.790200       0.875577
    15396.458800       0.874401
    15420.200500       0.873237
    15444.015400       0.872085
    15467.904100       0.870944
    15491.866800       0.869816
    15515.903800       0.868700
    15540.015500       0.867597
    15564.202300       0.866506
    15588.464500       0.865429
    15612.802500       0.864364
    15637.216600       0.863313
    15661.707100       0.862275
    15686.274500       0.861251
    15710.919100       0.860240
    15735.641200       0.859243
    15760.441300       0.858260
    15785.319700       0.857291
    15810.276700       0.856336
    15835.312700       0.855395
    15860.428200       0.854469
    15885.623500       0.853557
    15910.899000       0.852660
    15936.255000       0.851777
    15961.691900       0.850908
    15987.210200       0.850054
    16012.810200       0.849215
    16038.492400       0.848391
    16064.257000       0.847581
    16090.104600       0.846786
    16116.035500       0.846006
    16142.050000       0.845240
    16168.148700       0.844489
    16194.332000       0.843753
    16220.600200       0.843031
    16246.953700       0.842324
    16273.393000       0.841631
    16299.918500       0.840953
    16326.530600       0.840289
    16353.229800       0.839640
    16380.016400       0.839004
    16406.890900       0.838383
    16433.853700       0.837776
    16460.905300       0.837182
    16488.046200       0.836603
    16515.276600       0.836037
    16542.597200       0.835484
    16570.008300       0.834945
    16597.510400       0.834419
    16625.103900       0.833906
    16652.789300       0.833405
    16680.567100       0.832917
    16708.437800       0.832442
    16736.401700       0.831978
    16764.459300       0.831526
    16792.611300       0.831086
    16820.857900       0.830658
    16849.199700       0.830240
    16877.637100       0.829834
    16906.170800       0.829438
    16934.801000       0.829052
    16963.528400       0.828676
    16992.353400       0.828310
    17021.276600       0.827954
    17050.298400       0.827606
    17079.419300       0.827267
    17108.639900       0.826936
    17137.960600       0.826614
    17167.382000       0.826299
    17196.904600       0.825991
    17226.528900       0.825690
    17256.255400       0.825396
    17286.084700       0.825107
