10,    JPSS-1 VIIRS DNB 0.7mu   SRF version 2.1 (V2.1) Nov 2016 J1_VIIRS_RSR_DNBLGS_BA_Fused_V2FS.txt
Number of data points:
988
Wavenumber (cm-1)   Filter response
    10787.463200       0.000000
    10894.295300       0.000000
    10906.984500       0.000175
    10919.383700       0.000206
    10931.801600       0.000237
    10940.867600       0.000316
    10953.488000       0.000410
    10965.476200       0.000543
    10978.327000       0.000683
    10990.471200       0.000865
    10999.773800       0.001096
    11012.229900       0.001318
    11024.733500       0.001663
    11037.416700       0.002007
    11049.880000       0.002657
    11062.611400       0.003518
    11075.310800       0.004637
    11084.014400       0.005542
    11092.195200       0.006402
    11097.036400       0.007336
    11098.843200       0.007884
    11100.579100       0.008309
    11100.593900       0.008291
    11108.531500       0.010574
    11109.146000       0.009794
    11113.370800       0.011809
    11116.688000       0.012980
    11117.303400       0.013145
    11117.729900       0.013224
    11117.944900       0.012617
    11125.269900       0.016295
    11125.310700       0.016368
    11125.356500       0.015817
    11125.377600       0.016375
    11133.391500       0.020805
    11138.303400       0.023938
    11138.428700       0.024610
    11142.060000       0.027656
    11150.088100       0.036941
    11150.693600       0.036914
    11150.877600       0.037854
    11151.266800       0.038692
    11159.192400       0.051844
    11159.604600       0.052736
    11160.163800       0.052878
    11163.665900       0.061602
    11166.550600       0.068733
    11168.335200       0.073748
    11172.497800       0.087289
    11175.730400       0.098342
    11176.075200       0.099888
    11180.729800       0.119327
    11184.462500       0.137928
    11185.677300       0.143570
    11192.434100       0.183654
    11192.808700       0.185808
    11198.057800       0.222149
    11200.172400       0.237947
    11201.225000       0.245048
    11201.739400       0.249528
    11208.323400       0.302474
    11209.319700       0.311775
    11209.983200       0.316755
    11210.503400       0.321725
    11210.551200       0.322291
    11217.087700       0.379744
    11218.069200       0.390072
    11218.747500       0.395786
    11223.004500       0.437207
    11231.144600       0.510833
    11235.578900       0.551410
    11235.754300       0.554382
    11244.064700       0.621344
    11248.182700       0.652562
    11250.537800       0.670836
    11251.927700       0.679809
    11252.188600       0.680235
    11259.014500       0.724129
    11259.664900       0.728240
    11260.658900       0.734970
    11260.954400       0.737046
    11260.967100       0.737945
    11267.420300       0.770163
    11268.790300       0.773938
    11269.045500       0.776416
    11273.729700       0.794163
    11277.795700       0.808891
    11285.464000       0.822739
    11285.661400       0.785971
    11286.164500       0.825773
    11292.762700       0.832686
    11294.229500       0.829775
    11302.243300       0.833413
    11303.011100       0.832359
    11303.214300       0.832527
    11310.112500       0.828237
    11311.010600       0.829011
    11318.206600       0.824372
    11319.773500       0.823958
    11327.360500       0.821532
    11328.023900       0.822720
    11328.515400       0.822428
    11335.576900       0.818331
    11336.477800       0.818147
    11336.801600       0.819997
    11343.481100       0.818901
    11344.716500       0.817940
    11345.255800       0.817852
    11352.240300       0.818127
    11353.507200       0.819596
    11353.654200       0.818988
    11361.712600       0.821598
    11362.288400       0.823842
    11369.699800       0.832737
    11378.495600       0.839040
    11378.899600       0.839637
    11386.094100       0.844399
    11386.940800       0.842137
    11395.247800       0.848408
    11395.728300       0.847370
    11402.292700       0.844220
    11411.062300       0.847682
    11412.127500       0.847240
    11419.501100       0.847042
    11420.210500       0.849190
    11421.237000       0.850805
    11427.859600       0.853892
    11429.361700       0.855186
    11431.866400       0.857112
    11436.669900       0.864587
    11437.771300       0.864786
    11438.154600       0.865778
    11444.648900       0.870587
    11445.834400       0.871697
    11446.556300       0.874117
    11453.157100       0.880704
    11454.642200       0.881403
    11461.605700       0.893283
    11462.949800       0.894085
    11465.634900       0.898767
    11470.019500       0.903032
    11478.450900       0.911709
    11479.908300       0.913203
    11486.704700       0.916740
    11487.253600       0.916795
    11495.284800       0.916936
    11495.488300       0.918782
    11496.435900       0.916539
    11498.907900       0.917644
    11503.712400       0.912833
    11504.262900       0.911806
    11505.237100       0.911814
    11512.491600       0.902641
    11513.453900       0.901632
    11524.033900       0.895520
    11529.986600       0.896960
    11530.840100       0.896889
    11537.255000       0.896712
    11545.825600       0.898111
    11546.061500       0.900085
    11554.239300       0.900359
    11554.667800       0.903482
    11555.180600       0.903687
    11562.709400       0.909003
    11571.232200       0.920866
    11579.408100       0.926232
    11580.037000       0.926943
    11584.021000       0.898813
    11588.190500       0.934496
    11588.832400       0.934987
    11592.021600       0.938321
    11596.494000       0.937050
    11600.948300       0.936138
    11604.849800       0.930659
    11606.475500       0.931432
    11613.402400       0.925191
    11613.627600       0.922033
    11614.106400       0.921801
    11622.216100       0.916806
    11625.823800       0.913539
    11631.001400       0.913481
    11638.641600       0.916740
    11639.793100       0.916439
    11647.440800       0.919061
    11648.254900       0.917038
    11656.266900       0.922496
    11659.282600       0.926675
    11664.013900       0.930740
    11664.533600       0.931562
    11668.004200       0.934213
    11680.863400       0.950017
    11681.246800       0.949279
    11681.929100       0.951090
    11685.102800       0.954682
    11689.308500       0.956035
    11697.597500       0.958974
    11698.150300       0.958994
    11706.427200       0.956617
    11706.483300       0.957449
    11714.938100       0.945332
    11715.262000       0.947398
    11723.121900       0.939922
    11731.597900       0.935417
    11732.299900       0.936295
    11739.817500       0.933904
    11740.418400       0.933396
    11743.327500       0.934681
    11748.016800       0.933934
    11749.234200       0.932172
    11756.263500       0.931953
    11757.174400       0.933251
    11764.696200       0.934677
    11765.319100       0.934658
    11765.889400       0.936452
    11768.910800       0.940321
    11773.567900       0.943661
    11774.176500       0.942379
    11781.778400       0.948242
    11782.423900       0.948834
    11786.990200       0.953353
    11790.210200       0.956538
    11790.614700       0.956380
    11794.443100       0.960360
    11799.467100       0.961077
    11799.826300       0.960374
    11807.295500       0.957746
    11810.862700       0.957274
    11815.840700       0.950870
    11816.150600       0.951316
    11816.308400       0.951334
    11819.614200       0.948493
    11820.129800       0.947949
    11824.322700       0.944070
    11825.005100       0.943878
    11828.736900       0.938228
    11841.700600       0.935944
    11845.319600       0.935839
    11849.218700       0.931422
    11854.195300       0.928052
    11858.082000       0.928204
    11866.681200       0.930606
    11867.041700       0.928658
    11867.265600       0.929099
    11874.544000       0.931270
    11878.250800       0.933046
    11879.516500       0.934638
    11882.670000       0.939818
    11892.219900       0.947572
    11900.048600       0.950686
    11900.772300       0.950574
    11904.863900       0.952555
    11911.789900       0.955009
    11916.613300       0.954728
    11917.740900       0.956558
    11920.639100       0.953732
    11925.712800       0.952619
    11925.977400       0.951255
    11930.231500       0.953300
    11944.795500       0.952731
    11951.907900       0.950806
    11956.439300       0.950873
    11959.211900       0.949400
    11967.829500       0.948495
    11968.007100       0.948037
    11972.169500       0.947744
    11976.448100       0.951922
    11984.649600       0.954613
    11997.341400       0.959758
    12010.130800       0.965573
    12022.709000       0.963617
    12035.617700       0.956632
    12061.058900       0.943419
    12077.226100       0.939368
    12089.926300       0.941948
    12102.845100       0.950586
    12115.374700       0.962675
    12128.349500       0.962225
    12140.855300       0.967099
    12157.034900       0.965967
    12166.073200       0.962345
    12195.455100       0.952549
    12207.922400       0.963304
    12220.788600       0.968083
    12233.461900       0.971645
    12246.094100       0.974275
    12262.325500       0.970326
    12275.009800       0.963086
    12287.931800       0.951732
    12300.552700       0.955664
    12325.811600       0.966992
    12338.894100       0.965870
    12353.725700       0.967946
    12367.679700       0.962717
    12380.403800       0.946811
    12393.201600       0.938729
    12406.021300       0.944822
    12418.684000       0.950280
    12433.221200       0.955591
    12460.006500       0.972989
    12473.076900       0.966374
    12485.640000       0.953394
    12497.706700       0.950273
    12519.434900       0.961228
    12536.303600       0.969800
    12556.661900       0.985566
    12574.209800       0.984174
    12594.134900       0.971194
    12628.574700       0.983091
    12645.715000       0.998893
    12665.918800       1.000000
    12683.205700       0.986397
    12703.828200       0.972679
    12720.642700       0.969660
    12737.907500       0.975686
    12756.672200       0.985602
    12775.458000       0.980622
    12813.215900       0.970849
    12830.214400       0.974474
    12847.195500       0.995041
    12864.204900       0.997898
    12884.818000       0.988568
    12901.824100       0.980286
    12922.469400       0.975673
    12939.689000       0.987319
    12956.397200       0.998136
    12994.208700       0.987983
    13011.078400       0.981921
    13028.041200       0.980542
    13048.685800       0.993782
    13063.780500       0.993921
    13065.926100       0.993726
    13070.583200       0.989305
    13078.390200       0.986002
    13079.136000       0.987442
    13086.886300       0.984624
    13088.714000       0.982438
    13096.088100       0.982091
    13096.415700       0.981481
    13097.926900       0.979876
    13099.702800       0.979384
    13106.020800       0.979615
    13112.439400       0.976730
    13113.438500       0.974796
    13120.308500       0.975349
    13120.902400       0.974452
    13122.329800       0.973472
    13122.739600       0.975216
    13129.140200       0.974816
    13130.538300       0.974884
    13131.186600       0.973476
    13137.683400       0.977064
    13138.011400       0.977439
    13145.361700       0.980910
    13147.259300       0.982786
    13152.912200       0.983022
    13154.327500       0.981091
    13155.549200       0.983850
    13155.753500       0.982013
    13163.199900       0.983818
    13164.844400       0.982173
    13170.942600       0.978758
    13172.729700       0.978596
    13175.182000       0.978493
    13179.469200       0.976119
    13180.176200       0.975354
    13181.201200       0.974430
    13187.963300       0.974620
    13189.003400       0.973219
    13191.919500       0.972287
    13196.792300       0.969891
    13198.307600       0.971292
    13206.030700       0.970677
    13207.113800       0.968909
    13208.921100       0.969154
    13213.846700       0.967805
    13217.364200       0.967787
    13229.499400       0.967521
    13231.572000       0.968130
    13239.060600       0.968365
    13246.698200       0.971035
    13247.551000       0.970715
    13255.353000       0.972737
    13256.071600       0.972878
    13257.103200       0.971347
    13263.195800       0.970549
    13272.677200       0.967656
    13273.045400       0.967783
    13279.443600       0.963145
    13289.358000       0.960759
    13290.076800       0.960367
    13296.443700       0.961129
    13297.868800       0.960140
    13298.567300       0.961313
    13306.390600       0.960981
    13314.176900       0.961317
    13314.905500       0.961931
    13315.605800       0.960911
    13329.448200       0.962262
    13338.280900       0.965224
    13340.387700       0.964258
    13356.691500       0.969510
    13363.433100       0.967785
    13365.233500       0.969057
    13366.660900       0.967450
    13373.716600       0.965976
    13381.841600       0.963898
    13390.024900       0.964339
    13396.766100       0.965576
    13398.528800       0.966473
    13405.262400       0.969358
    13407.036300       0.970265
    13415.558200       0.972232
    13417.288000       0.972042
    13423.346700       0.972182
    13425.806700       0.973263
    13432.533500       0.975162
    13441.012000       0.975860
    13449.508400       0.976361
    13455.911300       0.977492
    13457.662400       0.977463
    13459.461000       0.975471
    13464.412100       0.973707
    13466.130900       0.974056
    13482.507400       0.973711
    13482.865500       0.973690
    13489.167400       0.972101
    13490.990900       0.972055
    13497.719400       0.973892
    13506.229300       0.975662
    13507.978900       0.977534
    13509.820200       0.976611
    13522.537100       0.977169
    13532.682400       0.978353
    13533.132900       0.979853
    13533.501000       0.979710
    13539.555200       0.980656
    13541.366600       0.979804
    13543.506900       0.980044
    13548.400600       0.978433
    13549.858300       0.978907
    13551.362100       0.977275
    13557.680400       0.974467
    13558.355000       0.975395
    13566.481500       0.973014
    13566.860600       0.972656
    13568.336900       0.971944
    13572.878300       0.970609
    13574.951200       0.971250
    13575.347400       0.971705
    13581.367100       0.968607
    13585.291600       0.969102
    13589.476900       0.968515
    13590.117700       0.968391
    13593.457700       0.967629
    13600.150100       0.968850
    13606.567700       0.970755
    13607.632400       0.970865
    13608.873100       0.971460
    13613.291600       0.971953
    13617.214100       0.971336
    13623.228400       0.973799
    13623.250600       0.973241
    13624.581500       0.972501
    13631.347300       0.973186
    13634.224300       0.972223
    13641.680800       0.973321
    13642.319100       0.973043
    13650.827900       0.968784
    13658.660800       0.966631
    13658.976100       0.967246
    13660.750600       0.966570
    13665.283100       0.963010
    13669.233800       0.964626
    13672.805400       0.962193
    13675.924400       0.961123
    13676.059000       0.960735
    13677.750000       0.959712
    13684.065000       0.959967
    13690.005400       0.960949
    13695.114400       0.961196
    13697.626300       0.960437
    13698.373100       0.963087
    13701.092600       0.962379
    13708.940000       0.965349
    13709.680500       0.965457
    13711.802900       0.962122
    13716.013800       0.966141
    13733.479300       0.967509
    13750.425900       0.963811
    13767.399200       0.959608
    13784.437300       0.957862
    13801.831900       0.959052
    13820.120400       0.963289
    13837.559200       0.964255
    13854.585300       0.958914
    13893.498800       0.952634
    13909.869600       0.954156
    13926.839500       0.957523
    13943.850900       0.954870
    13960.785000       0.952406
    13977.752500       0.951614
    13994.628000       0.952009
    14011.491400       0.956959
    14030.877500       0.958974
    14064.541300       0.956282
    14081.411100       0.954072
    14098.257800       0.954094
    14115.095000       0.954888
    14131.790800       0.954643
    14153.750800       0.949936
    14170.847400       0.947461
    14204.345700       0.944459
    14221.372700       0.941028
    14228.290900       0.941109
    14235.112500       0.938446
    14237.443300       0.937035
    14238.355500       0.935236
    14241.500500       0.936898
    14245.592600       0.935870
    14249.644400       0.934301
    14253.739100       0.933294
    14255.435700       0.931126
    14261.884700       0.932052
    14266.941000       0.930273
    14271.017200       0.928580
    14272.300400       0.925759
    14275.063000       0.929671
    14279.158100       0.927747
    14283.210600       0.927393
    14287.292000       0.926636
    14291.341000       0.926517
    14299.474500       0.924452
    14304.518600       0.923086
    14308.601900       0.922548
    14312.642500       0.922516
    14316.732500       0.921166
    14320.779700       0.921041
    14324.872300       0.919230
    14328.920100       0.918519
    14333.789800       0.917634
    14342.130100       0.918344
    14346.187600       0.916357
    14350.255600       0.913797
    14354.321800       0.915955
    14358.363500       0.916037
    14362.459100       0.917153
    14366.596200       0.916956
    14370.591100       0.916891
    14375.640100       0.917834
    14383.768400       0.920504
    14387.857800       0.919963
    14391.906000       0.920072
    14395.993800       0.919004
    14400.040300       0.920103
    14404.114000       0.920113
    14409.186600       0.920009
    14413.236400       0.920488
    14417.317600       0.918071
    14427.507800       0.917583
    14429.535500       0.917790
    14434.611400       0.918044
    14437.689500       0.916319
    14442.748200       0.915865
    14446.781500       0.915882
    14450.890000       0.916051
    14454.942400       0.916037
    14459.036800       0.915861
    14467.178200       0.917956
    14472.201000       0.919352
    14476.177400       0.919918
    14480.346700       0.920661
    14484.468100       0.919421
    14488.493200       0.920713
    14491.142800       0.921420
    14496.648800       0.919465
    14498.693900       0.919095
    14512.907600       0.917354
    14517.001200       0.917324
    14522.035500       0.916562
    14524.535000       0.915348
    14530.169900       0.914661
    14541.366000       0.914617
    14547.420300       0.913319
    14549.481800       0.914441
    14555.549200       0.914093
    14563.685100       0.917626
    14567.724600       0.917844
    14572.172000       0.919517
    14576.547600       0.920088
    14580.938700       0.920603
    14584.964400       0.922050
    14589.066800       0.920922
    14593.097000       0.920423
    14597.204000       0.919678
    14601.230200       0.920749
    14605.405800       0.919182
    14609.432200       0.919920
    14614.409000       0.918998
    14618.372000       0.919368
    14618.485300       0.918831
    14622.536000       0.917284
    14626.623300       0.916860
    14630.676400       0.915749
    14638.804300       0.914026
    14639.398000       0.915607
    14643.887000       0.913830
    14647.926100       0.914124
    14652.021100       0.916238
    14656.071100       0.916156
    14660.293200       0.917650
    14660.454300       0.916957
    14664.216600       0.917585
    14673.346400       0.918776
    14677.414600       0.918787
    14681.306300       0.920731
    14681.489500       0.918688
    14685.558000       0.920822
    14689.628700       0.920508
    14693.690900       0.918489
