70,   70, MVIRI VIS channel from srf_MET5_1999348_1999349_1801-Release_S10EL_10.dat
Number of data points:
806
Wavenumber (cm-1)   Filter response
     8350.730700       0.000000
     8357.710000       0.000000
     8364.701000       0.000000
     8371.703600       0.000002
     8378.718100       0.000004
     8385.744200       0.000009
     8392.782200       0.000016
     8399.832000       0.000027
     8406.893700       0.000041
     8413.967200       0.000060
     8421.052600       0.000083
     8428.150000       0.000112
     8435.259400       0.000146
     8442.380800       0.000186
     8449.514200       0.000232
     8456.659600       0.000286
     8463.817200       0.000347
     8470.986900       0.000415
     8478.168700       0.000492
     8485.362700       0.000577
     8492.569000       0.000670
     8499.787500       0.000773
     8507.018300       0.000885
     8514.261400       0.001007
     8521.516800       0.001139
     8528.784600       0.001281
     8536.064900       0.001434
     8543.357500       0.001598
     8550.662700       0.001772
     8557.980300       0.001959
     8565.310500       0.002156
     8572.653200       0.002366
     8580.008600       0.002588
     8587.376600       0.002822
     8594.757200       0.003068
     8602.150500       0.003328
     8609.556600       0.003600
     8616.975400       0.003885
     8624.407100       0.004184
     8631.851500       0.004496
     8639.308900       0.004822
     8646.779100       0.005162
     8654.262200       0.005516
     8661.758300       0.005885
     8669.267400       0.006267
     8676.789600       0.006664
     8684.324800       0.007076
     8691.873100       0.007503
     8699.434500       0.007945
     8707.009100       0.008401
     8714.596900       0.008874
     8722.198000       0.009361
     8729.812300       0.009864
     8737.439900       0.010383
     8745.080900       0.010918
     8752.735200       0.011469
     8760.403000       0.012036
     8768.084200       0.012619
     8775.778900       0.013218
     8783.487000       0.013834
     8791.208800       0.014466
     8798.944100       0.015116
     8806.693100       0.015782
     8814.455700       0.016465
     8822.232000       0.017165
     8830.022100       0.017882
     8837.825900       0.018617
     8845.643500       0.019369
     8853.475000       0.020138
     8861.320300       0.020925
     8869.179600       0.021730
     8877.052800       0.022552
     8884.940000       0.023393
     8892.841300       0.024252
     8900.756600       0.025128
     8908.686000       0.026024
     8916.629500       0.026937
     8924.587200       0.027869
     8932.559200       0.028819
     8940.545400       0.029788
     8948.545900       0.030777
     8956.560700       0.031783
     8964.589900       0.032809
     8972.633500       0.033854
     8980.691500       0.034918
     8988.764000       0.036002
     8996.851100       0.037105
     9004.952700       0.038227
     9013.068900       0.039369
     9021.199800       0.040531
     9029.345400       0.041712
     9037.505600       0.042914
     9045.680700       0.044135
     9053.870500       0.045377
     9062.075200       0.046638
     9070.294800       0.047920
     9078.529300       0.049223
     9086.778700       0.050546
     9095.043200       0.051889
     9103.322700       0.053253
     9111.617300       0.054638
     9119.927000       0.056044
     9128.251900       0.057470
     9136.592100       0.058918
     9144.947400       0.060387
     9153.318100       0.061877
     9161.704100       0.063389
     9170.105500       0.064922
     9178.522300       0.066476
     9186.954500       0.068052
     9195.402300       0.069650
     9203.865600       0.071269
     9212.344500       0.072910
     9220.839100       0.074574
     9229.349300       0.076259
     9237.875300       0.077966
     9246.417000       0.079695
     9254.974500       0.081447
     9263.547900       0.083221
     9272.137200       0.085018
     9280.742500       0.086837
     9289.363700       0.088678
     9298.000900       0.090542
     9306.654300       0.092429
     9315.323700       0.094338
     9324.009300       0.096271
     9332.711200       0.098226
     9341.429200       0.100204
     9350.163600       0.102205
     9358.914400       0.104229
     9367.681500       0.106277
     9376.465100       0.108347
     9385.265100       0.110441
     9394.081700       0.112558
     9402.914900       0.114698
     9411.764700       0.116862
     9420.631200       0.119049
     9429.514400       0.121259
     9438.414300       0.123493
     9447.331100       0.125751
     9456.264800       0.128032
     9465.215300       0.130336
     9474.182900       0.132664
     9483.167400       0.135016
     9492.169000       0.137391
     9501.187600       0.139791
     9510.223500       0.142214
     9519.276500       0.144660
     9528.346800       0.147130
     9537.434400       0.149624
     9546.539400       0.152142
     9555.661700       0.154683
     9564.801500       0.157248
     9573.958800       0.159837
     9583.133700       0.162449
     9592.326100       0.165085
     9601.536200       0.167745
     9610.764100       0.170428
     9620.009600       0.173135
     9629.273000       0.175866
     9638.554200       0.178619
     9647.853400       0.181397
     9657.170400       0.184198
     9666.505600       0.187023
     9675.858700       0.189871
     9685.230000       0.192742
     9694.619500       0.195637
     9704.027200       0.198554
     9713.453100       0.201495
     9722.897400       0.204460
     9732.360100       0.207447
     9741.841200       0.210457
     9751.340800       0.213490
     9760.859000       0.216546
     9770.395700       0.219624
     9779.951100       0.222725
     9789.525200       0.225849
     9799.118100       0.228996
     9808.729800       0.232164
     9818.360300       0.235355
     9828.009800       0.238568
     9837.678300       0.241803
     9847.365800       0.245060
     9857.072400       0.248338
     9866.798200       0.251639
     9876.543200       0.254961
     9886.307500       0.258304
     9896.091000       0.261669
     9905.894000       0.265054
     9915.716400       0.268461
     9925.558300       0.271888
     9935.419800       0.275337
     9945.300800       0.278806
     9955.201600       0.282295
     9965.122100       0.285804
     9975.062300       0.289333
     9985.022500       0.292882
     9995.002500       0.296451
    10005.002500       0.300040
    10015.022500       0.303647
    10025.062700       0.307274
    10035.122900       0.310919
    10045.203400       0.314583
    10055.304200       0.318266
    10065.425300       0.321967
    10075.566800       0.325686
    10085.728700       0.329423
    10095.911200       0.333178
    10106.114200       0.336950
    10116.337900       0.340739
    10126.582300       0.344545
    10136.847400       0.348367
    10147.133400       0.352207
    10157.440300       0.356062
    10167.768200       0.359934
    10178.117000       0.363821
    10188.487000       0.367723
    10198.878100       0.371641
    10209.290500       0.375574
    10219.724100       0.379521
    10230.179000       0.383482
    10240.655400       0.387458
    10251.153300       0.391448
    10261.672700       0.395451
    10272.213700       0.399467
    10282.776300       0.403496
    10293.360800       0.407539
    10303.967000       0.411593
    10314.595200       0.415659
    10325.245200       0.419737
    10335.917300       0.423827
    10346.611500       0.427928
    10357.327800       0.432039
    10368.066400       0.436161
    10378.827200       0.440293
    10389.610400       0.444435
    10400.416000       0.448587
    10411.244100       0.452747
    10422.094800       0.456917
    10432.968200       0.461095
    10443.864200       0.465281
    10454.783100       0.469475
    10465.724800       0.473676
    10476.689400       0.477885
    10487.677000       0.482100
    10498.687700       0.486322
    10509.721500       0.490550
    10520.778500       0.494783
    10531.858900       0.499022
    10542.962600       0.503266
    10554.089700       0.507515
    10565.240400       0.511767
    10576.414600       0.516024
    10587.612500       0.520284
    10598.834100       0.524547
    10610.079600       0.528813
    10621.348900       0.533081
    10632.642200       0.537351
    10643.959600       0.541623
    10655.301000       0.545896
    10666.666700       0.550170
    10678.056600       0.554444
    10689.470900       0.558718
    10700.909600       0.562992
    10712.372800       0.567266
    10723.860600       0.571538
    10735.373100       0.575808
    10746.910300       0.580077
    10758.472300       0.584343
    10770.059200       0.588606
    10781.671200       0.592867
    10793.308100       0.597124
    10804.970300       0.601377
    10816.657700       0.605625
    10828.370300       0.609869
    10840.108400       0.614108
    10851.871900       0.618341
    10863.661100       0.622568
    10875.475800       0.626789
    10887.316300       0.631003
    10899.182600       0.635210
    10911.074700       0.639410
    10922.992900       0.643601
    10934.937100       0.647784
    10946.907500       0.651959
    10958.904100       0.656124
    10970.927000       0.660279
    10982.976400       0.664425
    10995.052200       0.668560
    11007.154700       0.672684
    11019.283700       0.676797
    11031.439600       0.680899
    11043.622300       0.684988
    11055.832000       0.689065
    11068.068600       0.693130
    11080.332400       0.697181
    11092.623400       0.701218
    11104.941700       0.705242
    11117.287400       0.709251
    11129.660500       0.713245
    11142.061300       0.717225
    11154.489700       0.721188
    11166.945800       0.725136
    11179.429800       0.729067
    11191.941800       0.732982
    11204.481800       0.736880
    11217.049900       0.740759
    11229.646300       0.744622
    11242.270900       0.748465
    11254.924000       0.752291
    11267.605600       0.756097
    11280.315800       0.759884
    11293.054800       0.763651
    11305.822500       0.767398
    11318.619100       0.771125
    11331.444800       0.774831
    11344.299500       0.778516
    11357.183400       0.782179
    11370.096600       0.785820
    11383.039300       0.789439
    11396.011400       0.793036
    11409.013100       0.796609
    11422.044500       0.800159
    11435.105800       0.803686
    11448.196900       0.807189
    11461.318100       0.810667
    11474.469300       0.814121
    11487.650800       0.817550
    11500.862600       0.820954
    11514.104800       0.824332
    11527.377500       0.827685
    11540.680900       0.831011
    11554.015000       0.834311
    11567.380000       0.837584
    11580.775900       0.840829
    11594.202900       0.844048
    11607.661100       0.847239
    11621.150500       0.850402
    11634.671300       0.853536
    11648.223600       0.856642
    11661.807600       0.859720
    11675.423200       0.862768
    11689.070700       0.865787
    11702.750100       0.868777
    11716.461600       0.871737
    11730.205300       0.874666
    11743.981200       0.877566
    11757.789500       0.880434
    11771.630400       0.883272
    11785.503800       0.886079
    11799.410000       0.888855
    11813.349100       0.891600
    11827.321100       0.894312
    11841.326200       0.896993
    11855.364600       0.899642
    11869.436200       0.902258
    11883.541300       0.904842
    11897.680000       0.907393
    11911.852300       0.909912
    11926.058400       0.912397
    11940.298500       0.914850
    11954.572600       0.917268
    11968.880900       0.919654
    11983.223500       0.922005
    11997.600500       0.924323
    12012.012000       0.926607
    12026.458200       0.928857
    12040.939200       0.931072
    12055.455100       0.933253
    12070.006000       0.935400
    12084.592100       0.937511
    12099.213600       0.939589
    12113.870400       0.941631
    12128.562800       0.943638
    12143.290800       0.945610
    12158.054700       0.947548
    12172.854500       0.949450
    12187.690400       0.951316
    12202.562500       0.953148
    12217.471000       0.954943
    12232.415900       0.956704
    12247.397400       0.958429
    12262.415700       0.960118
    12277.470800       0.961772
    12292.563000       0.963390
    12307.692300       0.964972
    12322.858900       0.966519
    12338.062900       0.968030
    12353.304500       0.969505
    12368.583800       0.970945
    12383.900900       0.972348
    12399.256000       0.973716
    12414.649300       0.975049
    12430.080800       0.976345
    12445.550700       0.977606
    12461.059200       0.978832
    12476.606400       0.980021
    12492.192400       0.981176
    12507.817400       0.982295
    12523.481500       0.983378
    12539.185000       0.984426
    12554.927800       0.985439
    12570.710200       0.986416
    12586.532400       0.987358
    12602.394500       0.988266
    12618.296500       0.989138
    12634.238800       0.989975
    12650.221400       0.990778
    12666.244500       0.991546
    12682.308200       0.992280
    12698.412700       0.992979
    12714.558200       0.993644
    12730.744700       0.994275
    12746.972600       0.994872
    12763.241900       0.995435
    12779.552700       0.995964
    12795.905300       0.996460
    12812.299800       0.996922
    12828.736400       0.997351
    12845.215200       0.997748
    12861.736300       0.998111
    12878.300100       0.998442
    12894.906500       0.998740
    12911.555800       0.999006
    12928.248200       0.999240
    12944.983800       0.999443
    12961.762800       0.999613
    12978.585300       0.999752
    12995.451600       0.999860
    13012.361700       0.999938
    13029.316000       0.999984
    13046.314400       1.000000
    13063.357300       0.999986
    13080.444700       0.999942
    13097.576900       0.999868
    13114.754100       0.999764
    13131.976400       0.999632
    13149.243900       0.999471
    13166.556900       0.999281
    13183.915600       0.999062
    13201.320100       0.998816
    13218.770700       0.998542
    13236.267400       0.998240
    13253.810500       0.997912
    13271.400100       0.997556
    13289.036500       0.997174
    13306.719900       0.996766
    13324.450400       0.996331
    13342.228200       0.995872
    13360.053400       0.995387
    13377.926400       0.994876
    13395.847300       0.994342
    13413.816200       0.993783
    13431.833400       0.993200
    13449.899100       0.992594
    13468.013500       0.991964
    13486.176700       0.991312
    13504.388900       0.990637
    13522.650400       0.989940
    13540.961400       0.989221
    13559.322000       0.988481
    13577.732500       0.987719
    13596.193100       0.986937
    13614.703900       0.986135
    13633.265200       0.985313
    13651.877100       0.984471
    13670.540000       0.983610
    13689.253900       0.982730
    13708.019200       0.981832
    13726.836000       0.980916
    13745.704500       0.979982
    13764.624900       0.979031
    13783.597500       0.978063
    13802.622500       0.977079
    13821.700100       0.976079
    13840.830400       0.975063
    13860.013900       0.974032
    13879.250500       0.972987
    13898.540700       0.971927
    13917.884500       0.970853
    13937.282200       0.969765
    13956.734100       0.968664
    13976.240400       0.967551
    13995.801300       0.966425
    14015.417000       0.965287
    14035.087700       0.964138
    14054.813800       0.962978
    14074.595400       0.961807
    14094.432700       0.960626
    14114.326000       0.959435
    14134.275600       0.958235
    14154.281700       0.957026
    14174.344400       0.955808
    14194.464200       0.954582
    14214.641100       0.953348
    14234.875400       0.952107
    14255.167500       0.950860
    14275.517500       0.949605
    14295.925700       0.948345
    14316.392300       0.947079
    14336.917600       0.945808
    14357.501800       0.944532
    14378.145200       0.943252
    14398.848100       0.941968
    14419.610700       0.940680
    14440.433200       0.939389
    14461.316000       0.938095
    14482.259200       0.936799
    14503.263200       0.935502
    14524.328200       0.934202
    14545.454500       0.932902
    14566.642400       0.931600
    14587.892000       0.930299
    14609.203800       0.928997
    14630.577900       0.927696
    14652.014700       0.926396
    14673.514300       0.925097
    14695.077100       0.923800
    14716.703500       0.922504
    14738.393500       0.921211
    14760.147600       0.919921
    14781.966000       0.918634
    14803.849000       0.917350
    14825.796900       0.916070
    14847.809900       0.914795
    14869.888500       0.913524
    14892.032800       0.912258
    14914.243100       0.910997
    14936.519800       0.909742
    14958.863100       0.908492
    14981.273400       0.907249
    15003.750900       0.906013
    15026.296000       0.904783
    15048.909000       0.903561
    15071.590100       0.902346
    15094.339600       0.901139
    15117.158000       0.899941
    15140.045400       0.898751
    15163.002300       0.897569
    15186.028900       0.896397
    15209.125500       0.895234
    15232.292500       0.894081
    15255.530100       0.892937
    15278.838800       0.891804
    15302.218800       0.890681
    15325.670500       0.889569
    15349.194200       0.888468
    15372.790200       0.887378
    15396.458800       0.886299
    15420.200500       0.885232
    15444.015400       0.884177
    15467.904100       0.883134
    15491.866800       0.882104
    15515.903800       0.881085
    15540.015500       0.880080
    15564.202300       0.879087
    15588.464500       0.878107
    15612.802500       0.877141
    15637.216600       0.876188
    15661.707100       0.875249
    15686.274500       0.874323
    15710.919100       0.873411
    15735.641200       0.872513
    15760.441300       0.871629
    15785.319700       0.870759
    15810.276700       0.869904
    15835.312700       0.869063
    15860.428200       0.868237
    15885.623500       0.867425
    15910.899000       0.866628
    15936.255000       0.865846
    15961.691900       0.865078
    15987.210200       0.864325
    16012.810200       0.863588
    16038.492400       0.862865
    16064.257000       0.862157
    16090.104600       0.861464
    16116.035500       0.860786
    16142.050000       0.860123
    16168.148700       0.859475
    16194.332000       0.858843
    16220.600200       0.858224
    16246.953700       0.857621
    16273.393000       0.857033
    16299.918500       0.856459
    16326.530600       0.855901
    16353.229800       0.855356
    16380.016400       0.854827
    16406.890900       0.854311
    16433.853700       0.853810
    16460.905300       0.853324
    16488.046200       0.852851
    16515.276600       0.852392
    16542.597200       0.851947
    16570.008300       0.851516
    16597.510400       0.851098
    16625.103900       0.850694
    16652.789300       0.850302
    16680.567100       0.849924
    16708.437800       0.849558
    16736.401700       0.849204
    16764.459300       0.848863
    16792.611300       0.848534
    16820.857900       0.848217
    16849.199700       0.847911
    16877.637100       0.847616
    16906.170800       0.847333
    16934.801000       0.847060
    16963.528400       0.846797
    16992.353400       0.846544
    17021.276600       0.846301
    17050.298400       0.846068
    17079.419300       0.845843
    17108.639900       0.845628
    17137.960600       0.845420
    17167.382000       0.845221
    17196.904600       0.845029
    17226.528900       0.844844
    17256.255400       0.844666
    17286.084700       0.844494
