60,   60, MVIRI VIS channel from srf_MET5_1998258_1998259_1801-Release_S10EL_10.dat
Number of data points:
806
Wavenumber (cm-1)   Filter response
     8350.730700       0.000000
     8357.710000       0.000000
     8364.701000       0.000000
     8371.703600       0.000002
     8378.718100       0.000004
     8385.744200       0.000009
     8392.782200       0.000016
     8399.832000       0.000027
     8406.893700       0.000041
     8413.967200       0.000060
     8421.052600       0.000083
     8428.150000       0.000111
     8435.259400       0.000145
     8442.380800       0.000185
     8449.514200       0.000231
     8456.659600       0.000284
     8463.817200       0.000345
     8470.986900       0.000413
     8478.168700       0.000489
     8485.362700       0.000573
     8492.569000       0.000666
     8499.787500       0.000768
     8507.018300       0.000880
     8514.261400       0.001001
     8521.516800       0.001132
     8528.784600       0.001273
     8536.064900       0.001425
     8543.357500       0.001588
     8550.662700       0.001762
     8557.980300       0.001947
     8565.310500       0.002143
     8572.653200       0.002352
     8580.008600       0.002572
     8587.376600       0.002805
     8594.757200       0.003050
     8602.150500       0.003307
     8609.556600       0.003578
     8616.975400       0.003862
     8624.407100       0.004159
     8631.851500       0.004469
     8639.308900       0.004793
     8646.779100       0.005131
     8654.262200       0.005483
     8661.758300       0.005849
     8669.267400       0.006230
     8676.789600       0.006624
     8684.324800       0.007034
     8691.873100       0.007458
     8699.434500       0.007897
     8707.009100       0.008352
     8714.596900       0.008821
     8722.198000       0.009306
     8729.812300       0.009806
     8737.439900       0.010322
     8745.080900       0.010854
     8752.735200       0.011402
     8760.403000       0.011965
     8768.084200       0.012545
     8775.778900       0.013141
     8783.487000       0.013754
     8791.208800       0.014382
     8798.944100       0.015028
     8806.693100       0.015690
     8814.455700       0.016369
     8822.232000       0.017066
     8830.022100       0.017779
     8837.825900       0.018510
     8845.643500       0.019257
     8853.475000       0.020022
     8861.320300       0.020805
     8869.179600       0.021606
     8877.052800       0.022424
     8884.940000       0.023260
     8892.841300       0.024114
     8900.756600       0.024986
     8908.686000       0.025877
     8916.629500       0.026785
     8924.587200       0.027712
     8932.559200       0.028657
     8940.545400       0.029622
     8948.545900       0.030604
     8956.560700       0.031606
     8964.589900       0.032627
     8972.633500       0.033666
     8980.691500       0.034725
     8988.764000       0.035803
     8996.851100       0.036900
     9004.952700       0.038016
     9013.068900       0.039152
     9021.199800       0.040308
     9029.345400       0.041484
     9037.505600       0.042679
     9045.680700       0.043894
     9053.870500       0.045129
     9062.075200       0.046385
     9070.294800       0.047660
     9078.529300       0.048956
     9086.778700       0.050272
     9095.043200       0.051609
     9103.322700       0.052966
     9111.617300       0.054345
     9119.927000       0.055743
     9128.251900       0.057163
     9136.592100       0.058604
     9144.947400       0.060066
     9153.318100       0.061549
     9161.704100       0.063053
     9170.105500       0.064578
     9178.522300       0.066125
     9186.954500       0.067694
     9195.402300       0.069284
     9203.865600       0.070896
     9212.344500       0.072529
     9220.839100       0.074185
     9229.349300       0.075862
     9237.875300       0.077561
     9246.417000       0.079282
     9254.974500       0.081026
     9263.547900       0.082792
     9272.137200       0.084580
     9280.742500       0.086391
     9289.363700       0.088224
     9298.000900       0.090079
     9306.654300       0.091958
     9315.323700       0.093858
     9324.009300       0.095782
     9332.711200       0.097729
     9341.429200       0.099698
     9350.163600       0.101690
     9358.914400       0.103706
     9367.681500       0.105744
     9376.465100       0.107805
     9385.265100       0.109890
     9394.081700       0.111998
     9402.914900       0.114129
     9411.764700       0.116283
     9420.631200       0.118461
     9429.514400       0.120662
     9438.414300       0.122886
     9447.331100       0.125134
     9456.264800       0.127406
     9465.215300       0.129701
     9474.182900       0.132019
     9483.167400       0.134361
     9492.169000       0.136727
     9501.187600       0.139116
     9510.223500       0.141529
     9519.276500       0.143965
     9528.346800       0.146426
     9537.434400       0.148910
     9546.539400       0.151417
     9555.661700       0.153948
     9564.801500       0.156503
     9573.958800       0.159081
     9583.133700       0.161684
     9592.326100       0.164309
     9601.536200       0.166959
     9610.764100       0.169631
     9620.009600       0.172328
     9629.273000       0.175048
     9638.554200       0.177792
     9647.853400       0.180559
     9657.170400       0.183349
     9666.505600       0.186163
     9675.858700       0.189001
     9685.230000       0.191861
     9694.619500       0.194745
     9704.027200       0.197652
     9713.453100       0.200582
     9722.897400       0.203536
     9732.360100       0.206512
     9741.841200       0.209512
     9751.340800       0.212534
     9760.859000       0.215579
     9770.395700       0.218647
     9779.951100       0.221737
     9789.525200       0.224850
     9799.118100       0.227985
     9808.729800       0.231143
     9818.360300       0.234323
     9828.009800       0.237525
     9837.678300       0.240749
     9847.365800       0.243995
     9857.072400       0.247263
     9866.798200       0.250553
     9876.543200       0.253863
     9886.307500       0.257196
     9896.091000       0.260550
     9905.894000       0.263925
     9915.716400       0.267321
     9925.558300       0.270737
     9935.419800       0.274175
     9945.300800       0.277633
     9955.201600       0.281111
     9965.122100       0.284609
     9975.062300       0.288128
     9985.022500       0.291666
     9995.002500       0.295225
    10005.002500       0.298802
    10015.022500       0.302399
    10025.062700       0.306015
    10035.122900       0.309650
    10045.203400       0.313303
    10055.304200       0.316976
    10065.425300       0.320666
    10075.566800       0.324375
    10085.728700       0.328101
    10095.911200       0.331846
    10106.114200       0.335607
    10116.337900       0.339386
    10126.582300       0.343182
    10136.847400       0.346995
    10147.133400       0.350824
    10157.440300       0.354669
    10167.768200       0.358531
    10178.117000       0.362408
    10188.487000       0.366300
    10198.878100       0.370208
    10209.290500       0.374131
    10219.724100       0.378069
    10230.179000       0.382021
    10240.655400       0.385987
    10251.153300       0.389967
    10261.672700       0.393961
    10272.213700       0.397968
    10282.776300       0.401988
    10293.360800       0.406021
    10303.967000       0.410066
    10314.595200       0.414124
    10325.245200       0.418193
    10335.917300       0.422274
    10346.611500       0.426366
    10357.327800       0.430469
    10368.066400       0.434582
    10378.827200       0.438706
    10389.610400       0.442840
    10400.416000       0.446983
    10411.244100       0.451136
    10422.094800       0.455297
    10432.968200       0.459467
    10443.864200       0.463646
    10454.783100       0.467832
    10465.724800       0.472026
    10476.689400       0.476227
    10487.677000       0.480436
    10498.687700       0.484650
    10509.721500       0.488871
    10520.778500       0.493097
    10531.858900       0.497329
    10542.962600       0.501567
    10554.089700       0.505809
    10565.240400       0.510055
    10576.414600       0.514305
    10587.612500       0.518559
    10598.834100       0.522816
    10610.079600       0.527076
    10621.348900       0.531339
    10632.642200       0.535604
    10643.959600       0.539870
    10655.301000       0.544138
    10666.666700       0.548406
    10678.056600       0.552676
    10689.470900       0.556945
    10700.909600       0.561215
    10712.372800       0.565483
    10723.860600       0.569751
    10735.373100       0.574017
    10746.910300       0.578282
    10758.472300       0.582544
    10770.059200       0.586804
    10781.671200       0.591061
    10793.308100       0.595314
    10804.970300       0.599564
    10816.657700       0.603810
    10828.370300       0.608051
    10840.108400       0.612287
    10851.871900       0.616517
    10863.661100       0.620742
    10875.475800       0.624961
    10887.316300       0.629173
    10899.182600       0.633378
    10911.074700       0.637576
    10922.992900       0.641766
    10934.937100       0.645948
    10946.907500       0.650121
    10958.904100       0.654285
    10970.927000       0.658440
    10982.976400       0.662585
    10995.052200       0.666720
    11007.154700       0.670844
    11019.283700       0.674957
    11031.439600       0.679059
    11043.622300       0.683149
    11055.832000       0.687227
    11068.068600       0.691292
    11080.332400       0.695344
    11092.623400       0.699383
    11104.941700       0.703408
    11117.287400       0.707418
    11129.660500       0.711414
    11142.061300       0.715396
    11154.489700       0.719361
    11166.945800       0.723311
    11179.429800       0.727245
    11191.941800       0.731163
    11204.481800       0.735063
    11217.049900       0.738947
    11229.646300       0.742812
    11242.270900       0.746660
    11254.924000       0.750489
    11267.605600       0.754299
    11280.315800       0.758090
    11293.054800       0.761862
    11305.822500       0.765613
    11318.619100       0.769345
    11331.444800       0.773056
    11344.299500       0.776746
    11357.183400       0.780414
    11370.096600       0.784061
    11383.039300       0.787686
    11396.011400       0.791289
    11409.013100       0.794868
    11422.044500       0.798425
    11435.105800       0.801959
    11448.196900       0.805468
    11461.318100       0.808954
    11474.469300       0.812415
    11487.650800       0.815851
    11500.862600       0.819263
    11514.104800       0.822649
    11527.377500       0.826009
    11540.680900       0.829344
    11554.015000       0.832652
    11567.380000       0.835934
    11580.775900       0.839188
    11594.202900       0.842416
    11607.661100       0.845616
    11621.150500       0.848789
    11634.671300       0.851933
    11648.223600       0.855049
    11661.807600       0.858136
    11675.423200       0.861195
    11689.070700       0.864225
    11702.750100       0.867225
    11716.461600       0.870195
    11730.205300       0.873136
    11743.981200       0.876047
    11757.789500       0.878927
    11771.630400       0.881777
    11785.503800       0.884596
    11799.410000       0.887383
    11813.349100       0.890140
    11827.321100       0.892865
    11841.326200       0.895558
    11855.364600       0.898220
    11869.436200       0.900849
    11883.541300       0.903446
    11897.680000       0.906011
    11911.852300       0.908543
    11926.058400       0.911042
    11940.298500       0.913508
    11954.572600       0.915941
    11968.880900       0.918341
    11983.223500       0.920706
    11997.600500       0.923039
    12012.012000       0.925337
    12026.458200       0.927602
    12040.939200       0.929832
    12055.455100       0.932029
    12070.006000       0.934191
    12084.592100       0.936318
    12099.213600       0.938411
    12113.870400       0.940469
    12128.562800       0.942492
    12143.290800       0.944481
    12158.054700       0.946434
    12172.854500       0.948353
    12187.690400       0.950236
    12202.562500       0.952084
    12217.471000       0.953897
    12232.415900       0.955675
    12247.397400       0.957417
    12262.415700       0.959124
    12277.470800       0.960795
    12292.563000       0.962431
    12307.692300       0.964031
    12322.858900       0.965595
    12338.062900       0.967124
    12353.304500       0.968618
    12368.583800       0.970076
    12383.900900       0.971498
    12399.256000       0.972884
    12414.649300       0.974236
    12430.080800       0.975551
    12445.550700       0.976831
    12461.059200       0.978075
    12476.606400       0.979284
    12492.192400       0.980458
    12507.817400       0.981596
    12523.481500       0.982699
    12539.185000       0.983767
    12554.927800       0.984799
    12570.710200       0.985796
    12586.532400       0.986759
    12602.394500       0.987686
    12618.296500       0.988579
    12634.238800       0.989436
    12650.221400       0.990259
    12666.244500       0.991048
    12682.308200       0.991802
    12698.412700       0.992522
    12714.558200       0.993207
    12730.744700       0.993859
    12746.972600       0.994477
    12763.241900       0.995061
    12779.552700       0.995611
    12795.905300       0.996128
    12812.299800       0.996611
    12828.736400       0.997062
    12845.215200       0.997479
    12861.736300       0.997864
    12878.300100       0.998216
    12894.906500       0.998536
    12911.555800       0.998824
    12928.248200       0.999080
    12944.983800       0.999304
    12961.762800       0.999496
    12978.585300       0.999657
    12995.451600       0.999787
    13012.361700       0.999886
    13029.316000       0.999954
    13046.314400       0.999992
    13063.357300       1.000000
    13080.444700       0.999978
    13097.576900       0.999926
    13114.754100       0.999845
    13131.976400       0.999735
    13149.243900       0.999596
    13166.556900       0.999428
    13183.915600       0.999232
    13201.320100       0.999008
    13218.770700       0.998756
    13236.267400       0.998477
    13253.810500       0.998170
    13271.400100       0.997837
    13289.036500       0.997478
    13306.719900       0.997092
    13324.450400       0.996680
    13342.228200       0.996243
    13360.053400       0.995780
    13377.926400       0.995293
    13395.847300       0.994780
    13413.816200       0.994244
    13431.833400       0.993684
    13449.899100       0.993100
    13468.013500       0.992493
    13486.176700       0.991863
    13504.388900       0.991211
    13522.650400       0.990536
    13540.961400       0.989840
    13559.322000       0.989122
    13577.732500       0.988383
    13596.193100       0.987624
    13614.703900       0.986844
    13633.265200       0.986044
    13651.877100       0.985225
    13670.540000       0.984386
    13689.253900       0.983529
    13708.019200       0.982653
    13726.836000       0.981760
    13745.704500       0.980848
    13764.624900       0.979920
    13783.597500       0.978975
    13802.622500       0.978013
    13821.700100       0.977035
    13840.830400       0.976042
    13860.013900       0.975033
    13879.250500       0.974010
    13898.540700       0.972972
    13917.884500       0.971920
    13937.282200       0.970855
    13956.734100       0.969776
    13976.240400       0.968685
    13995.801300       0.967582
    14015.417000       0.966466
    14035.087700       0.965339
    14054.813800       0.964201
    14074.595400       0.963052
    14094.432700       0.961893
    14114.326000       0.960724
    14134.275600       0.959546
    14154.281700       0.958359
    14174.344400       0.957163
    14194.464200       0.955959
    14214.641100       0.954748
    14234.875400       0.953529
    14255.167500       0.952303
    14275.517500       0.951070
    14295.925700       0.949832
    14316.392300       0.948588
    14336.917600       0.947338
    14357.501800       0.946084
    14378.145200       0.944826
    14398.848100       0.943563
    14419.610700       0.942297
    14440.433200       0.941028
    14461.316000       0.939756
    14482.259200       0.938482
    14503.263200       0.937205
    14524.328200       0.935927
    14545.454500       0.934648
    14566.642400       0.933369
    14587.892000       0.932089
    14609.203800       0.930809
    14630.577900       0.929529
    14652.014700       0.928250
    14673.514300       0.926973
    14695.077100       0.925697
    14716.703500       0.924423
    14738.393500       0.923151
    14760.147600       0.921882
    14781.966000       0.920617
    14803.849000       0.919354
    14825.796900       0.918096
    14847.809900       0.916841
    14869.888500       0.915592
    14892.032800       0.914347
    14914.243100       0.913107
    14936.519800       0.911873
    14958.863100       0.910645
    14981.273400       0.909424
    15003.750900       0.908208
    15026.296000       0.907000
    15048.909000       0.905799
    15071.590100       0.904606
    15094.339600       0.903420
    15117.158000       0.902243
    15140.045400       0.901074
    15163.002300       0.899914
    15186.028900       0.898763
    15209.125500       0.897621
    15232.292500       0.896489
    15255.530100       0.895367
    15278.838800       0.894255
    15302.218800       0.893154
    15325.670500       0.892063
    15349.194200       0.890983
    15372.790200       0.889915
    15396.458800       0.888858
    15420.200500       0.887812
    15444.015400       0.886778
    15467.904100       0.885757
    15491.866800       0.884748
    15515.903800       0.883751
    15540.015500       0.882767
    15564.202300       0.881796
    15588.464500       0.880838
    15612.802500       0.879893
    15637.216600       0.878962
    15661.707100       0.878044
    15686.274500       0.877140
    15710.919100       0.876250
    15735.641200       0.875374
    15760.441300       0.874512
    15785.319700       0.873665
    15810.276700       0.872831
    15835.312700       0.872012
    15860.428200       0.871208
    15885.623500       0.870419
    15910.899000       0.869644
    15936.255000       0.868884
    15961.691900       0.868139
    15987.210200       0.867408
    16012.810200       0.866693
    16038.492400       0.865993
    16064.257000       0.865307
    16090.104600       0.864637
    16116.035500       0.863982
    16142.050000       0.863342
    16168.148700       0.862717
    16194.332000       0.862107
    16220.600200       0.861512
    16246.953700       0.860932
    16273.393000       0.860366
    16299.918500       0.859816
    16326.530600       0.859280
    16353.229800       0.858760
    16380.016400       0.858253
    16406.890900       0.857761
    16433.853700       0.857284
    16460.905300       0.856821
    16488.046200       0.856372
    16515.276600       0.855937
    16542.597200       0.855516
    16570.008300       0.855109
    16597.510400       0.854715
    16625.103900       0.854335
    16652.789300       0.853967
    16680.567100       0.853613
    16708.437800       0.853272
    16736.401700       0.852943
    16764.459300       0.852626
    16792.611300       0.852322
    16820.857900       0.852029
    16849.199700       0.851748
    16877.637100       0.851479
    16906.170800       0.851220
    16934.801000       0.850972
    16963.528400       0.850734
    16992.353400       0.850507
    17021.276600       0.850289
    17050.298400       0.850081
    17079.419300       0.849882
    17108.639900       0.849692
    17137.960600       0.849510
    17167.382000       0.849336
    17196.904600       0.849170
    17226.528900       0.849011
    17256.255400       0.848859
    17286.084700       0.848713
