   8, extracted from file vas_g04.srf.nc
Number of data points:
2183
Wavenumber (cm-1)   Filter response
      791.900000       0.001367
      792.000000       0.001447
      792.100000       0.001527
      792.200000       0.001606
      792.300000       0.001686
      792.400000       0.001765
      792.500000       0.001845
      792.600000       0.001924
      792.700000       0.002004
      792.800000       0.002084
      792.900000       0.002163
      793.000000       0.002243
      793.100000       0.002322
      793.200000       0.002402
      793.300000       0.002481
      793.400000       0.002561
      793.500000       0.002641
      793.600000       0.002720
      793.700000       0.002799
      793.800000       0.002874
      793.900000       0.002947
      794.000000       0.003021
      794.100000       0.003095
      794.200000       0.003169
      794.300000       0.003243
      794.400000       0.003317
      794.500000       0.003391
      794.600000       0.003465
      794.700000       0.003539
      794.800000       0.003613
      794.900000       0.003687
      795.000000       0.003761
      795.100000       0.003834
      795.200000       0.003908
      795.300000       0.003982
      795.400000       0.004056
      795.500000       0.004130
      795.600000       0.004205
      795.700000       0.004283
      795.800000       0.004362
      795.900000       0.004441
      796.000000       0.004520
      796.100000       0.004599
      796.200000       0.004677
      796.300000       0.004756
      796.400000       0.004835
      796.500000       0.004914
      796.600000       0.004993
      796.700000       0.005072
      796.800000       0.005150
      796.900000       0.005229
      797.000000       0.005308
      797.100000       0.005387
      797.200000       0.005466
      797.300000       0.005545
      797.400000       0.005623
      797.500000       0.005700
      797.600000       0.005775
      797.700000       0.005848
      797.800000       0.005922
      797.900000       0.005995
      798.000000       0.006068
      798.100000       0.006141
      798.200000       0.006215
      798.300000       0.006288
      798.400000       0.006361
      798.500000       0.006434
      798.600000       0.006507
      798.700000       0.006581
      798.800000       0.006654
      798.900000       0.006727
      799.000000       0.006800
      799.100000       0.006873
      799.200000       0.006947
      799.300000       0.007020
      799.400000       0.007093
      799.500000       0.007170
      799.600000       0.007248
      799.700000       0.007326
      799.800000       0.007404
      799.900000       0.007483
      800.000000       0.007561
      800.100000       0.007639
      800.200000       0.007717
      800.300000       0.007795
      800.400000       0.007873
      800.500000       0.007951
      800.600000       0.008029
      800.700000       0.008107
      800.800000       0.008185
      800.900000       0.008263
      801.000000       0.008341
      801.100000       0.008419
      801.200000       0.008497
      801.300000       0.008575
      801.400000       0.008650
      801.500000       0.008722
      801.600000       0.008795
      801.700000       0.008867
      801.800000       0.008940
      801.900000       0.009012
      802.000000       0.009085
      802.100000       0.009157
      802.200000       0.009230
      802.300000       0.009302
      802.400000       0.009375
      802.500000       0.009447
      802.600000       0.009520
      802.700000       0.009592
      802.800000       0.009665
      802.900000       0.009738
      803.000000       0.009810
      803.100000       0.009883
      803.200000       0.009955
      803.300000       0.010027
      803.400000       0.010100
      803.500000       0.010172
      803.600000       0.010244
      803.700000       0.010316
      803.800000       0.010388
      803.900000       0.010460
      804.000000       0.010532
      804.100000       0.010605
      804.200000       0.010677
      804.300000       0.010749
      804.400000       0.010821
      804.500000       0.010893
      804.600000       0.010965
      804.700000       0.011037
      804.800000       0.011110
      804.900000       0.011182
      805.000000       0.011254
      805.100000       0.011324
      805.200000       0.011409
      805.300000       0.011528
      805.400000       0.011664
      805.500000       0.011797
      805.600000       0.011930
      805.700000       0.012064
      805.800000       0.012197
      805.900000       0.012330
      806.000000       0.012464
      806.100000       0.012597
      806.200000       0.012731
      806.300000       0.012864
      806.400000       0.012997
      806.500000       0.013131
      806.600000       0.013264
      806.700000       0.013398
      806.800000       0.013531
      806.900000       0.013664
      807.000000       0.013798
      807.100000       0.013859
      807.200000       0.014565
      807.300000       0.015936
      807.400000       0.017252
      807.500000       0.018563
      807.600000       0.019875
      807.700000       0.021186
      807.800000       0.022498
      807.900000       0.023812
      808.000000       0.025124
      808.100000       0.026435
      808.200000       0.027747
      808.300000       0.029058
      808.400000       0.030371
      808.500000       0.031683
      808.600000       0.032994
      808.700000       0.034306
      808.800000       0.035618
      808.900000       0.036931
      809.000000       0.038243
      809.100000       0.039552
      809.200000       0.040852
      809.300000       0.042146
      809.400000       0.043444
      809.500000       0.044738
      809.600000       0.046033
      809.700000       0.047328
      809.800000       0.048623
      809.900000       0.049921
      810.000000       0.051216
      810.100000       0.052510
      810.200000       0.053806
      810.300000       0.055101
      810.400000       0.056398
      810.500000       0.057693
      810.600000       0.058988
      810.700000       0.060283
      810.800000       0.061578
      810.900000       0.062875
      811.000000       0.064156
      811.100000       0.065555
      811.200000       0.067130
      811.300000       0.068743
      811.400000       0.070352
      811.500000       0.071959
      811.600000       0.073566
      811.700000       0.075173
      811.800000       0.076780
      811.900000       0.078389
      812.000000       0.079997
      812.100000       0.081604
      812.200000       0.083211
      812.300000       0.084818
      812.400000       0.086427
      812.500000       0.088034
      812.600000       0.089641
      812.700000       0.091248
      812.800000       0.092855
      812.900000       0.094465
      813.000000       0.095913
      813.100000       0.098779
      813.200000       0.103197
      813.300000       0.107580
      813.400000       0.111958
      813.500000       0.116328
      813.600000       0.120699
      813.700000       0.125070
      813.800000       0.129440
      813.900000       0.133817
      814.000000       0.138188
      814.100000       0.142559
      814.200000       0.146929
      814.300000       0.151299
      814.400000       0.155677
      814.500000       0.160047
      814.600000       0.164418
      814.700000       0.168789
      814.800000       0.173159
      814.900000       0.177536
      815.000000       0.181909
      815.100000       0.186245
      815.200000       0.190545
      815.300000       0.194849
      815.400000       0.199160
      815.500000       0.203463
      815.600000       0.207768
      815.700000       0.212073
      815.800000       0.216377
      815.900000       0.220688
      816.000000       0.224991
      816.100000       0.229296
      816.200000       0.233600
      816.300000       0.237903
      816.400000       0.242214
      816.500000       0.246518
      816.600000       0.250822
      816.700000       0.255127
      816.800000       0.259431
      816.900000       0.263742
      817.000000       0.268047
      817.100000       0.272322
      817.200000       0.276567
      817.300000       0.280815
      817.400000       0.285070
      817.500000       0.289318
      817.600000       0.293566
      817.700000       0.297815
      817.800000       0.302063
      817.900000       0.306318
      818.000000       0.310566
      818.100000       0.314814
      818.200000       0.319063
      818.300000       0.323311
      818.400000       0.327566
      818.500000       0.331814
      818.600000       0.336063
      818.700000       0.340311
      818.800000       0.344559
      818.900000       0.348814
      819.000000       0.353066
      819.100000       0.357282
      819.200000       0.361468
      819.300000       0.365650
      819.400000       0.369834
      819.500000       0.374017
      819.600000       0.378200
      819.700000       0.382390
      819.800000       0.386573
      819.900000       0.390756
      820.000000       0.394939
      820.100000       0.399122
      820.200000       0.403312
      820.300000       0.407494
      820.400000       0.411678
      820.500000       0.415861
      820.600000       0.420044
      820.700000       0.424234
      820.800000       0.428416
      820.900000       0.432600
      821.000000       0.436787
      821.100000       0.440945
      821.200000       0.445076
      821.300000       0.449198
      821.400000       0.453321
      821.500000       0.457444
      821.600000       0.461565
      821.700000       0.465695
      821.800000       0.469817
      821.900000       0.473939
      822.000000       0.478062
      822.100000       0.482185
      822.200000       0.486314
      822.300000       0.490436
      822.400000       0.494559
      822.500000       0.498681
      822.600000       0.502803
      822.700000       0.506933
      822.800000       0.511055
      822.900000       0.515177
      823.000000       0.519395
      823.100000       0.522838
      823.200000       0.524738
      823.300000       0.526029
      823.400000       0.527398
      823.500000       0.528767
      823.600000       0.530137
      823.700000       0.531508
      823.800000       0.532878
      823.900000       0.534246
      824.000000       0.535616
      824.100000       0.536985
      824.200000       0.538356
      824.300000       0.539726
      824.400000       0.541095
      824.500000       0.542464
      824.600000       0.543833
      824.700000       0.545204
      824.800000       0.546574
      824.900000       0.547943
      825.000000       0.549339
      825.100000       0.550617
      825.200000       0.550547
      825.300000       0.549393
      825.400000       0.548363
      825.500000       0.547332
      825.600000       0.546302
      825.700000       0.545270
      825.800000       0.544240
      825.900000       0.543210
      826.000000       0.542179
      826.100000       0.541149
      826.200000       0.540117
      826.300000       0.539087
      826.400000       0.538057
      826.500000       0.537026
      826.600000       0.535996
      826.700000       0.534964
      826.800000       0.533933
      826.900000       0.532903
      827.000000       0.531873
      827.100000       0.530843
      827.200000       0.529806
      827.300000       0.528763
      827.400000       0.527718
      827.500000       0.526674
      827.600000       0.525629
      827.700000       0.524583
      827.800000       0.523538
      827.900000       0.522493
      828.000000       0.521449
      828.100000       0.520404
      828.200000       0.519358
      828.300000       0.518314
      828.400000       0.517269
      828.500000       0.516224
      828.600000       0.515179
      828.700000       0.514134
      828.800000       0.513089
      828.900000       0.512044
      829.000000       0.511000
      829.100000       0.509939
      829.200000       0.508914
      829.300000       0.509039
      829.400000       0.510151
      829.500000       0.511152
      829.600000       0.512153
      829.700000       0.513155
      829.800000       0.514156
      829.900000       0.515157
      830.000000       0.516158
      830.100000       0.517158
      830.200000       0.518160
      830.300000       0.519161
      830.400000       0.520162
      830.500000       0.521163
      830.600000       0.522163
      830.700000       0.523165
      830.800000       0.524166
      830.900000       0.525167
      831.000000       0.526168
      831.100000       0.527169
      831.200000       0.528162
      831.300000       0.529227
      831.400000       0.530481
      831.500000       0.531830
      831.600000       0.533168
      831.700000       0.534507
      831.800000       0.535844
      831.900000       0.537182
      832.000000       0.538519
      832.100000       0.539856
      832.200000       0.541196
      832.300000       0.542533
      832.400000       0.543870
      832.500000       0.545208
      832.600000       0.546545
      832.700000       0.547884
      832.800000       0.549222
      832.900000       0.550559
      833.000000       0.551897
      833.100000       0.553234
      833.200000       0.554574
      833.300000       0.555899
      833.400000       0.557327
      833.500000       0.558919
      833.600000       0.560553
      833.700000       0.562183
      833.800000       0.563810
      833.900000       0.565438
      834.000000       0.567066
      834.100000       0.568693
      834.200000       0.570323
      834.300000       0.571951
      834.400000       0.573579
      834.500000       0.575206
      834.600000       0.576834
      834.700000       0.578464
      834.800000       0.580091
      834.900000       0.581719
      835.000000       0.583347
      835.100000       0.584974
      835.200000       0.586605
      835.300000       0.588232
      835.400000       0.589859
      835.500000       0.591488
      835.600000       0.593117
      835.700000       0.594749
      835.800000       0.596377
      835.900000       0.598005
      836.000000       0.599634
      836.100000       0.601263
      836.200000       0.602895
      836.300000       0.604523
      836.400000       0.606152
      836.500000       0.607781
      836.600000       0.609410
      836.700000       0.611041
      836.800000       0.612669
      836.900000       0.614299
      837.000000       0.615928
      837.100000       0.617556
      837.200000       0.619188
      837.300000       0.620817
      837.400000       0.622446
      837.500000       0.624075
      837.600000       0.625704
      837.700000       0.627337
      837.800000       0.628966
      837.900000       0.630596
      838.000000       0.632227
      838.100000       0.633857
      838.200000       0.635490
      838.300000       0.637119
      838.400000       0.638750
      838.500000       0.640381
      838.600000       0.642010
      838.700000       0.643643
      838.800000       0.645273
      838.900000       0.646904
      839.000000       0.648534
      839.100000       0.650164
      839.200000       0.651797
      839.300000       0.653427
      839.400000       0.655057
      839.500000       0.656687
      839.600000       0.658321
      839.700000       0.659932
      839.800000       0.661504
      839.900000       0.663068
      840.000000       0.664634
      840.100000       0.666198
      840.200000       0.667766
      840.300000       0.669332
      840.400000       0.670897
      840.500000       0.672463
      840.600000       0.674028
      840.700000       0.675596
      840.800000       0.677161
      840.900000       0.678726
      841.000000       0.680292
      841.100000       0.681857
      841.200000       0.683425
      841.300000       0.684990
      841.400000       0.686555
      841.500000       0.688121
      841.600000       0.689686
      841.700000       0.691255
      841.800000       0.692814
      841.900000       0.694355
      842.000000       0.695888
      842.100000       0.697422
      842.200000       0.698959
      842.300000       0.700493
      842.400000       0.702027
      842.500000       0.703561
      842.600000       0.705096
      842.700000       0.706632
      842.800000       0.708166
      842.900000       0.709700
      843.000000       0.711234
      843.100000       0.712769
      843.200000       0.714305
      843.300000       0.715839
      843.400000       0.717374
      843.500000       0.718908
      843.600000       0.720442
      843.700000       0.721978
      843.800000       0.723513
      843.900000       0.725047
      844.000000       0.726573
      844.100000       0.728094
      844.200000       0.729618
      844.300000       0.731139
      844.400000       0.732660
      844.500000       0.734182
      844.600000       0.735704
      844.700000       0.737227
      844.800000       0.738749
      844.900000       0.740270
      845.000000       0.741792
      845.100000       0.743313
      845.200000       0.744837
      845.300000       0.746359
      845.400000       0.747880
      845.500000       0.749402
      845.600000       0.750923
      845.700000       0.752447
      845.800000       0.753968
      845.900000       0.755489
      846.000000       0.757010
      846.100000       0.758538
      846.200000       0.760077
      846.300000       0.761613
      846.400000       0.763151
      846.500000       0.764689
      846.600000       0.766225
      846.700000       0.767765
      846.800000       0.769303
      846.900000       0.770840
      847.000000       0.772377
      847.100000       0.773914
      847.200000       0.775454
      847.300000       0.776991
      847.400000       0.778529
      847.500000       0.780066
      847.600000       0.781603
      847.700000       0.783143
      847.800000       0.784680
      847.900000       0.786217
      848.000000       0.787755
      848.100000       0.789291
      848.200000       0.790833
      848.300000       0.792395
      848.400000       0.793973
      848.500000       0.795548
      848.600000       0.797123
      848.700000       0.798701
      848.800000       0.800277
      848.900000       0.801852
      849.000000       0.803428
      849.100000       0.805003
      849.200000       0.806581
      849.300000       0.808157
      849.400000       0.809732
      849.500000       0.811308
      849.600000       0.812883
      849.700000       0.814461
      849.800000       0.816037
      849.900000       0.817612
      850.000000       0.819188
      850.100000       0.820763
      850.200000       0.822341
      850.300000       0.823917
      850.400000       0.825490
      850.500000       0.827059
      850.600000       0.828627
      850.700000       0.830197
      850.800000       0.831764
      850.900000       0.833331
      851.000000       0.834900
      851.100000       0.836467
      851.200000       0.838037
      851.300000       0.839604
      851.400000       0.841172
      851.500000       0.842739
      851.600000       0.844306
      851.700000       0.845877
      851.800000       0.847444
      851.900000       0.849012
      852.000000       0.850579
      852.100000       0.852147
      852.200000       0.853717
      852.300000       0.855284
      852.400000       0.856852
      852.500000       0.858420
      852.600000       0.859985
      852.700000       0.861552
      852.800000       0.863116
      852.900000       0.864681
      853.000000       0.866245
      853.100000       0.867809
      853.200000       0.869376
      853.300000       0.870940
      853.400000       0.872504
      853.500000       0.874069
      853.600000       0.875633
      853.700000       0.877200
      853.800000       0.878764
      853.900000       0.880328
