82,   82, MVIRI VIS channel from srf_MET5_2001168_2001169_1801-Release_S10EL_10.dat
Number of data points:
806
Wavenumber (cm-1)   Filter response
     8350.730700       0.000000
     8357.710000       0.000000
     8364.701000       0.000000
     8371.703600       0.000002
     8378.718100       0.000004
     8385.744200       0.000009
     8392.782200       0.000017
     8399.832000       0.000027
     8406.893700       0.000042
     8413.967200       0.000060
     8421.052600       0.000084
     8428.150000       0.000112
     8435.259400       0.000147
     8442.380800       0.000187
     8449.514200       0.000234
     8456.659600       0.000288
     8463.817200       0.000349
     8470.986900       0.000418
     8478.168700       0.000495
     8485.362700       0.000581
     8492.569000       0.000675
     8499.787500       0.000779
     8507.018300       0.000892
     8514.261400       0.001015
     8521.516800       0.001148
     8528.784600       0.001291
     8536.064900       0.001445
     8543.357500       0.001610
     8550.662700       0.001786
     8557.980300       0.001973
     8565.310500       0.002172
     8572.653200       0.002384
     8580.008600       0.002607
     8587.376600       0.002843
     8594.757200       0.003091
     8602.150500       0.003352
     8609.556600       0.003627
     8616.975400       0.003914
     8624.407100       0.004215
     8631.851500       0.004529
     8639.308900       0.004858
     8646.779100       0.005200
     8654.262200       0.005557
     8661.758300       0.005927
     8669.267400       0.006313
     8676.789600       0.006713
     8684.324800       0.007127
     8691.873100       0.007557
     8699.434500       0.008002
     8707.009100       0.008462
     8714.596900       0.008937
     8722.198000       0.009428
     8729.812300       0.009935
     8737.439900       0.010458
     8745.080900       0.010996
     8752.735200       0.011551
     8760.403000       0.012121
     8768.084200       0.012708
     8775.778900       0.013312
     8783.487000       0.013932
     8791.208800       0.014569
     8798.944100       0.015222
     8806.693100       0.015893
     8814.455700       0.016580
     8822.232000       0.017285
     8830.022100       0.018007
     8837.825900       0.018746
     8845.643500       0.019504
     8853.475000       0.020278
     8861.320300       0.021070
     8869.179600       0.021880
     8877.052800       0.022708
     8884.940000       0.023554
     8892.841300       0.024419
     8900.756600       0.025301
     8908.686000       0.026202
     8916.629500       0.027121
     8924.587200       0.028059
     8932.559200       0.029016
     8940.545400       0.029991
     8948.545900       0.030986
     8956.560700       0.031999
     8964.589900       0.033031
     8972.633500       0.034083
     8980.691500       0.035154
     8988.764000       0.036244
     8996.851100       0.037354
     9004.952700       0.038483
     9013.068900       0.039632
     9021.199800       0.040801
     9029.345400       0.041990
     9037.505600       0.043199
     9045.680700       0.044428
     9053.870500       0.045677
     9062.075200       0.046946
     9070.294800       0.048236
     9078.529300       0.049546
     9086.778700       0.050877
     9095.043200       0.052229
     9103.322700       0.053601
     9111.617300       0.054994
     9119.927000       0.056408
     9128.251900       0.057843
     9136.592100       0.059300
     9144.947400       0.060777
     9153.318100       0.062276
     9161.704100       0.063797
     9170.105500       0.065338
     9178.522300       0.066902
     9186.954500       0.068487
     9195.402300       0.070094
     9203.865600       0.071722
     9212.344500       0.073373
     9220.839100       0.075046
     9229.349300       0.076741
     9237.875300       0.078458
     9246.417000       0.080197
     9254.974500       0.081958
     9263.547900       0.083742
     9272.137200       0.085549
     9280.742500       0.087378
     9289.363700       0.089229
     9298.000900       0.091104
     9306.654300       0.093001
     9315.323700       0.094921
     9324.009300       0.096864
     9332.711200       0.098829
     9341.429200       0.100818
     9350.163600       0.102830
     9358.914400       0.104865
     9367.681500       0.106923
     9376.465100       0.109005
     9385.265100       0.111109
     9394.081700       0.113238
     9402.914900       0.115389
     9411.764700       0.117564
     9420.631200       0.119762
     9429.514400       0.121984
     9438.414300       0.124230
     9447.331100       0.126498
     9456.264800       0.128791
     9465.215300       0.131108
     9474.182900       0.133447
     9483.167400       0.135811
     9492.169000       0.138198
     9501.187600       0.140609
     9510.223500       0.143044
     9519.276500       0.145503
     9528.346800       0.147985
     9537.434400       0.150491
     9546.539400       0.153021
     9555.661700       0.155574
     9564.801500       0.158152
     9573.958800       0.160753
     9583.133700       0.163378
     9592.326100       0.166026
     9601.536200       0.168698
     9610.764100       0.171394
     9620.009600       0.174114
     9629.273000       0.176857
     9638.554200       0.179624
     9647.853400       0.182414
     9657.170400       0.185228
     9666.505600       0.188065
     9675.858700       0.190926
     9685.230000       0.193810
     9694.619500       0.196718
     9704.027200       0.199648
     9713.453100       0.202602
     9722.897400       0.205580
     9732.360100       0.208580
     9741.841200       0.211603
     9751.340800       0.214649
     9760.859000       0.217718
     9770.395700       0.220810
     9779.951100       0.223924
     9789.525200       0.227061
     9799.118100       0.230220
     9808.729800       0.233402
     9818.360300       0.236606
     9828.009800       0.239832
     9837.678300       0.243080
     9847.365800       0.246350
     9857.072400       0.249642
     9866.798200       0.252956
     9876.543200       0.256290
     9886.307500       0.259647
     9896.091000       0.263025
     9905.894000       0.266424
     9915.716400       0.269844
     9925.558300       0.273284
     9935.419800       0.276745
     9945.300800       0.280227
     9955.201600       0.283729
     9965.122100       0.287252
     9975.062300       0.290794
     9985.022500       0.294356
     9995.002500       0.297938
    10005.002500       0.301539
    10015.022500       0.305159
    10025.062700       0.308799
    10035.122900       0.312457
    10045.203400       0.316134
    10055.304200       0.319829
    10065.425300       0.323543
    10075.566800       0.327275
    10085.728700       0.331024
    10095.911200       0.334791
    10106.114200       0.338576
    10116.337900       0.342377
    10126.582300       0.346195
    10136.847400       0.350030
    10147.133400       0.353882
    10157.440300       0.357749
    10167.768200       0.361633
    10178.117000       0.365532
    10188.487000       0.369446
    10198.878100       0.373376
    10209.290500       0.377320
    10219.724100       0.381279
    10230.179000       0.385252
    10240.655400       0.389239
    10251.153300       0.393240
    10261.672700       0.397254
    10272.213700       0.401282
    10282.776300       0.405322
    10293.360800       0.409375
    10303.967000       0.413440
    10314.595200       0.417518
    10325.245200       0.421606
    10335.917300       0.425706
    10346.611500       0.429818
    10357.327800       0.433939
    10368.066400       0.438071
    10378.827200       0.442213
    10389.610400       0.446366
    10400.416000       0.450527
    10411.244100       0.454697
    10422.094800       0.458876
    10432.968200       0.463064
    10443.864200       0.467259
    10454.783100       0.471462
    10465.724800       0.475673
    10476.689400       0.479890
    10487.677000       0.484114
    10498.687700       0.488345
    10509.721500       0.492581
    10520.778500       0.496823
    10531.858900       0.501070
    10542.962600       0.505322
    10554.089700       0.509578
    10565.240400       0.513838
    10576.414600       0.518102
    10587.612500       0.522369
    10598.834100       0.526640
    10610.079600       0.530913
    10621.348900       0.535187
    10632.642200       0.539464
    10643.959600       0.543743
    10655.301000       0.548022
    10666.666700       0.552302
    10678.056600       0.556582
    10689.470900       0.560862
    10700.909600       0.565142
    10712.372800       0.569420
    10723.860600       0.573697
    10735.373100       0.577973
    10746.910300       0.582246
    10758.472300       0.586517
    10770.059200       0.590785
    10781.671200       0.595049
    10793.308100       0.599310
    10804.970300       0.603567
    10816.657700       0.607819
    10828.370300       0.612066
    10840.108400       0.616308
    10851.871900       0.620544
    10863.661100       0.624774
    10875.475800       0.628998
    10887.316300       0.633214
    10899.182600       0.637423
    10911.074700       0.641625
    10922.992900       0.645818
    10934.937100       0.650002
    10946.907500       0.654177
    10958.904100       0.658343
    10970.927000       0.662500
    10982.976400       0.666646
    10995.052200       0.670781
    11007.154700       0.674906
    11019.283700       0.679019
    11031.439600       0.683120
    11043.622300       0.687209
    11055.832000       0.691285
    11068.068600       0.695348
    11080.332400       0.699398
    11092.623400       0.703434
    11104.941700       0.707456
    11117.287400       0.711463
    11129.660500       0.715455
    11142.061300       0.719431
    11154.489700       0.723392
    11166.945800       0.727337
    11179.429800       0.731265
    11191.941800       0.735176
    11204.481800       0.739070
    11217.049900       0.742946
    11229.646300       0.746804
    11242.270900       0.750643
    11254.924000       0.754464
    11267.605600       0.758265
    11280.315800       0.762047
    11293.054800       0.765809
    11305.822500       0.769550
    11318.619100       0.773271
    11331.444800       0.776971
    11344.299500       0.780649
    11357.183400       0.784305
    11370.096600       0.787940
    11383.039300       0.791551
    11396.011400       0.795140
    11409.013100       0.798706
    11422.044500       0.802249
    11435.105800       0.805767
    11448.196900       0.809261
    11461.318100       0.812731
    11474.469300       0.816176
    11487.650800       0.819596
    11500.862600       0.822990
    11514.104800       0.826359
    11527.377500       0.829701
    11540.680900       0.833017
    11554.015000       0.836307
    11567.380000       0.839569
    11580.775900       0.842804
    11594.202900       0.846011
    11607.661100       0.849191
    11621.150500       0.852342
    11634.671300       0.855465
    11648.223600       0.858559
    11661.807600       0.861624
    11675.423200       0.864660
    11689.070700       0.867666
    11702.750100       0.870642
    11716.461600       0.873589
    11730.205300       0.876505
    11743.981200       0.879391
    11757.789500       0.882246
    11771.630400       0.885069
    11785.503800       0.887862
    11799.410000       0.890623
    11813.349100       0.893352
    11827.321100       0.896050
    11841.326200       0.898715
    11855.364600       0.901349
    11869.436200       0.903949
    11883.541300       0.906517
    11897.680000       0.909052
    11911.852300       0.911554
    11926.058400       0.914023
    11940.298500       0.916458
    11954.572600       0.918860
    11968.880900       0.921228
    11983.223500       0.923562
    11997.600500       0.925862
    12012.012000       0.928128
    12026.458200       0.930359
    12040.939200       0.932557
    12055.455100       0.934719
    12070.006000       0.936847
    12084.592100       0.938940
    12099.213600       0.940998
    12113.870400       0.943021
    12128.562800       0.945008
    12143.290800       0.946961
    12158.054700       0.948878
    12172.854500       0.950760
    12187.690400       0.952607
    12202.562500       0.954417
    12217.471000       0.956193
    12232.415900       0.957932
    12247.397400       0.959636
    12262.415700       0.961304
    12277.470800       0.962937
    12292.563000       0.964533
    12307.692300       0.966094
    12322.858900       0.967619
    12338.062900       0.969108
    12353.304500       0.970561
    12368.583800       0.971978
    12383.900900       0.973360
    12399.256000       0.974705
    12414.649300       0.976015
    12430.080800       0.977288
    12445.550700       0.978526
    12461.059200       0.979729
    12476.606400       0.980895
    12492.192400       0.982026
    12507.817400       0.983121
    12523.481500       0.984181
    12539.185000       0.985205
    12554.927800       0.986194
    12570.710200       0.987147
    12586.532400       0.988065
    12602.394500       0.988948
    12618.296500       0.989796
    12634.238800       0.990609
    12650.221400       0.991387
    12666.244500       0.992130
    12682.308200       0.992839
    12698.412700       0.993513
    12714.558200       0.994153
    12730.744700       0.994759
    12746.972600       0.995330
    12763.241900       0.995868
    12779.552700       0.996372
    12795.905300       0.996842
    12812.299800       0.997279
    12828.736400       0.997682
    12845.215200       0.998052
    12861.736300       0.998390
    12878.300100       0.998695
    12894.906500       0.998967
    12911.555800       0.999207
    12928.248200       0.999415
    12944.983800       0.999591
    12961.762800       0.999735
    12978.585300       0.999848
    12995.451600       0.999930
    13012.361700       0.999980
    13029.316000       1.000000
    13046.314400       0.999989
    13063.357300       0.999948
    13080.444700       0.999878
    13097.576900       0.999777
    13114.754100       0.999647
    13131.976400       0.999488
    13149.243900       0.999299
    13166.556900       0.999082
    13183.915600       0.998837
    13201.320100       0.998564
    13218.770700       0.998263
    13236.267400       0.997934
    13253.810500       0.997578
    13271.400100       0.997196
    13289.036500       0.996786
    13306.719900       0.996351
    13324.450400       0.995889
    13342.228200       0.995402
    13360.053400       0.994890
    13377.926400       0.994353
    13395.847300       0.993791
    13413.816200       0.993205
    13431.833400       0.992595
    13449.899100       0.991961
    13468.013500       0.991305
    13486.176700       0.990625
    13504.388900       0.989923
    13522.650400       0.989198
    13540.961400       0.988452
    13559.322000       0.987685
    13577.732500       0.986896
    13596.193100       0.986087
    13614.703900       0.985257
    13633.265200       0.984408
    13651.877100       0.983539
    13670.540000       0.982651
    13689.253900       0.981744
    13708.019200       0.980818
    13726.836000       0.979875
    13745.704500       0.978914
    13764.624900       0.977936
    13783.597500       0.976941
    13802.622500       0.975930
    13821.700100       0.974903
    13840.830400       0.973860
    13860.013900       0.972802
    13879.250500       0.971730
    13898.540700       0.970643
    13917.884500       0.969542
    13937.282200       0.968427
    13956.734100       0.967300
    13976.240400       0.966159
    13995.801300       0.965007
    14015.417000       0.963842
    14035.087700       0.962666
    14054.813800       0.961479
    14074.595400       0.960282
    14094.432700       0.959074
    14114.326000       0.957857
    14134.275600       0.956630
    14154.281700       0.955394
    14174.344400       0.954150
    14194.464200       0.952897
    14214.641100       0.951637
    14234.875400       0.950370
    14255.167500       0.949096
    14275.517500       0.947815
    14295.925700       0.946529
    14316.392300       0.945236
    14336.917600       0.943939
    14357.501800       0.942637
    14378.145200       0.941331
    14398.848100       0.940020
    14419.610700       0.938706
    14440.433200       0.937389
    14461.316000       0.936070
    14482.259200       0.934748
    14503.263200       0.933424
    14524.328200       0.932098
    14545.454500       0.930772
    14566.642400       0.929445
    14587.892000       0.928117
    14609.203800       0.926790
    14630.577900       0.925463
    14652.014700       0.924137
    14673.514300       0.922812
    14695.077100       0.921489
    14716.703500       0.920168
    14738.393500       0.918849
    14760.147600       0.917533
    14781.966000       0.916220
    14803.849000       0.914911
    14825.796900       0.913605
    14847.809900       0.912304
    14869.888500       0.911008
    14892.032800       0.909716
    14914.243100       0.908429
    14936.519800       0.907148
    14958.863100       0.905873
    14981.273400       0.904605
    15003.750900       0.903343
    15026.296000       0.902088
    15048.909000       0.900840
    15071.590100       0.899600
    15094.339600       0.898367
    15117.158000       0.897143
    15140.045400       0.895927
    15163.002300       0.894720
    15186.028900       0.893522
    15209.125500       0.892334
    15232.292500       0.891155
    15255.530100       0.889986
    15278.838800       0.888827
    15302.218800       0.887678
    15325.670500       0.886541
    15349.194200       0.885414
    15372.790200       0.884298
    15396.458800       0.883194
    15420.200500       0.882101
    15444.015400       0.881020
    15467.904100       0.879951
    15491.866800       0.878895
    15515.903800       0.877850
    15540.015500       0.876819
    15564.202300       0.875800
    15588.464500       0.874795
    15612.802500       0.873802
    15637.216600       0.872823
    15661.707100       0.871857
    15686.274500       0.870905
    15710.919100       0.869967
    15735.641200       0.869043
    15760.441300       0.868133
    15785.319700       0.867237
    15810.276700       0.866355
    15835.312700       0.865488
    15860.428200       0.864635
    15885.623500       0.863796
    15910.899000       0.862972
    15936.255000       0.862163
    15961.691900       0.861369
    15987.210200       0.860589
    16012.810200       0.859825
    16038.492400       0.859075
    16064.257000       0.858340
    16090.104600       0.857620
    16116.035500       0.856915
    16142.050000       0.856225
    16168.148700       0.855549
    16194.332000       0.854889
    16220.600200       0.854243
    16246.953700       0.853612
    16273.393000       0.852996
    16299.918500       0.852395
    16326.530600       0.851808
    16353.229800       0.851236
    16380.016400       0.850678
    16406.890900       0.850135
    16433.853700       0.849605
    16460.905300       0.849090
    16488.046200       0.848589
    16515.276600       0.848102
    16542.597200       0.847628
    16570.008300       0.847168
    16597.510400       0.846721
    16625.103900       0.846288
    16652.789300       0.845868
    16680.567100       0.845460
    16708.437800       0.845065
    16736.401700       0.844682
    16764.459300       0.844312
    16792.611300       0.843953
    16820.857900       0.843606
    16849.199700       0.843270
    16877.637100       0.842946
    16906.170800       0.842632
    16934.801000       0.842329
    16963.528400       0.842036
    16992.353400       0.841754
    17021.276600       0.841480
    17050.298400       0.841216
    17079.419300       0.840961
    17108.639900       0.840715
    17137.960600       0.840477
    17167.382000       0.840246
    17196.904600       0.840024
    17226.528900       0.839808
    17256.255400       0.839599
    17286.084700       0.839396
