73,   73, MVIRI VIS channel from srf_MET5_2000123_2000124_1801-Release_S10EL_10.dat
Number of data points:
806
Wavenumber (cm-1)   Filter response
     8350.730700       0.000000
     8357.710000       0.000000
     8364.701000       0.000000
     8371.703600       0.000002
     8378.718100       0.000004
     8385.744200       0.000009
     8392.782200       0.000017
     8399.832000       0.000027
     8406.893700       0.000042
     8413.967200       0.000060
     8421.052600       0.000083
     8428.150000       0.000112
     8435.259400       0.000146
     8442.380800       0.000186
     8449.514200       0.000233
     8456.659600       0.000286
     8463.817200       0.000347
     8470.986900       0.000416
     8478.168700       0.000493
     8485.362700       0.000578
     8492.569000       0.000672
     8499.787500       0.000775
     8507.018300       0.000887
     8514.261400       0.001009
     8521.516800       0.001141
     8528.784600       0.001284
     8536.064900       0.001437
     8543.357500       0.001601
     8550.662700       0.001776
     8557.980300       0.001962
     8565.310500       0.002160
     8572.653200       0.002370
     8580.008600       0.002593
     8587.376600       0.002827
     8594.757200       0.003074
     8602.150500       0.003334
     8609.556600       0.003607
     8616.975400       0.003893
     8624.407100       0.004192
     8631.851500       0.004505
     8639.308900       0.004831
     8646.779100       0.005172
     8654.262200       0.005527
     8661.758300       0.005895
     8669.267400       0.006279
     8676.789600       0.006677
     8684.324800       0.007089
     8691.873100       0.007517
     8699.434500       0.007959
     8707.009100       0.008417
     8714.596900       0.008890
     8722.198000       0.009378
     8729.812300       0.009882
     8737.439900       0.010402
     8745.080900       0.010938
     8752.735200       0.011489
     8760.403000       0.012057
     8768.084200       0.012641
     8775.778900       0.013242
     8783.487000       0.013859
     8791.208800       0.014492
     8798.944100       0.015143
     8806.693100       0.015810
     8814.455700       0.016494
     8822.232000       0.017195
     8830.022100       0.017914
     8837.825900       0.018649
     8845.643500       0.019403
     8853.475000       0.020173
     8861.320300       0.020962
     8869.179600       0.021768
     8877.052800       0.022592
     8884.940000       0.023434
     8892.841300       0.024294
     8900.756600       0.025172
     8908.686000       0.026069
     8916.629500       0.026984
     8924.587200       0.027917
     8932.559200       0.028869
     8940.545400       0.029840
     8948.545900       0.030830
     8956.560700       0.031838
     8964.589900       0.032866
     8972.633500       0.033912
     8980.691500       0.034978
     8988.764000       0.036063
     8996.851100       0.037168
     9004.952700       0.038292
     9013.068900       0.039436
     9021.199800       0.040599
     9029.345400       0.041783
     9037.505600       0.042986
     9045.680700       0.044209
     9053.870500       0.045453
     9062.075200       0.046716
     9070.294800       0.048001
     9078.529300       0.049305
     9086.778700       0.050630
     9095.043200       0.051975
     9103.322700       0.053341
     9111.617300       0.054728
     9119.927000       0.056136
     9128.251900       0.057565
     9136.592100       0.059015
     9144.947400       0.060486
     9153.318100       0.061979
     9161.704100       0.063492
     9170.105500       0.065027
     9178.522300       0.066584
     9186.954500       0.068162
     9195.402300       0.069762
     9203.865600       0.071384
     9212.344500       0.073028
     9220.839100       0.074693
     9229.349300       0.076381
     9237.875300       0.078091
     9246.417000       0.079823
     9254.974500       0.081577
     9263.547900       0.083354
     9272.137200       0.085152
     9280.742500       0.086974
     9289.363700       0.088818
     9298.000900       0.090685
     9306.654300       0.092574
     9315.323700       0.094486
     9324.009300       0.096421
     9332.711200       0.098379
     9341.429200       0.100360
     9350.163600       0.102364
     9358.914400       0.104391
     9367.681500       0.106441
     9376.465100       0.108514
     9385.265100       0.110611
     9394.081700       0.112730
     9402.914900       0.114873
     9411.764700       0.117040
     9420.631200       0.119230
     9429.514400       0.121443
     9438.414300       0.123680
     9447.331100       0.125940
     9456.264800       0.128225
     9465.215300       0.130532
     9474.182900       0.132863
     9483.167400       0.135218
     9492.169000       0.137596
     9501.187600       0.139999
     9510.223500       0.142425
     9519.276500       0.144874
     9528.346800       0.147347
     9537.434400       0.149844
     9546.539400       0.152365
     9555.661700       0.154909
     9564.801500       0.157477
     9573.958800       0.160069
     9583.133700       0.162685
     9592.326100       0.165324
     9601.536200       0.167987
     9610.764100       0.170673
     9620.009600       0.173384
     9629.273000       0.176117
     9638.554200       0.178875
     9647.853400       0.181656
     9657.170400       0.184460
     9666.505600       0.187288
     9675.858700       0.190139
     9685.230000       0.193013
     9694.619500       0.195911
     9704.027200       0.198832
     9713.453100       0.201777
     9722.897400       0.204744
     9732.360100       0.207734
     9741.841200       0.210748
     9751.340800       0.213784
     9760.859000       0.216843
     9770.395700       0.219925
     9779.951100       0.223030
     9789.525200       0.226157
     9799.118100       0.229307
     9808.729800       0.232478
     9818.360300       0.235673
     9828.009800       0.238889
     9837.678300       0.242127
     9847.365800       0.245388
     9857.072400       0.248670
     9866.798200       0.251973
     9876.543200       0.255299
     9886.307500       0.258645
     9896.091000       0.262013
     9905.894000       0.265402
     9915.716400       0.268812
     9925.558300       0.272243
     9935.419800       0.275695
     9945.300800       0.279167
     9955.201600       0.282659
     9965.122100       0.286172
     9975.062300       0.289704
     9985.022500       0.293257
     9995.002500       0.296829
    10005.002500       0.300421
    10015.022500       0.304031
    10025.062700       0.307661
    10035.122900       0.311310
    10045.203400       0.314977
    10055.304200       0.318664
    10065.425300       0.322368
    10075.566800       0.326090
    10085.728700       0.329830
    10095.911200       0.333588
    10106.114200       0.337363
    10116.337900       0.341155
    10126.582300       0.344964
    10136.847400       0.348790
    10147.133400       0.352633
    10157.440300       0.356491
    10167.768200       0.360365
    10178.117000       0.364256
    10188.487000       0.368161
    10198.878100       0.372082
    10209.290500       0.376018
    10219.724100       0.379968
    10230.179000       0.383932
    10240.655400       0.387911
    10251.153300       0.391904
    10261.672700       0.395909
    10272.213700       0.399929
    10282.776300       0.403961
    10293.360800       0.408006
    10303.967000       0.412063
    10314.595200       0.416132
    10325.245200       0.420212
    10335.917300       0.424305
    10346.611500       0.428408
    10357.327800       0.432522
    10368.066400       0.436647
    10378.827200       0.440781
    10389.610400       0.444926
    10400.416000       0.449080
    10411.244100       0.453243
    10422.094800       0.457415
    10432.968200       0.461595
    10443.864200       0.465784
    10454.783100       0.469980
    10465.724800       0.474184
    10476.689400       0.478395
    10487.677000       0.482613
    10498.687700       0.486836
    10509.721500       0.491066
    10520.778500       0.495302
    10531.858900       0.499543
    10542.962600       0.503789
    10554.089700       0.508039
    10565.240400       0.512294
    10576.414600       0.516552
    10587.612500       0.520814
    10598.834100       0.525079
    10610.079600       0.529347
    10621.348900       0.533617
    10632.642200       0.537889
    10643.959600       0.542162
    10655.301000       0.546437
    10666.666700       0.550712
    10678.056600       0.554988
    10689.470900       0.559264
    10700.909600       0.563539
    10712.372800       0.567814
    10723.860600       0.572087
    10735.373100       0.576359
    10746.910300       0.580629
    10758.472300       0.584896
    10770.059200       0.589161
    10781.671200       0.593422
    10793.308100       0.597680
    10804.970300       0.601934
    10816.657700       0.606184
    10828.370300       0.610428
    10840.108400       0.614668
    10851.871900       0.618902
    10863.661100       0.623130
    10875.475800       0.627351
    10887.316300       0.631566
    10899.182600       0.635773
    10911.074700       0.639974
    10922.992900       0.644165
    10934.937100       0.648349
    10946.907500       0.652523
    10958.904100       0.656689
    10970.927000       0.660845
    10982.976400       0.664990
    10995.052200       0.669125
    11007.154700       0.673250
    11019.283700       0.677363
    11031.439600       0.681464
    11043.622300       0.685554
    11055.832000       0.689631
    11068.068600       0.693695
    11080.332400       0.697746
    11092.623400       0.701783
    11104.941700       0.705806
    11117.287400       0.709814
    11129.660500       0.713808
    11142.061300       0.717787
    11154.489700       0.721750
    11166.945800       0.725696
    11179.429800       0.729627
    11191.941800       0.733541
    11204.481800       0.737437
    11217.049900       0.741316
    11229.646300       0.745177
    11242.270900       0.749020
    11254.924000       0.752845
    11267.605600       0.756650
    11280.315800       0.760435
    11293.054800       0.764201
    11305.822500       0.767947
    11318.619100       0.771672
    11331.444800       0.775376
    11344.299500       0.779059
    11357.183400       0.782721
    11370.096600       0.786360
    11383.039300       0.789978
    11396.011400       0.793572
    11409.013100       0.797144
    11422.044500       0.800692
    11435.105800       0.804217
    11448.196900       0.807717
    11461.318100       0.811194
    11474.469300       0.814645
    11487.650800       0.818072
    11500.862600       0.821473
    11514.104800       0.824849
    11527.377500       0.828199
    11540.680900       0.831522
    11554.015000       0.834820
    11567.380000       0.838090
    11580.775900       0.841333
    11594.202900       0.844548
    11607.661100       0.847736
    11621.150500       0.850897
    11634.671300       0.854028
    11648.223600       0.857131
    11661.807600       0.860206
    11675.423200       0.863251
    11689.070700       0.866267
    11702.750100       0.869253
    11716.461600       0.872209
    11730.205300       0.875135
    11743.981200       0.878031
    11757.789500       0.880897
    11771.630400       0.883731
    11785.503800       0.886534
    11799.410000       0.889306
    11813.349100       0.892047
    11827.321100       0.894756
    11841.326200       0.897433
    11855.364600       0.900078
    11869.436200       0.902690
    11883.541300       0.905270
    11897.680000       0.907817
    11911.852300       0.910331
    11926.058400       0.912813
    11940.298500       0.915261
    11954.572600       0.917675
    11968.880900       0.920056
    11983.223500       0.922403
    11997.600500       0.924716
    12012.012000       0.926996
    12026.458200       0.929241
    12040.939200       0.931451
    12055.455100       0.933628
    12070.006000       0.935770
    12084.592100       0.937877
    12099.213600       0.939949
    12113.870400       0.941986
    12128.562800       0.943989
    12143.290800       0.945956
    12158.054700       0.947888
    12172.854500       0.949785
    12187.690400       0.951646
    12202.562500       0.953473
    12217.471000       0.955263
    12232.415900       0.957018
    12247.397400       0.958738
    12262.415700       0.960422
    12277.470800       0.962070
    12292.563000       0.963683
    12307.692300       0.965260
    12322.858900       0.966801
    12338.062900       0.968306
    12353.304500       0.969776
    12368.583800       0.971210
    12383.900900       0.972608
    12399.256000       0.973970
    12414.649300       0.975297
    12430.080800       0.976588
    12445.550700       0.977843
    12461.059200       0.979062
    12476.606400       0.980246
    12492.192400       0.981394
    12507.817400       0.982507
    12523.481500       0.983584
    12539.185000       0.984626
    12554.927800       0.985633
    12570.710200       0.986604
    12586.532400       0.987541
    12602.394500       0.988442
    12618.296500       0.989308
    12634.238800       0.990139
    12650.221400       0.990936
    12666.244500       0.991697
    12682.308200       0.992425
    12698.412700       0.993117
    12714.558200       0.993776
    12730.744700       0.994400
    12746.972600       0.994991
    12763.241900       0.995547
    12779.552700       0.996070
    12795.905300       0.996559
    12812.299800       0.997015
    12828.736400       0.997438
    12845.215200       0.997828
    12861.736300       0.998185
    12878.300100       0.998509
    12894.906500       0.998800
    12911.555800       0.999060
    12928.248200       0.999287
    12944.983800       0.999483
    12961.762800       0.999647
    12978.585300       0.999779
    12995.451600       0.999881
    13012.361700       0.999951
    13029.316000       0.999991
    13046.314400       1.000000
    13063.357300       0.999979
    13080.444700       0.999928
    13097.576900       0.999847
    13114.754100       0.999737
    13131.976400       0.999598
    13149.243900       0.999430
    13166.556900       0.999233
    13183.915600       0.999008
    13201.320100       0.998755
    13218.770700       0.998474
    13236.267400       0.998165
    13253.810500       0.997830
    13271.400100       0.997467
    13289.036500       0.997078
    13306.719900       0.996663
    13324.450400       0.996222
    13342.228200       0.995755
    13360.053400       0.995263
    13377.926400       0.994746
    13395.847300       0.994205
    13413.816200       0.993639
    13431.833400       0.993049
    13449.899100       0.992436
    13468.013500       0.991799
    13486.176700       0.991140
    13504.388900       0.990458
    13522.650400       0.989754
    13540.961400       0.989028
    13559.322000       0.988281
    13577.732500       0.987513
    13596.193100       0.986724
    13614.703900       0.985914
    13633.265200       0.985085
    13651.877100       0.984237
    13670.540000       0.983369
    13689.253900       0.982482
    13708.019200       0.981577
    13726.836000       0.980654
    13745.704500       0.979713
    13764.624900       0.978755
    13783.597500       0.977781
    13802.622500       0.976790
    13821.700100       0.975783
    13840.830400       0.974760
    13860.013900       0.973722
    13879.250500       0.972670
    13898.540700       0.971603
    13917.884500       0.970522
    13937.282200       0.969427
    13956.734100       0.968320
    13976.240400       0.967200
    13995.801300       0.966067
    14015.417000       0.964923
    14035.087700       0.963767
    14054.813800       0.962600
    14074.595400       0.961422
    14094.432700       0.960234
    14114.326000       0.959036
    14134.275600       0.957829
    14154.281700       0.956613
    14174.344400       0.955389
    14194.464200       0.954156
    14214.641100       0.952916
    14234.875400       0.951668
    14255.167500       0.950414
    14275.517500       0.949153
    14295.925700       0.947886
    14316.392300       0.946613
    14336.917600       0.945335
    14357.501800       0.944053
    14378.145200       0.942766
    14398.848100       0.941475
    14419.610700       0.940181
    14440.433200       0.938883
    14461.316000       0.937583
    14482.259200       0.936280
    14503.263200       0.934976
    14524.328200       0.933670
    14545.454500       0.932363
    14566.642400       0.931055
    14587.892000       0.929747
    14609.203800       0.928438
    14630.577900       0.927131
    14652.014700       0.925824
    14673.514300       0.924518
    14695.077100       0.923214
    14716.703500       0.921913
    14738.393500       0.920613
    14760.147600       0.919316
    14781.966000       0.918023
    14803.849000       0.916732
    14825.796900       0.915446
    14847.809900       0.914164
    14869.888500       0.912886
    14892.032800       0.911614
    14914.243100       0.910346
    14936.519800       0.909084
    14958.863100       0.907829
    14981.273400       0.906579
    15003.750900       0.905336
    15026.296000       0.904100
    15048.909000       0.902871
    15071.590100       0.901650
    15094.339600       0.900437
    15117.158000       0.899231
    15140.045400       0.898035
    15163.002300       0.896847
    15186.028900       0.895668
    15209.125500       0.894499
    15232.292500       0.893339
    15255.530100       0.892189
    15278.838800       0.891049
    15302.218800       0.889920
    15325.670500       0.888801
    15349.194200       0.887693
    15372.790200       0.886597
    15396.458800       0.885512
    15420.200500       0.884438
    15444.015400       0.883376
    15467.904100       0.882327
    15491.866800       0.881290
    15515.903800       0.880265
    15540.015500       0.879252
    15564.202300       0.878253
    15588.464500       0.877267
    15612.802500       0.876294
    15637.216600       0.875334
    15661.707100       0.874388
    15686.274500       0.873456
    15710.919100       0.872537
    15735.641200       0.871632
    15760.441300       0.870742
    15785.319700       0.869865
    15810.276700       0.869003
    15835.312700       0.868156
    15860.428200       0.867322
    15885.623500       0.866504
    15910.899000       0.865700
    15936.255000       0.864911
    15961.691900       0.864136
    15987.210200       0.863377
    16012.810200       0.862632
    16038.492400       0.861903
    16064.257000       0.861188
    16090.104600       0.860488
    16116.035500       0.859803
    16142.050000       0.859133
    16168.148700       0.858479
    16194.332000       0.857839
    16220.600200       0.857213
    16246.953700       0.856603
    16273.393000       0.856008
    16299.918500       0.855427
    16326.530600       0.854861
    16353.229800       0.854310
    16380.016400       0.853773
    16406.890900       0.853250
    16433.853700       0.852742
    16460.905300       0.852248
    16488.046200       0.851768
    16515.276600       0.851302
    16542.597200       0.850850
    16570.008300       0.850411
    16597.510400       0.849986
    16625.103900       0.849574
    16652.789300       0.849175
    16680.567100       0.848789
    16708.437800       0.848416
    16736.401700       0.848055
    16764.459300       0.847707
    16792.611300       0.847370
    16820.857900       0.847045
    16849.199700       0.846732
    16877.637100       0.846430
    16906.170800       0.846138
    16934.801000       0.845858
    16963.528400       0.845587
    16992.353400       0.845327
    17021.276600       0.845076
    17050.298400       0.844835
    17079.419300       0.844603
    17108.639900       0.844379
    17137.960600       0.844164
    17167.382000       0.843956
    17196.904600       0.843756
    17226.528900       0.843564
    17256.255400       0.843378
    17286.084700       0.843198
