101,   101, MVIRI VIS channel from srf_MET5_2003303_2003304_1801-Release_S10EL_10.dat
Number of data points:
806
Wavenumber (cm-1)   Filter response
     8350.730700       0.000000
     8357.710000       0.000000
     8364.701000       0.000000
     8371.703600       0.000002
     8378.718100       0.000004
     8385.744200       0.000009
     8392.782200       0.000017
     8399.832000       0.000028
     8406.893700       0.000042
     8413.967200       0.000061
     8421.052600       0.000085
     8428.150000       0.000114
     8435.259400       0.000149
     8442.380800       0.000189
     8449.514200       0.000237
     8456.659600       0.000292
     8463.817200       0.000354
     8470.986900       0.000423
     8478.168700       0.000501
     8485.362700       0.000588
     8492.569000       0.000683
     8499.787500       0.000788
     8507.018300       0.000902
     8514.261400       0.001027
     8521.516800       0.001161
     8528.784600       0.001306
     8536.064900       0.001462
     8543.357500       0.001628
     8550.662700       0.001807
     8557.980300       0.001996
     8565.310500       0.002198
     8572.653200       0.002411
     8580.008600       0.002637
     8587.376600       0.002876
     8594.757200       0.003127
     8602.150500       0.003391
     8609.556600       0.003668
     8616.975400       0.003959
     8624.407100       0.004263
     8631.851500       0.004581
     8639.308900       0.004913
     8646.779100       0.005260
     8654.262200       0.005620
     8661.758300       0.005995
     8669.267400       0.006385
     8676.789600       0.006789
     8684.324800       0.007208
     8691.873100       0.007643
     8699.434500       0.008092
     8707.009100       0.008557
     8714.596900       0.009038
     8722.198000       0.009534
     8729.812300       0.010047
     8737.439900       0.010575
     8745.080900       0.011119
     8752.735200       0.011680
     8760.403000       0.012256
     8768.084200       0.012850
     8775.778900       0.013460
     8783.487000       0.014086
     8791.208800       0.014730
     8798.944100       0.015390
     8806.693100       0.016068
     8814.455700       0.016763
     8822.232000       0.017475
     8830.022100       0.018204
     8837.825900       0.018952
     8845.643500       0.019716
     8853.475000       0.020499
     8861.320300       0.021299
     8869.179600       0.022118
     8877.052800       0.022954
     8884.940000       0.023809
     8892.841300       0.024682
     8900.756600       0.025574
     8908.686000       0.026484
     8916.629500       0.027412
     8924.587200       0.028360
     8932.559200       0.029326
     8940.545400       0.030311
     8948.545900       0.031316
     8956.560700       0.032339
     8964.589900       0.033382
     8972.633500       0.034444
     8980.691500       0.035525
     8988.764000       0.036626
     8996.851100       0.037747
     9004.952700       0.038887
     9013.068900       0.040047
     9021.199800       0.041228
     9029.345400       0.042428
     9037.505600       0.043648
     9045.680700       0.044889
     9053.870500       0.046150
     9062.075200       0.047432
     9070.294800       0.048734
     9078.529300       0.050056
     9086.778700       0.051400
     9095.043200       0.052764
     9103.322700       0.054149
     9111.617300       0.055556
     9119.927000       0.056983
     9128.251900       0.058431
     9136.592100       0.059901
     9144.947400       0.061392
     9153.318100       0.062905
     9161.704100       0.064439
     9170.105500       0.065995
     9178.522300       0.067573
     9186.954500       0.069172
     9195.402300       0.070793
     9203.865600       0.072437
     9212.344500       0.074102
     9220.839100       0.075790
     9229.349300       0.077500
     9237.875300       0.079232
     9246.417000       0.080986
     9254.974500       0.082763
     9263.547900       0.084563
     9272.137200       0.086385
     9280.742500       0.088230
     9289.363700       0.090097
     9298.000900       0.091988
     9306.654300       0.093901
     9315.323700       0.095838
     9324.009300       0.097797
     9332.711200       0.099779
     9341.429200       0.101785
     9350.163600       0.103814
     9358.914400       0.105866
     9367.681500       0.107941
     9376.465100       0.110040
     9385.265100       0.112162
     9394.081700       0.114308
     9402.914900       0.116476
     9411.764700       0.118669
     9420.631200       0.120885
     9429.514400       0.123125
     9438.414300       0.125389
     9447.331100       0.127676
     9456.264800       0.129987
     9465.215300       0.132321
     9474.182900       0.134680
     9483.167400       0.137062
     9492.169000       0.139468
     9501.187600       0.141898
     9510.223500       0.144351
     9519.276500       0.146829
     9528.346800       0.149330
     9537.434400       0.151855
     9546.539400       0.154404
     9555.661700       0.156977
     9564.801500       0.159573
     9573.958800       0.162194
     9583.133700       0.164839
     9592.326100       0.167506
     9601.536200       0.170198
     9610.764100       0.172914
     9620.009600       0.175653
     9629.273000       0.178417
     9638.554200       0.181203
     9647.853400       0.184013
     9657.170400       0.186847
     9666.505600       0.189705
     9675.858700       0.192586
     9685.230000       0.195490
     9694.619500       0.198418
     9704.027200       0.201369
     9713.453100       0.204343
     9722.897400       0.207341
     9732.360100       0.210361
     9741.841200       0.213405
     9751.340800       0.216471
     9760.859000       0.219561
     9770.395700       0.222673
     9779.951100       0.225808
     9789.525200       0.228965
     9799.118100       0.232145
     9808.729800       0.235347
     9818.360300       0.238572
     9828.009800       0.241818
     9837.678300       0.245087
     9847.365800       0.248378
     9857.072400       0.251690
     9866.798200       0.255025
     9876.543200       0.258380
     9886.307500       0.261757
     9896.091000       0.265156
     9905.894000       0.268575
     9915.716400       0.272015
     9925.558300       0.275476
     9935.419800       0.278958
     9945.300800       0.282461
     9955.201600       0.285983
     9965.122100       0.289526
     9975.062300       0.293088
     9985.022500       0.296670
     9995.002500       0.300272
    10005.002500       0.303894
    10015.022500       0.307534
    10025.062700       0.311194
    10035.122900       0.314872
    10045.203400       0.318569
    10055.304200       0.322284
    10065.425300       0.326017
    10075.566800       0.329768
    10085.728700       0.333537
    10095.911200       0.337324
    10106.114200       0.341128
    10116.337900       0.344949
    10126.582300       0.348786
    10136.847400       0.352640
    10147.133400       0.356511
    10157.440300       0.360397
    10167.768200       0.364299
    10178.117000       0.368217
    10188.487000       0.372149
    10198.878100       0.376097
    10209.290500       0.380060
    10219.724100       0.384037
    10230.179000       0.388028
    10240.655400       0.392033
    10251.153300       0.396052
    10261.672700       0.400084
    10272.213700       0.404129
    10282.776300       0.408186
    10293.360800       0.412256
    10303.967000       0.416338
    10314.595200       0.420432
    10325.245200       0.424537
    10335.917300       0.428654
    10346.611500       0.432781
    10357.327800       0.436919
    10368.066400       0.441067
    10378.827200       0.445225
    10389.610400       0.449392
    10400.416000       0.453569
    10411.244100       0.457754
    10422.094800       0.461948
    10432.968200       0.466150
    10443.864200       0.470360
    10454.783100       0.474577
    10465.724800       0.478801
    10476.689400       0.483032
    10487.677000       0.487270
    10498.687700       0.491514
    10509.721500       0.495763
    10520.778500       0.500018
    10531.858900       0.504277
    10542.962600       0.508541
    10554.089700       0.512809
    10565.240400       0.517082
    10576.414600       0.521357
    10587.612500       0.525636
    10598.834100       0.529917
    10610.079600       0.534201
    10621.348900       0.538486
    10632.642200       0.542773
    10643.959600       0.547061
    10655.301000       0.551350
    10666.666700       0.555639
    10678.056600       0.559928
    10689.470900       0.564217
    10700.909600       0.568505
    10712.372800       0.572792
    10723.860600       0.577077
    10735.373100       0.581360
    10746.910300       0.585641
    10758.472300       0.589918
    10770.059200       0.594193
    10781.671200       0.598464
    10793.308100       0.602730
    10804.970300       0.606993
    10816.657700       0.611250
    10828.370300       0.615503
    10840.108400       0.619749
    10851.871900       0.623989
    10863.661100       0.628224
    10875.475800       0.632451
    10887.316300       0.636670
    10899.182600       0.640882
    10911.074700       0.645086
    10922.992900       0.649282
    10934.937100       0.653468
    10946.907500       0.657645
    10958.904100       0.661812
    10970.927000       0.665970
    10982.976400       0.670116
    10995.052200       0.674252
    11007.154700       0.678376
    11019.283700       0.682488
    11031.439600       0.686589
    11043.622300       0.690676
    11055.832000       0.694751
    11068.068600       0.698812
    11080.332400       0.702860
    11092.623400       0.706893
    11104.941700       0.710911
    11117.287400       0.714915
    11129.660500       0.718903
    11142.061300       0.722876
    11154.489700       0.726832
    11166.945800       0.730771
    11179.429800       0.734694
    11191.941800       0.738599
    11204.481800       0.742487
    11217.049900       0.746356
    11229.646300       0.750207
    11242.270900       0.754039
    11254.924000       0.757852
    11267.605600       0.761646
    11280.315800       0.765419
    11293.054800       0.769172
    11305.822500       0.772904
    11318.619100       0.776615
    11331.444800       0.780305
    11344.299500       0.783972
    11357.183400       0.787618
    11370.096600       0.791241
    11383.039300       0.794841
    11396.011400       0.798418
    11409.013100       0.801972
    11422.044500       0.805501
    11435.105800       0.809007
    11448.196900       0.812488
    11461.318100       0.815943
    11474.469300       0.819374
    11487.650800       0.822779
    11500.862600       0.826159
    11514.104800       0.829512
    11527.377500       0.832838
    11540.680900       0.836138
    11554.015000       0.839411
    11567.380000       0.842656
    11580.775900       0.845873
    11594.202900       0.849063
    11607.661100       0.852224
    11621.150500       0.855357
    11634.671300       0.858461
    11648.223600       0.861536
    11661.807600       0.864581
    11675.423200       0.867597
    11689.070700       0.870583
    11702.750100       0.873538
    11716.461600       0.876464
    11730.205300       0.879358
    11743.981200       0.882222
    11757.789500       0.885055
    11771.630400       0.887856
    11785.503800       0.890625
    11799.410000       0.893363
    11813.349100       0.896069
    11827.321100       0.898743
    11841.326200       0.901384
    11855.364600       0.903992
    11869.436200       0.906568
    11883.541300       0.909110
    11897.680000       0.911619
    11911.852300       0.914095
    11926.058400       0.916538
    11940.298500       0.918946
    11954.572600       0.921321
    11968.880900       0.923661
    11983.223500       0.925968
    11997.600500       0.928240
    12012.012000       0.930477
    12026.458200       0.932680
    12040.939200       0.934848
    12055.455100       0.936981
    12070.006000       0.939079
    12084.592100       0.941142
    12099.213600       0.943170
    12113.870400       0.945162
    12128.562800       0.947119
    12143.290800       0.949041
    12158.054700       0.950927
    12172.854500       0.952777
    12187.690400       0.954591
    12202.562500       0.956370
    12217.471000       0.958113
    12232.415900       0.959819
    12247.397400       0.961490
    12262.415700       0.963125
    12277.470800       0.964724
    12292.563000       0.966286
    12307.692300       0.967813
    12322.858900       0.969303
    12338.062900       0.970758
    12353.304500       0.972176
    12368.583800       0.973558
    12383.900900       0.974904
    12399.256000       0.976214
    12414.649300       0.977487
    12430.080800       0.978725
    12445.550700       0.979927
    12461.059200       0.981092
    12476.606400       0.982222
    12492.192400       0.983316
    12507.817400       0.984374
    12523.481500       0.985396
    12539.185000       0.986383
    12554.927800       0.987334
    12570.710200       0.988249
    12586.532400       0.989129
    12602.394500       0.989974
    12618.296500       0.990783
    12634.238800       0.991558
    12650.221400       0.992297
    12666.244500       0.993001
    12682.308200       0.993671
    12698.412700       0.994305
    12714.558200       0.994906
    12730.744700       0.995472
    12746.972600       0.996004
    12763.241900       0.996501
    12779.552700       0.996965
    12795.905300       0.997395
    12812.299800       0.997791
    12828.736400       0.998154
    12845.215200       0.998484
    12861.736300       0.998781
    12878.300100       0.999045
    12894.906500       0.999276
    12911.555800       0.999475
    12928.248200       0.999642
    12944.983800       0.999777
    12961.762800       0.999880
    12978.585300       0.999951
    12995.451600       0.999991
    13012.361700       1.000000
    13029.316000       0.999978
    13046.314400       0.999926
    13063.357300       0.999843
    13080.444700       0.999730
    13097.576900       0.999587
    13114.754100       0.999415
    13131.976400       0.999214
    13149.243900       0.998983
    13166.556900       0.998724
    13183.915600       0.998437
    13201.320100       0.998121
    13218.770700       0.997778
    13236.267400       0.997407
    13253.810500       0.997008
    13271.400100       0.996583
    13289.036500       0.996131
    13306.719900       0.995653
    13324.450400       0.995149
    13342.228200       0.994620
    13360.053400       0.994065
    13377.926400       0.993485
    13395.847300       0.992881
    13413.816200       0.992252
    13431.833400       0.991599
    13449.899100       0.990923
    13468.013500       0.990223
    13486.176700       0.989501
    13504.388900       0.988756
    13522.650400       0.987989
    13540.961400       0.987200
    13559.322000       0.986390
    13577.732500       0.985559
    13596.193100       0.984707
    13614.703900       0.983835
    13633.265200       0.982943
    13651.877100       0.982031
    13670.540000       0.981101
    13689.253900       0.980151
    13708.019200       0.979183
    13726.836000       0.978198
    13745.704500       0.977194
    13764.624900       0.976174
    13783.597500       0.975137
    13802.622500       0.974083
    13821.700100       0.973014
    13840.830400       0.971929
    13860.013900       0.970829
    13879.250500       0.969714
    13898.540700       0.968585
    13917.884500       0.967442
    13937.282200       0.966285
    13956.734100       0.965116
    13976.240400       0.963934
    13995.801300       0.962739
    14015.417000       0.961533
    14035.087700       0.960315
    14054.813800       0.959087
    14074.595400       0.957848
    14094.432700       0.956598
    14114.326000       0.955339
    14134.275600       0.954071
    14154.281700       0.952794
    14174.344400       0.951508
    14194.464200       0.950214
    14214.641100       0.948913
    14234.875400       0.947604
    14255.167500       0.946289
    14275.517500       0.944968
    14295.925700       0.943640
    14316.392300       0.942307
    14336.917600       0.940968
    14357.501800       0.939625
    14378.145200       0.938278
    14398.848100       0.936927
    14419.610700       0.935572
    14440.433200       0.934215
    14461.316000       0.932854
    14482.259200       0.931492
    14503.263200       0.930127
    14524.328200       0.928762
    14545.454500       0.927395
    14566.642400       0.926027
    14587.892000       0.924659
    14609.203800       0.923292
    14630.577900       0.921924
    14652.014700       0.920558
    14673.514300       0.919193
    14695.077100       0.917830
    14716.703500       0.916469
    14738.393500       0.915110
    14760.147600       0.913754
    14781.966000       0.912401
    14803.849000       0.911052
    14825.796900       0.909706
    14847.809900       0.908365
    14869.888500       0.907029
    14892.032800       0.905697
    14914.243100       0.904371
    14936.519800       0.903050
    14958.863100       0.901735
    14981.273400       0.900427
    15003.750900       0.899125
    15026.296000       0.897830
    15048.909000       0.896542
    15071.590100       0.895262
    15094.339600       0.893990
    15117.158000       0.892726
    15140.045400       0.891471
    15163.002300       0.890224
    15186.028900       0.888986
    15209.125500       0.887758
    15232.292500       0.886539
    15255.530100       0.885330
    15278.838800       0.884132
    15302.218800       0.882943
    15325.670500       0.881765
    15349.194200       0.880599
    15372.790200       0.879443
    15396.458800       0.878299
    15420.200500       0.877166
    15444.015400       0.876045
    15467.904100       0.874936
    15491.866800       0.873839
    15515.903800       0.872755
    15540.015500       0.871683
    15564.202300       0.870624
    15588.464500       0.869578
    15612.802500       0.868545
    15637.216600       0.867526
    15661.707100       0.866519
    15686.274500       0.865527
    15710.919100       0.864548
    15735.641200       0.863583
    15760.441300       0.862632
    15785.319700       0.861695
    15810.276700       0.860772
    15835.312700       0.859864
    15860.428200       0.858969
    15885.623500       0.858090
    15910.899000       0.857225
    15936.255000       0.856374
    15961.691900       0.855538
    15987.210200       0.854717
    16012.810200       0.853910
    16038.492400       0.853119
    16064.257000       0.852342
    16090.104600       0.851580
    16116.035500       0.850832
    16142.050000       0.850100
    16168.148700       0.849382
    16194.332000       0.848679
    16220.600200       0.847991
    16246.953700       0.847317
    16273.393000       0.846658
    16299.918500       0.846013
    16326.530600       0.845383
    16353.229800       0.844768
    16380.016400       0.844166
    16406.890900       0.843579
    16433.853700       0.843006
    16460.905300       0.842447
    16488.046200       0.841902
    16515.276600       0.841370
    16542.597200       0.840853
    16570.008300       0.840348
    16597.510400       0.839857
    16625.103900       0.839378
    16652.789300       0.838913
    16680.567100       0.838460
    16708.437800       0.838020
    16736.401700       0.837592
    16764.459300       0.837176
    16792.611300       0.836771
    16820.857900       0.836379
    16849.199700       0.835997
    16877.637100       0.835626
    16906.170800       0.835266
    16934.801000       0.834917
    16963.528400       0.834578
    16992.353400       0.834248
    17021.276600       0.833928
    17050.298400       0.833617
    17079.419300       0.833315
    17108.639900       0.833021
    17137.960600       0.832735
    17167.382000       0.832458
    17196.904600       0.832187
    17226.528900       0.831923
    17256.255400       0.831666
    17286.084700       0.831415
