  10, extracted from file vas_g05.srf.nc
Number of data points:
2099
Wavenumber (cm-1)   Filter response
     1377.500000       0.001565
     1377.600000       0.001728
     1377.700000       0.001891
     1377.800000       0.002054
     1377.900000       0.002217
     1378.000000       0.002380
     1378.100000       0.002543
     1378.200000       0.002707
     1378.300000       0.002871
     1378.400000       0.003033
     1378.500000       0.003196
     1378.600000       0.003359
     1378.700000       0.003523
     1378.800000       0.003687
     1378.900000       0.003849
     1379.000000       0.004012
     1379.100000       0.004175
     1379.200000       0.004338
     1379.300000       0.004502
     1379.400000       0.004663
     1379.500000       0.004820
     1379.600000       0.004977
     1379.700000       0.005135
     1379.800000       0.005293
     1379.900000       0.005450
     1380.000000       0.005608
     1380.100000       0.005766
     1380.200000       0.005922
     1380.300000       0.006080
     1380.400000       0.006237
     1380.500000       0.006395
     1380.600000       0.006552
     1380.700000       0.006710
     1380.800000       0.006867
     1380.900000       0.007025
     1381.000000       0.007182
     1381.100000       0.007340
     1381.200000       0.007497
     1381.300000       0.007657
     1381.400000       0.007819
     1381.500000       0.007981
     1381.600000       0.008143
     1381.700000       0.008305
     1381.800000       0.008468
     1381.900000       0.008630
     1382.000000       0.008792
     1382.100000       0.008955
     1382.200000       0.009117
     1382.300000       0.009279
     1382.400000       0.009442
     1382.500000       0.009604
     1382.600000       0.009766
     1382.700000       0.009928
     1382.800000       0.010091
     1382.900000       0.010253
     1383.000000       0.010415
     1383.100000       0.010576
     1383.200000       0.010746
     1383.300000       0.010927
     1383.400000       0.011110
     1383.500000       0.011292
     1383.600000       0.011475
     1383.700000       0.011658
     1383.800000       0.011842
     1383.900000       0.012024
     1384.000000       0.012206
     1384.100000       0.012389
     1384.200000       0.012571
     1384.300000       0.012754
     1384.400000       0.012937
     1384.500000       0.013121
     1384.600000       0.013303
     1384.700000       0.013485
     1384.800000       0.013669
     1384.900000       0.013851
     1385.000000       0.014030
     1385.100000       0.014240
     1385.200000       0.014509
     1385.300000       0.014799
     1385.400000       0.015084
     1385.500000       0.015370
     1385.600000       0.015657
     1385.700000       0.015943
     1385.800000       0.016230
     1385.900000       0.016516
     1386.000000       0.016803
     1386.100000       0.017088
     1386.200000       0.017374
     1386.300000       0.017662
     1386.400000       0.017947
     1386.500000       0.018233
     1386.600000       0.018520
     1386.700000       0.018806
     1386.800000       0.019092
     1386.900000       0.019379
     1387.000000       0.019665
     1387.100000       0.019950
     1387.200000       0.020236
     1387.300000       0.020522
     1387.400000       0.020807
     1387.500000       0.021093
     1387.600000       0.021379
     1387.700000       0.021663
     1387.800000       0.021949
     1387.900000       0.022234
     1388.000000       0.022520
     1388.100000       0.022805
     1388.200000       0.023091
     1388.300000       0.023377
     1388.400000       0.023663
     1388.500000       0.023947
     1388.600000       0.024233
     1388.700000       0.024518
     1388.800000       0.024804
     1388.900000       0.025090
     1389.000000       0.025375
     1389.100000       0.025659
     1389.200000       0.025943
     1389.300000       0.026228
     1389.400000       0.026513
     1389.500000       0.026799
     1389.600000       0.027083
     1389.700000       0.027367
     1389.800000       0.027653
     1389.900000       0.027937
     1390.000000       0.028221
     1390.100000       0.028506
     1390.200000       0.028791
     1390.300000       0.029077
     1390.400000       0.029361
     1390.500000       0.029645
     1390.600000       0.029930
     1390.700000       0.030214
     1390.800000       0.030500
     1390.900000       0.030782
     1391.000000       0.031062
     1391.100000       0.031340
     1391.200000       0.031618
     1391.300000       0.031898
     1391.400000       0.032177
     1391.500000       0.032455
     1391.600000       0.032734
     1391.700000       0.033012
     1391.800000       0.033291
     1391.900000       0.033570
     1392.000000       0.033850
     1392.100000       0.034128
     1392.200000       0.034406
     1392.300000       0.034685
     1392.400000       0.034964
     1392.500000       0.035244
     1392.600000       0.035522
     1392.700000       0.035800
     1392.800000       0.036080
     1392.900000       0.036362
     1393.000000       0.036645
     1393.100000       0.036928
     1393.200000       0.037211
     1393.300000       0.037495
     1393.400000       0.037778
     1393.500000       0.038061
     1393.600000       0.038344
     1393.700000       0.038627
     1393.800000       0.038911
     1393.900000       0.039194
     1394.000000       0.039477
     1394.100000       0.039760
     1394.200000       0.040043
     1394.300000       0.040326
     1394.400000       0.040609
     1394.500000       0.040893
     1394.600000       0.041176
     1394.700000       0.041455
     1394.800000       0.041771
     1394.900000       0.042124
     1395.000000       0.042473
     1395.100000       0.042822
     1395.200000       0.043171
     1395.300000       0.043521
     1395.400000       0.043870
     1395.500000       0.044219
     1395.600000       0.044568
     1395.700000       0.044917
     1395.800000       0.045266
     1395.900000       0.045615
     1396.000000       0.045964
     1396.100000       0.046313
     1396.200000       0.046662
     1396.300000       0.047012
     1396.400000       0.047361
     1396.500000       0.047710
     1396.600000       0.048033
     1396.700000       0.048565
     1396.800000       0.049544
     1396.900000       0.050709
     1397.000000       0.051850
     1397.100000       0.052992
     1397.200000       0.054133
     1397.300000       0.055276
     1397.400000       0.056417
     1397.500000       0.057558
     1397.600000       0.058700
     1397.700000       0.059841
     1397.800000       0.060985
     1397.900000       0.062125
     1398.000000       0.063266
     1398.100000       0.064408
     1398.200000       0.065549
     1398.300000       0.066693
     1398.400000       0.067834
     1398.500000       0.068975
     1398.600000       0.070116
     1398.700000       0.071258
     1398.800000       0.072404
     1398.900000       0.073547
     1399.000000       0.074690
     1399.100000       0.075833
     1399.200000       0.076976
     1399.300000       0.078122
     1399.400000       0.079265
     1399.500000       0.080408
     1399.600000       0.081551
     1399.700000       0.082694
     1399.800000       0.083840
     1399.900000       0.084983
     1400.000000       0.086126
     1400.100000       0.087269
     1400.200000       0.088412
     1400.300000       0.089558
     1400.400000       0.090701
     1400.500000       0.091844
     1400.600000       0.092987
     1400.700000       0.094127
     1400.800000       0.095269
     1400.900000       0.096409
     1401.000000       0.097549
     1401.100000       0.098689
     1401.200000       0.099829
     1401.300000       0.100971
     1401.400000       0.102110
     1401.500000       0.103250
     1401.600000       0.104390
     1401.700000       0.105531
     1401.800000       0.106673
     1401.900000       0.107812
     1402.000000       0.108952
     1402.100000       0.110092
     1402.200000       0.111232
     1402.300000       0.112374
     1402.400000       0.113514
     1402.500000       0.114654
     1402.600000       0.115793
     1402.700000       0.116930
     1402.800000       0.118068
     1402.900000       0.119205
     1403.000000       0.120342
     1403.100000       0.121478
     1403.200000       0.122615
     1403.300000       0.123754
     1403.400000       0.124890
     1403.500000       0.126027
     1403.600000       0.127164
     1403.700000       0.128301
     1403.800000       0.129439
     1403.900000       0.130575
     1404.000000       0.131712
     1404.100000       0.132849
     1404.200000       0.133986
     1404.300000       0.135124
     1404.400000       0.136261
     1404.500000       0.137398
     1404.600000       0.138536
     1404.700000       0.139675
     1404.800000       0.140815
     1404.900000       0.141953
     1405.000000       0.143092
     1405.100000       0.144231
     1405.200000       0.145370
     1405.300000       0.146510
     1405.400000       0.147648
     1405.500000       0.148787
     1405.600000       0.149926
     1405.700000       0.151065
     1405.800000       0.152205
     1405.900000       0.153344
     1406.000000       0.154483
     1406.100000       0.155621
     1406.200000       0.156759
     1406.300000       0.157900
     1406.400000       0.158994
     1406.500000       0.160391
     1406.600000       0.163116
     1406.700000       0.166721
     1406.800000       0.170230
     1406.900000       0.173732
     1407.000000       0.177235
     1407.100000       0.180738
     1407.200000       0.184240
     1407.300000       0.187749
     1407.400000       0.191251
     1407.500000       0.194754
     1407.600000       0.198257
     1407.700000       0.201759
     1407.800000       0.205268
     1407.900000       0.208770
     1408.000000       0.212273
     1408.100000       0.215776
     1408.200000       0.219278
     1408.300000       0.222787
     1408.400000       0.226288
     1408.500000       0.229798
     1408.600000       0.233324
     1408.700000       0.236856
     1408.800000       0.240395
     1408.900000       0.243928
     1409.000000       0.247460
     1409.100000       0.250993
     1409.200000       0.254526
     1409.300000       0.258064
     1409.400000       0.261596
     1409.500000       0.265129
     1409.600000       0.268662
     1409.700000       0.272195
     1409.800000       0.275733
     1409.900000       0.279265
     1410.000000       0.282798
     1410.100000       0.286330
     1410.200000       0.289863
     1410.300000       0.293402
     1410.400000       0.296934
     1410.500000       0.300465
     1410.600000       0.303994
     1410.700000       0.307521
     1410.800000       0.311054
     1410.900000       0.314582
     1411.000000       0.318109
     1411.100000       0.321638
     1411.200000       0.325165
     1411.300000       0.328698
     1411.400000       0.332226
     1411.500000       0.335753
     1411.600000       0.339282
     1411.700000       0.342809
     1411.800000       0.346342
     1411.900000       0.349869
     1412.000000       0.353397
     1412.100000       0.356925
     1412.200000       0.360453
     1412.300000       0.363986
     1412.400000       0.367514
     1412.500000       0.371040
     1412.600000       0.374564
     1412.700000       0.378086
     1412.800000       0.381614
     1412.900000       0.385137
     1413.000000       0.388660
     1413.100000       0.392183
     1413.200000       0.395705
     1413.300000       0.399234
     1413.400000       0.402756
     1413.500000       0.406279
     1413.600000       0.409802
     1413.700000       0.413325
     1413.800000       0.416853
     1413.900000       0.420376
     1414.000000       0.423899
     1414.100000       0.427422
     1414.200000       0.430944
     1414.300000       0.434472
     1414.400000       0.437995
     1414.500000       0.441517
     1414.600000       0.445035
     1414.700000       0.448553
     1414.800000       0.452076
     1414.900000       0.455594
     1415.000000       0.459112
     1415.100000       0.462630
     1415.200000       0.466148
     1415.300000       0.469671
     1415.400000       0.473189
     1415.500000       0.476707
     1415.600000       0.480225
     1415.700000       0.483743
     1415.800000       0.487266
     1415.900000       0.490784
     1416.000000       0.494302
     1416.100000       0.497820
     1416.200000       0.501338
     1416.300000       0.504861
     1416.400000       0.508364
     1416.500000       0.511995
     1416.600000       0.515820
     1416.700000       0.519688
     1416.800000       0.523555
     1416.900000       0.527416
     1417.000000       0.531278
     1417.100000       0.535140
     1417.200000       0.539001
     1417.300000       0.542868
     1417.400000       0.546729
     1417.500000       0.550591
     1417.600000       0.554452
     1417.700000       0.558313
     1417.800000       0.562181
     1417.900000       0.566042
     1418.000000       0.569903
     1418.100000       0.573765
     1418.200000       0.577626
     1418.300000       0.581494
     1418.400000       0.585354
     1418.500000       0.589218
     1418.600000       0.593087
     1418.700000       0.596957
     1418.800000       0.600833
     1418.900000       0.604703
     1419.000000       0.608572
     1419.100000       0.612443
     1419.200000       0.616313
     1419.300000       0.620189
     1419.400000       0.624058
     1419.500000       0.627929
     1419.600000       0.631799
     1419.700000       0.635669
     1419.800000       0.639545
     1419.900000       0.643415
     1420.000000       0.647284
     1420.100000       0.651155
     1420.200000       0.655025
     1420.300000       0.658901
     1420.400000       0.662793
     1420.500000       0.666511
     1420.600000       0.669791
     1420.700000       0.672856
     1420.800000       0.675953
     1420.900000       0.679045
     1421.000000       0.682138
     1421.100000       0.685230
     1421.200000       0.688321
     1421.300000       0.691418
     1421.400000       0.694510
     1421.500000       0.697602
     1421.600000       0.700694
     1421.700000       0.703786
     1421.800000       0.706882
     1421.900000       0.709974
     1422.000000       0.713067
     1422.100000       0.716159
     1422.200000       0.719250
     1422.300000       0.722347
     1422.400000       0.725452
     1422.500000       0.728478
     1422.600000       0.731037
     1422.700000       0.733258
     1422.800000       0.735522
     1422.900000       0.737781
     1423.000000       0.740041
     1423.100000       0.742301
     1423.200000       0.744560
     1423.300000       0.746824
     1423.400000       0.749083
     1423.500000       0.751343
     1423.600000       0.753603
     1423.700000       0.755863
     1423.800000       0.758126
     1423.900000       0.760385
     1424.000000       0.762645
     1424.100000       0.764905
     1424.200000       0.767165
     1424.300000       0.769429
     1424.400000       0.771688
     1424.500000       0.773948
     1424.600000       0.776207
     1424.700000       0.778465
     1424.800000       0.780727
     1424.900000       0.782984
     1425.000000       0.785242
     1425.100000       0.787500
     1425.200000       0.789758
     1425.300000       0.792020
     1425.400000       0.794277
     1425.500000       0.796535
     1425.600000       0.798793
     1425.700000       0.801051
     1425.800000       0.803313
     1425.900000       0.805570
     1426.000000       0.807828
     1426.100000       0.810086
     1426.200000       0.812344
     1426.300000       0.814606
     1426.400000       0.816863
     1426.500000       0.819121
     1426.600000       0.821378
     1426.700000       0.823630
     1426.800000       0.825885
     1426.900000       0.828136
     1427.000000       0.830388
     1427.100000       0.832640
     1427.200000       0.834892
     1427.300000       0.837147
     1427.400000       0.839398
     1427.500000       0.841650
     1427.600000       0.843902
     1427.700000       0.846154
     1427.800000       0.848409
     1427.900000       0.850660
     1428.000000       0.852912
     1428.100000       0.855164
     1428.200000       0.857416
     1428.300000       0.859671
     1428.400000       0.861922
     1428.500000       0.864176
     1428.600000       0.866420
     1428.700000       0.868615
     1428.800000       0.870781
     1428.900000       0.872948
     1429.000000       0.875115
     1429.100000       0.877282
     1429.200000       0.879449
     1429.300000       0.881619
     1429.400000       0.883786
     1429.500000       0.885953
     1429.600000       0.888120
     1429.700000       0.890287
     1429.800000       0.892457
     1429.900000       0.894624
     1430.000000       0.896792
     1430.100000       0.898959
     1430.200000       0.901125
     1430.300000       0.903296
     1430.400000       0.905463
     1430.500000       0.907630
     1430.600000       0.909840
     1430.700000       0.911668
     1430.800000       0.913044
     1430.900000       0.914392
     1431.000000       0.915748
     1431.100000       0.917103
     1431.200000       0.918459
     1431.300000       0.919817
     1431.400000       0.921173
     1431.500000       0.922529
     1431.600000       0.923885
     1431.700000       0.925241
     1431.800000       0.926599
     1431.900000       0.927955
     1432.000000       0.929310
     1432.100000       0.930666
     1432.200000       0.932022
     1432.300000       0.933380
     1432.400000       0.934736
     1432.500000       0.936091
     1432.600000       0.937461
     1432.700000       0.938734
     1432.800000       0.939670
     1432.900000       0.940400
     1433.000000       0.941154
     1433.100000       0.941908
     1433.200000       0.942662
     1433.300000       0.943417
     1433.400000       0.944171
     1433.500000       0.944925
     1433.600000       0.945680
     1433.700000       0.946434
     1433.800000       0.947188
     1433.900000       0.947942
     1434.000000       0.948696
     1434.100000       0.949451
     1434.200000       0.950205
     1434.300000       0.950959
     1434.400000       0.951713
     1434.500000       0.952467
     1434.600000       0.953222
     1434.700000       0.953979
     1434.800000       0.954706
     1434.900000       0.955394
     1435.000000       0.956076
     1435.100000       0.956761
     1435.200000       0.957445
     1435.300000       0.958129
     1435.400000       0.958812
     1435.500000       0.959496
     1435.600000       0.960181
     1435.700000       0.960865
     1435.800000       0.961549
     1435.900000       0.962232
     1436.000000       0.962916
     1436.100000       0.963601
     1436.200000       0.964285
     1436.300000       0.964969
     1436.400000       0.965652
     1436.500000       0.966336
     1436.600000       0.967021
     1436.700000       0.967709
     1436.800000       0.968375
     1436.900000       0.968812
     1437.000000       0.969067
     1437.100000       0.969343
     1437.200000       0.969618
     1437.300000       0.969894
     1437.400000       0.970170
     1437.500000       0.970445
     1437.600000       0.970722
     1437.700000       0.970997
     1437.800000       0.971272
     1437.900000       0.971549
     1438.000000       0.971824
     1438.100000       0.972101
     1438.200000       0.972376
     1438.300000       0.972652
     1438.400000       0.972927
     1438.500000       0.973202
     1438.600000       0.973479
     1438.700000       0.973754
     1438.800000       0.974030
     1438.900000       0.974306
     1439.000000       0.974585
     1439.100000       0.974866
     1439.200000       0.975145
     1439.300000       0.975424
     1439.400000       0.975704
     1439.500000       0.975985
