34,   34, MVIRI VIS channel from srf_MET7_2001303_2001304_1801-Release_S10EE_10.dat
Number of data points:
793
Wavenumber (cm-1)   Filter response
     8442.380800       0.000000
     8449.514200       0.000000
     8456.659600       0.000004
     8463.817200       0.000053
     8470.986900       0.000158
     8478.168700       0.000316
     8485.362700       0.000526
     8492.569000       0.000787
     8499.787500       0.001096
     8507.018300       0.001453
     8514.261400       0.001857
     8521.516800       0.002305
     8528.784600       0.002797
     8536.064900       0.003332
     8543.357500       0.003907
     8550.662700       0.004523
     8557.980300       0.005178
     8565.310500       0.005871
     8572.653200       0.006601
     8580.008600       0.007367
     8587.376600       0.008168
     8594.757200       0.009004
     8602.150500       0.009873
     8609.556600       0.010774
     8616.975400       0.011707
     8624.407100       0.012671
     8631.851500       0.013666
     8639.308900       0.014690
     8646.779100       0.015743
     8654.262200       0.016824
     8661.758300       0.017933
     8669.267400       0.019070
     8676.789600       0.020233
     8684.324800       0.021422
     8691.873100       0.022637
     8699.434500       0.023877
     8707.009100       0.025142
     8714.596900       0.026431
     8722.198000       0.027745
     8729.812300       0.029082
     8737.439900       0.030442
     8745.080900       0.031825
     8752.735200       0.033231
     8760.403000       0.034659
     8768.084200       0.036110
     8775.778900       0.037582
     8783.487000       0.039076
     8791.208800       0.040592
     8798.944100       0.042129
     8806.693100       0.043687
     8814.455700       0.045266
     8822.232000       0.046865
     8830.022100       0.048486
     8837.825900       0.050127
     8845.643500       0.051789
     8853.475000       0.053471
     8861.320300       0.055173
     8869.179600       0.056896
     8877.052800       0.058639
     8884.940000       0.060402
     8892.841300       0.062185
     8900.756600       0.063989
     8908.686000       0.065813
     8916.629500       0.067656
     8924.587200       0.069521
     8932.559200       0.071405
     8940.545400       0.073309
     8948.545900       0.075234
     8956.560700       0.077178
     8964.589900       0.079144
     8972.633500       0.081129
     8980.691500       0.083135
     8988.764000       0.085161
     8996.851100       0.087208
     9004.952700       0.089276
     9013.068900       0.091364
     9021.199800       0.093473
     9029.345400       0.095603
     9037.505600       0.097753
     9045.680700       0.099925
     9053.870500       0.102118
     9062.075200       0.104332
     9070.294800       0.106567
     9078.529300       0.108824
     9086.778700       0.111102
     9095.043200       0.113401
     9103.322700       0.115723
     9111.617300       0.118066
     9119.927000       0.120430
     9128.251900       0.122817
     9136.592100       0.125226
     9144.947400       0.127657
     9153.318100       0.130110
     9161.704100       0.132585
     9170.105500       0.135083
     9178.522300       0.137603
     9186.954500       0.140145
     9195.402300       0.142711
     9203.865600       0.145299
     9212.344500       0.147910
     9220.839100       0.150544
     9229.349300       0.153200
     9237.875300       0.155880
     9246.417000       0.158582
     9254.974500       0.161308
     9263.547900       0.164057
     9272.137200       0.166830
     9280.742500       0.169625
     9289.363700       0.172444
     9298.000900       0.175286
     9306.654300       0.178152
     9315.323700       0.181041
     9324.009300       0.183954
     9332.711200       0.186890
     9341.429200       0.189849
     9350.163600       0.192833
     9358.914400       0.195839
     9367.681500       0.198870
     9376.465100       0.201924
     9385.265100       0.205001
     9394.081700       0.208102
     9402.914900       0.211226
     9411.764700       0.214374
     9420.631200       0.217545
     9429.514400       0.220740
     9438.414300       0.223958
     9447.331100       0.227199
     9456.264800       0.230464
     9465.215300       0.233752
     9474.182900       0.237063
     9483.167400       0.240398
     9492.169000       0.243755
     9501.187600       0.247135
     9510.223500       0.250538
     9519.276500       0.253963
     9528.346800       0.257412
     9537.434400       0.260883
     9546.539400       0.264376
     9555.661700       0.267892
     9564.801500       0.271429
     9573.958800       0.274989
     9583.133700       0.278571
     9592.326100       0.282175
     9601.536200       0.285800
     9610.764100       0.289446
     9620.009600       0.293114
     9629.273000       0.296803
     9638.554200       0.300513
     9647.853400       0.304244
     9657.170400       0.307995
     9666.505600       0.311766
     9675.858700       0.315558
     9685.230000       0.319370
     9694.619500       0.323201
     9704.027200       0.327052
     9713.453100       0.330923
     9722.897400       0.334812
     9732.360100       0.338720
     9741.841200       0.342647
     9751.340800       0.346592
     9760.859000       0.350556
     9770.395700       0.354537
     9779.951100       0.358535
     9789.525200       0.362551
     9799.118100       0.366585
     9808.729800       0.370634
     9818.360300       0.374700
     9828.009800       0.378782
     9837.678300       0.382881
     9847.365800       0.386995
     9857.072400       0.391123
     9866.798200       0.395267
     9876.543200       0.399425
     9886.307500       0.403598
     9896.091000       0.407785
     9905.894000       0.411985
     9915.716400       0.416199
     9925.558300       0.420425
     9935.419800       0.424664
     9945.300800       0.428915
     9955.201600       0.433178
     9965.122100       0.437453
     9975.062300       0.441738
     9985.022500       0.446035
     9995.002500       0.450342
    10005.002500       0.454659
    10015.022500       0.458985
    10025.062700       0.463321
    10035.122900       0.467666
    10045.203400       0.472019
    10055.304200       0.476380
    10065.425300       0.480749
    10075.566800       0.485124
    10085.728700       0.489507
    10095.911200       0.493897
    10106.114200       0.498292
    10116.337900       0.502692
    10126.582300       0.507098
    10136.847400       0.511509
    10147.133400       0.515924
    10157.440300       0.520343
    10167.768200       0.524766
    10178.117000       0.529191
    10188.487000       0.533619
    10198.878100       0.538049
    10209.290500       0.542481
    10219.724100       0.546914
    10230.179000       0.551348
    10240.655400       0.555783
    10251.153300       0.560217
    10261.672700       0.564650
    10272.213700       0.569083
    10282.776300       0.573515
    10293.360800       0.577944
    10303.967000       0.582371
    10314.595200       0.586796
    10325.245200       0.591217
    10335.917300       0.595634
    10346.611500       0.600048
    10357.327800       0.604456
    10368.066400       0.608860
    10378.827200       0.613258
    10389.610400       0.617650
    10400.416000       0.622035
    10411.244100       0.626414
    10422.094800       0.630785
    10432.968200       0.635149
    10443.864200       0.639504
    10454.783100       0.643850
    10465.724800       0.648188
    10476.689400       0.652515
    10487.677000       0.656833
    10498.687700       0.661139
    10509.721500       0.665435
    10520.778500       0.669719
    10531.858900       0.673992
    10542.962600       0.678252
    10554.089700       0.682499
    10565.240400       0.686732
    10576.414600       0.690952
    10587.612500       0.695158
    10598.834100       0.699349
    10610.079600       0.703525
    10621.348900       0.707686
    10632.642200       0.711830
    10643.959600       0.715958
    10655.301000       0.720070
    10666.666700       0.724163
    10678.056600       0.728240
    10689.470900       0.732298
    10700.909600       0.736337
    10712.372800       0.740358
    10723.860600       0.744359
    10735.373100       0.748340
    10746.910300       0.752301
    10758.472300       0.756241
    10770.059200       0.760161
    10781.671200       0.764058
    10793.308100       0.767934
    10804.970300       0.771788
    10816.657700       0.775619
    10828.370300       0.779426
    10840.108400       0.783211
    10851.871900       0.786971
    10863.661100       0.790708
    10875.475800       0.794419
    10887.316300       0.798106
    10899.182600       0.801767
    10911.074700       0.805403
    10922.992900       0.809012
    10934.937100       0.812595
    10946.907500       0.816152
    10958.904100       0.819681
    10970.927000       0.823182
    10982.976400       0.826656
    10995.052200       0.830102
    11007.154700       0.833519
    11019.283700       0.836907
    11031.439600       0.840267
    11043.622300       0.843596
    11055.832000       0.846896
    11068.068600       0.850166
    11080.332400       0.853406
    11092.623400       0.856615
    11104.941700       0.859793
    11117.287400       0.862939
    11129.660500       0.866054
    11142.061300       0.869138
    11154.489700       0.872189
    11166.945800       0.875208
    11179.429800       0.878194
    11191.941800       0.881148
    11204.481800       0.884068
    11217.049900       0.886955
    11229.646300       0.889809
    11242.270900       0.892628
    11254.924000       0.895414
    11267.605600       0.898166
    11280.315800       0.900882
    11293.054800       0.903565
    11305.822500       0.906212
    11318.619100       0.908825
    11331.444800       0.911402
    11344.299500       0.913944
    11357.183400       0.916450
    11370.096600       0.918920
    11383.039300       0.921355
    11396.011400       0.923753
    11409.013100       0.926115
    11422.044500       0.928441
    11435.105800       0.930730
    11448.196900       0.932983
    11461.318100       0.935198
    11474.469300       0.937377
    11487.650800       0.939519
    11500.862600       0.941624
    11514.104800       0.943691
    11527.377500       0.945721
    11540.680900       0.947714
    11554.015000       0.949670
    11567.380000       0.951587
    11580.775900       0.953468
    11594.202900       0.955310
    11607.661100       0.957115
    11621.150500       0.958882
    11634.671300       0.960611
    11648.223600       0.962302
    11661.807600       0.963956
    11675.423200       0.965571
    11689.070700       0.967149
    11702.750100       0.968689
    11716.461600       0.970190
    11730.205300       0.971654
    11743.981200       0.973080
    11757.789500       0.974468
    11771.630400       0.975819
    11785.503800       0.977131
    11799.410000       0.978406
    11813.349100       0.979643
    11827.321100       0.980842
    11841.326200       0.982003
    11855.364600       0.983127
    11869.436200       0.984214
    11883.541300       0.985263
    11897.680000       0.986275
    11911.852300       0.987250
    11926.058400       0.988187
    11940.298500       0.989088
    11954.572600       0.989951
    11968.880900       0.990778
    11983.223500       0.991568
    11997.600500       0.992321
    12012.012000       0.993038
    12026.458200       0.993719
    12040.939200       0.994364
    12055.455100       0.994973
    12070.006000       0.995546
    12084.592100       0.996083
    12099.213600       0.996585
    12113.870400       0.997051
    12128.562800       0.997483
    12143.290800       0.997880
    12158.054700       0.998242
    12172.854500       0.998569
    12187.690400       0.998862
    12202.562500       0.999121
    12217.471000       0.999346
    12232.415900       0.999538
    12247.397400       0.999696
    12262.415700       0.999821
    12277.470800       0.999913
    12292.563000       0.999973
    12307.692300       1.000000
    12322.858900       0.999995
    12338.062900       0.999958
    12353.304500       0.999890
    12368.583800       0.999790
    12383.900900       0.999659
    12399.256000       0.999497
    12414.649300       0.999305
    12430.080800       0.999083
    12445.550700       0.998831
    12461.059200       0.998549
    12476.606400       0.998238
    12492.192400       0.997899
    12507.817400       0.997530
    12523.481500       0.997133
    12539.185000       0.996709
    12554.927800       0.996257
    12570.710200       0.995777
    12586.532400       0.995271
    12602.394500       0.994738
    12618.296500       0.994179
    12634.238800       0.993593
    12650.221400       0.992983
    12666.244500       0.992347
    12682.308200       0.991687
    12698.412700       0.991002
    12714.558200       0.990293
    12730.744700       0.989560
    12746.972600       0.988804
    12763.241900       0.988026
    12779.552700       0.987225
    12795.905300       0.986401
    12812.299800       0.985556
    12828.736400       0.984690
    12845.215200       0.983803
    12861.736300       0.982895
    12878.300100       0.981968
    12894.906500       0.981021
    12911.555800       0.980054
    12928.248200       0.979069
    12944.983800       0.978065
    12961.762800       0.977043
    12978.585300       0.976004
    12995.451600       0.974947
    13012.361700       0.973874
    13029.316000       0.972785
    13046.314400       0.971680
    13063.357300       0.970559
    13080.444700       0.969423
    13097.576900       0.968273
    13114.754100       0.967109
    13131.976400       0.965931
    13149.243900       0.964740
    13166.556900       0.963536
    13183.915600       0.962320
    13201.320100       0.961092
    13218.770700       0.959853
    13236.267400       0.958603
    13253.810500       0.957342
    13271.400100       0.956071
    13289.036500       0.954790
    13306.719900       0.953501
    13324.450400       0.952202
    13342.228200       0.950895
    13360.053400       0.949581
    13377.926400       0.948259
    13395.847300       0.946930
    13413.816200       0.945595
    13431.833400       0.944254
    13449.899100       0.942907
    13468.013500       0.941555
    13486.176700       0.940199
    13504.388900       0.938838
    13522.650400       0.937473
    13540.961400       0.936105
    13559.322000       0.934735
    13577.732500       0.933362
    13596.193100       0.931987
    13614.703900       0.930610
    13633.265200       0.929232
    13651.877100       0.927854
    13670.540000       0.926475
    13689.253900       0.925097
    13708.019200       0.923719
    13726.836000       0.922343
    13745.704500       0.920968
    13764.624900       0.919594
    13783.597500       0.918224
    13802.622500       0.916856
    13821.700100       0.915491
    13840.830400       0.914130
    13860.013900       0.912773
    13879.250500       0.911420
    13898.540700       0.910072
    13917.884500       0.908730
    13937.282200       0.907393
    13956.734100       0.906062
    13976.240400       0.904738
    13995.801300       0.903420
    14015.417000       0.902110
    14035.087700       0.900807
    14054.813800       0.899513
    14074.595400       0.898226
    14094.432700       0.896949
    14114.326000       0.895681
    14134.275600       0.894422
    14154.281700       0.893173
    14174.344400       0.891934
    14194.464200       0.890706
    14214.641100       0.889489
    14234.875400       0.888282
    14255.167500       0.887088
    14275.517500       0.885905
    14295.925700       0.884735
    14316.392300       0.883577
    14336.917600       0.882432
    14357.501800       0.881301
    14378.145200       0.880182
    14398.848100       0.879078
    14419.610700       0.877987
    14440.433200       0.876911
    14461.316000       0.875850
    14482.259200       0.874803
    14503.263200       0.873772
    14524.328200       0.872756
    14545.454500       0.871756
    14566.642400       0.870772
    14587.892000       0.869804
    14609.203800       0.868852
    14630.577900       0.867917
    14652.014700       0.866999
    14673.514300       0.866098
    14695.077100       0.865214
    14716.703500       0.864348
    14738.393500       0.863500
    14760.147600       0.862669
    14781.966000       0.861856
    14803.849000       0.861062
    14825.796900       0.860286
    14847.809900       0.859529
    14869.888500       0.858790
    14892.032800       0.858070
    14914.243100       0.857370
    14936.519800       0.856688
    14958.863100       0.856026
    14981.273400       0.855382
    15003.750900       0.854759
    15026.296000       0.854155
    15048.909000       0.853570
    15071.590100       0.853005
    15094.339600       0.852460
    15117.158000       0.851935
    15140.045400       0.851430
    15163.002300       0.850944
    15186.028900       0.850479
    15209.125500       0.850033
    15232.292500       0.849608
    15255.530100       0.849202
    15278.838800       0.848817
    15302.218800       0.848451
    15325.670500       0.848106
    15349.194200       0.847780
    15372.790200       0.847474
    15396.458800       0.847188
    15420.200500       0.846922
    15444.015400       0.846676
    15467.904100       0.846449
    15491.866800       0.846242
    15515.903800       0.846055
    15540.015500       0.845886
    15564.202300       0.845737
    15588.464500       0.845608
    15612.802500       0.845497
    15637.216600       0.845405
    15661.707100       0.845331
    15686.274500       0.845277
    15710.919100       0.845240
    15735.641200       0.845222
    15760.441300       0.845222
    15785.319700       0.845240
    15810.276700       0.845275
    15835.312700       0.845328
    15860.428200       0.845397
    15885.623500       0.845484
    15910.899000       0.845587
    15936.255000       0.845707
    15961.691900       0.845843
    15987.210200       0.845995
    16012.810200       0.846162
    16038.492400       0.846345
    16064.257000       0.846542
    16090.104600       0.846754
    16116.035500       0.846981
    16142.050000       0.847221
    16168.148700       0.847475
    16194.332000       0.847742
    16220.600200       0.848022
    16246.953700       0.848315
    16273.393000       0.848620
    16299.918500       0.848936
    16326.530600       0.849264
    16353.229800       0.849603
    16380.016400       0.849952
    16406.890900       0.850311
    16433.853700       0.850680
    16460.905300       0.851058
    16488.046200       0.851444
    16515.276600       0.851839
    16542.597200       0.852241
    16570.008300       0.852651
    16597.510400       0.853067
    16625.103900       0.853490
    16652.789300       0.853918
    16680.567100       0.854351
    16708.437800       0.854789
    16736.401700       0.855231
    16764.459300       0.855677
    16792.611300       0.856125
    16820.857900       0.856576
    16849.199700       0.857028
    16877.637100       0.857482
    16906.170800       0.857936
    16934.801000       0.858390
    16963.528400       0.858843
    16992.353400       0.859295
    17021.276600       0.859745
    17050.298400       0.860193
    17079.419300       0.860637
    17108.639900       0.861077
    17137.960600       0.861513
    17167.382000       0.861943
    17196.904600       0.862368
    17226.528900       0.862786
    17256.255400       0.863196
    17286.084700       0.863599
    17316.017300       0.863992
    17346.053800       0.864377
    17376.194600       0.864751
    17406.440400       0.865114
    17436.791600       0.865465
    17467.248900       0.865804
    17497.812800       0.866130
    17528.483800       0.866441
    17559.262500       0.866738
    17590.149500       0.867020
    17621.145400       0.867285
    17652.250700       0.867533
    17683.466000       0.867764
