44,   44, MVIRI VIS channel from srf_MET7_2003033_2003034_1801-Release_S10EE_10.dat
Number of data points:
793
Wavenumber (cm-1)   Filter response
     8442.380800       0.000000
     8449.514200       0.000000
     8456.659600       0.000004
     8463.817200       0.000054
     8470.986900       0.000160
     8478.168700       0.000319
     8485.362700       0.000532
     8492.569000       0.000795
     8499.787500       0.001108
     8507.018300       0.001468
     8514.261400       0.001876
     8521.516800       0.002329
     8528.784600       0.002826
     8536.064900       0.003365
     8543.357500       0.003947
     8550.662700       0.004569
     8557.980300       0.005230
     8565.310500       0.005930
     8572.653200       0.006667
     8580.008600       0.007441
     8587.376600       0.008250
     8594.757200       0.009094
     8602.150500       0.009971
     8609.556600       0.010881
     8616.975400       0.011823
     8624.407100       0.012797
     8631.851500       0.013801
     8639.308900       0.014835
     8646.779100       0.015898
     8654.262200       0.016990
     8661.758300       0.018110
     8669.267400       0.019257
     8676.789600       0.020431
     8684.324800       0.021631
     8691.873100       0.022857
     8699.434500       0.024109
     8707.009100       0.025386
     8714.596900       0.026687
     8722.198000       0.028013
     8729.812300       0.029362
     8737.439900       0.030735
     8745.080900       0.032131
     8752.735200       0.033550
     8760.403000       0.034991
     8768.084200       0.036455
     8775.778900       0.037940
     8783.487000       0.039448
     8791.208800       0.040977
     8798.944100       0.042528
     8806.693100       0.044099
     8814.455700       0.045692
     8822.232000       0.047307
     8830.022100       0.048941
     8837.825900       0.050597
     8845.643500       0.052273
     8853.475000       0.053970
     8861.320300       0.055687
     8869.179600       0.057425
     8877.052800       0.059183
     8884.940000       0.060961
     8892.841300       0.062759
     8900.756600       0.064578
     8908.686000       0.066418
     8916.629500       0.068277
     8924.587200       0.070157
     8932.559200       0.072056
     8940.545400       0.073977
     8948.545900       0.075917
     8956.560700       0.077878
     8964.589900       0.079860
     8972.633500       0.081861
     8980.691500       0.083884
     8988.764000       0.085927
     8996.851100       0.087990
     9004.952700       0.090074
     9013.068900       0.092179
     9021.199800       0.094305
     9029.345400       0.096452
     9037.505600       0.098619
     9045.680700       0.100808
     9053.870500       0.103018
     9062.075200       0.105250
     9070.294800       0.107502
     9078.529300       0.109776
     9086.778700       0.112072
     9095.043200       0.114389
     9103.322700       0.116728
     9111.617300       0.119089
     9119.927000       0.121471
     9128.251900       0.123876
     9136.592100       0.126303
     9144.947400       0.128752
     9153.318100       0.131223
     9161.704100       0.133717
     9170.105500       0.136233
     9178.522300       0.138772
     9186.954500       0.141333
     9195.402300       0.143917
     9203.865600       0.146523
     9212.344500       0.149153
     9220.839100       0.151806
     9229.349300       0.154481
     9237.875300       0.157180
     9246.417000       0.159901
     9254.974500       0.162646
     9263.547900       0.165415
     9272.137200       0.168206
     9280.742500       0.171021
     9289.363700       0.173859
     9298.000900       0.176721
     9306.654300       0.179606
     9315.323700       0.182514
     9324.009300       0.185447
     9332.711200       0.188402
     9341.429200       0.191381
     9350.163600       0.194384
     9358.914400       0.197411
     9367.681500       0.200461
     9376.465100       0.203534
     9385.265100       0.206631
     9394.081700       0.209752
     9402.914900       0.212896
     9411.764700       0.216064
     9420.631200       0.219256
     9429.514400       0.222470
     9438.414300       0.225708
     9447.331100       0.228969
     9456.264800       0.232254
     9465.215300       0.235562
     9474.182900       0.238893
     9483.167400       0.242248
     9492.169000       0.245625
     9501.187600       0.249025
     9510.223500       0.252448
     9519.276500       0.255894
     9528.346800       0.259362
     9537.434400       0.262853
     9546.539400       0.266366
     9555.661700       0.269902
     9564.801500       0.273460
     9573.958800       0.277040
     9583.133700       0.280641
     9592.326100       0.284265
     9601.536200       0.287910
     9610.764100       0.291576
     9620.009600       0.295264
     9629.273000       0.298973
     9638.554200       0.302702
     9647.853400       0.306452
     9657.170400       0.310223
     9666.505600       0.314014
     9675.858700       0.317826
     9685.230000       0.321656
     9694.619500       0.325508
     9704.027200       0.329378
     9713.453100       0.333267
     9722.897400       0.337176
     9732.360100       0.341103
     9741.841200       0.345049
     9751.340800       0.349013
     9760.859000       0.352995
     9770.395700       0.356995
     9779.951100       0.361012
     9789.525200       0.365046
     9799.118100       0.369098
     9808.729800       0.373165
     9818.360300       0.377250
     9828.009800       0.381350
     9837.678300       0.385466
     9847.365800       0.389598
     9857.072400       0.393744
     9866.798200       0.397905
     9876.543200       0.402081
     9886.307500       0.406271
     9896.091000       0.410475
     9905.894000       0.414691
     9915.716400       0.418922
     9925.558300       0.423165
     9935.419800       0.427420
     9945.300800       0.431688
     9955.201600       0.435967
     9965.122100       0.440257
     9975.062300       0.444558
     9985.022500       0.448870
     9995.002500       0.453193
    10005.002500       0.457525
    10015.022500       0.461866
    10025.062700       0.466216
    10035.122900       0.470575
    10045.203400       0.474942
    10055.304200       0.479318
    10065.425300       0.483700
    10075.566800       0.488090
    10085.728700       0.492486
    10095.911200       0.496888
    10106.114200       0.501296
    10116.337900       0.505710
    10126.582300       0.510128
    10136.847400       0.514551
    10147.133400       0.518978
    10157.440300       0.523408
    10167.768200       0.527842
    10178.117000       0.532279
    10188.487000       0.536717
    10198.878100       0.541158
    10209.290500       0.545600
    10219.724100       0.550043
    10230.179000       0.554487
    10240.655400       0.558931
    10251.153300       0.563374
    10261.672700       0.567817
    10272.213700       0.572258
    10282.776300       0.576698
    10293.360800       0.581136
    10303.967000       0.585570
    10314.595200       0.590002
    10325.245200       0.594430
    10335.917300       0.598854
    10346.611500       0.603274
    10357.327800       0.607689
    10368.066400       0.612098
    10378.827200       0.616501
    10389.610400       0.620899
    10400.416000       0.625289
    10411.244100       0.629672
    10422.094800       0.634047
    10432.968200       0.638414
    10443.864200       0.642773
    10454.783100       0.647123
    10465.724800       0.651462
    10476.689400       0.655792
    10487.677000       0.660112
    10498.687700       0.664420
    10509.721500       0.668717
    10520.778500       0.673002
    10531.858900       0.677275
    10542.962600       0.681535
    10554.089700       0.685782
    10565.240400       0.690015
    10576.414600       0.694234
    10587.612500       0.698439
    10598.834100       0.702628
    10610.079600       0.706802
    10621.348900       0.710960
    10632.642200       0.715102
    10643.959600       0.719227
    10655.301000       0.723334
    10666.666700       0.727424
    10678.056600       0.731496
    10689.470900       0.735549
    10700.909600       0.739584
    10712.372800       0.743599
    10723.860600       0.747594
    10735.373100       0.751569
    10746.910300       0.755523
    10758.472300       0.759456
    10770.059200       0.763368
    10781.671200       0.767258
    10793.308100       0.771125
    10804.970300       0.774970
    10816.657700       0.778792
    10828.370300       0.782590
    10840.108400       0.786365
    10851.871900       0.790115
    10863.661100       0.793841
    10875.475800       0.797541
    10887.316300       0.801216
    10899.182600       0.804866
    10911.074700       0.808489
    10922.992900       0.812086
    10934.937100       0.815656
    10946.907500       0.819199
    10958.904100       0.822714
    10970.927000       0.826202
    10982.976400       0.829661
    10995.052200       0.833091
    11007.154700       0.836493
    11019.283700       0.839865
    11031.439600       0.843209
    11043.622300       0.846522
    11055.832000       0.849805
    11068.068600       0.853057
    11080.332400       0.856279
    11092.623400       0.859470
    11104.941700       0.862629
    11117.287400       0.865757
    11129.660500       0.868852
    11142.061300       0.871916
    11154.489700       0.874947
    11166.945800       0.877946
    11179.429800       0.880911
    11191.941800       0.883844
    11204.481800       0.886742
    11217.049900       0.889607
    11229.646300       0.892439
    11242.270900       0.895235
    11254.924000       0.897998
    11267.605600       0.900726
    11280.315800       0.903419
    11293.054800       0.906077
    11305.822500       0.908700
    11318.619100       0.911288
    11331.444800       0.913840
    11344.299500       0.916356
    11357.183400       0.918836
    11370.096600       0.921280
    11383.039300       0.923688
    11396.011400       0.926059
    11409.013100       0.928394
    11422.044500       0.930692
    11435.105800       0.932954
    11448.196900       0.935178
    11461.318100       0.937365
    11474.469300       0.939515
    11487.650800       0.941627
    11500.862600       0.943703
    11514.104800       0.945740
    11527.377500       0.947740
    11540.680900       0.949703
    11554.015000       0.951627
    11567.380000       0.953514
    11580.775900       0.955363
    11594.202900       0.957173
    11607.661100       0.958946
    11621.150500       0.960681
    11634.671300       0.962377
    11648.223600       0.964036
    11661.807600       0.965656
    11675.423200       0.967238
    11689.070700       0.968782
    11702.750100       0.970288
    11716.461600       0.971756
    11730.205300       0.973185
    11743.981200       0.974576
    11757.789500       0.975929
    11771.630400       0.977244
    11785.503800       0.978521
    11799.410000       0.979760
    11813.349100       0.980961
    11827.321100       0.982124
    11841.326200       0.983250
    11855.364600       0.984337
    11869.436200       0.985387
    11883.541300       0.986399
    11897.680000       0.987373
    11911.852300       0.988311
    11926.058400       0.989210
    11940.298500       0.990073
    11954.572600       0.990898
    11968.880900       0.991687
    11983.223500       0.992438
    11997.600500       0.993153
    12012.012000       0.993832
    12026.458200       0.994474
    12040.939200       0.995079
    12055.455100       0.995649
    12070.006000       0.996182
    12084.592100       0.996680
    12099.213600       0.997142
    12113.870400       0.997568
    12128.562800       0.997960
    12143.290800       0.998316
    12158.054700       0.998638
    12172.854500       0.998925
    12187.690400       0.999177
    12202.562500       0.999395
    12217.471000       0.999580
    12232.415900       0.999730
    12247.397400       0.999847
    12262.415700       0.999931
    12277.470800       0.999982
    12292.563000       1.000000
    12307.692300       0.999986
    12322.858900       0.999939
    12338.062900       0.999860
    12353.304500       0.999750
    12368.583800       0.999608
    12383.900900       0.999435
    12399.256000       0.999232
    12414.649300       0.998997
    12430.080800       0.998733
    12445.550700       0.998439
    12461.059200       0.998115
    12476.606400       0.997761
    12492.192400       0.997379
    12507.817400       0.996968
    12523.481500       0.996529
    12539.185000       0.996062
    12554.927800       0.995567
    12570.710200       0.995044
    12586.532400       0.994495
    12602.394500       0.993919
    12618.296500       0.993317
    12634.238800       0.992689
    12650.221400       0.992036
    12666.244500       0.991357
    12682.308200       0.990654
    12698.412700       0.989926
    12714.558200       0.989174
    12730.744700       0.988399
    12746.972600       0.987600
    12763.241900       0.986779
    12779.552700       0.985934
    12795.905300       0.985068
    12812.299800       0.984180
    12828.736400       0.983271
    12845.215200       0.982341
    12861.736300       0.981391
    12878.300100       0.980420
    12894.906500       0.979430
    12911.555800       0.978420
    12928.248200       0.977392
    12944.983800       0.976345
    12961.762800       0.975281
    12978.585300       0.974199
    12995.451600       0.973100
    13012.361700       0.971984
    13029.316000       0.970851
    13046.314400       0.969704
    13063.357300       0.968540
    13080.444700       0.967362
    13097.576900       0.966169
    13114.754100       0.964963
    13131.976400       0.963742
    13149.243900       0.962509
    13166.556900       0.961262
    13183.915600       0.960004
    13201.320100       0.958733
    13218.770700       0.957452
    13236.267400       0.956159
    13253.810500       0.954856
    13271.400100       0.953543
    13289.036500       0.952220
    13306.719900       0.950888
    13324.450400       0.949548
    13342.228200       0.948199
    13360.053400       0.946842
    13377.926400       0.945479
    13395.847300       0.944108
    13413.816200       0.942731
    13431.833400       0.941348
    13449.899100       0.939959
    13468.013500       0.938566
    13486.176700       0.937167
    13504.388900       0.935765
    13522.650400       0.934359
    13540.961400       0.932949
    13559.322000       0.931537
    13577.732500       0.930122
    13596.193100       0.928706
    13614.703900       0.927288
    13633.265200       0.925869
    13651.877100       0.924449
    13670.540000       0.923029
    13689.253900       0.921609
    13708.019200       0.920190
    13726.836000       0.918773
    13745.704500       0.917356
    13764.624900       0.915942
    13783.597500       0.914530
    13802.622500       0.913121
    13821.700100       0.911715
    13840.830400       0.910312
    13860.013900       0.908914
    13879.250500       0.907520
    13898.540700       0.906132
    13917.884500       0.904748
    13937.282200       0.903370
    13956.734100       0.901998
    13976.240400       0.900633
    13995.801300       0.899274
    14015.417000       0.897923
    14035.087700       0.896579
    14054.813800       0.895244
    14074.595400       0.893916
    14094.432700       0.892598
    14114.326000       0.891288
    14134.275600       0.889988
    14154.281700       0.888698
    14174.344400       0.887418
    14194.464200       0.886149
    14214.641100       0.884890
    14234.875400       0.883643
    14255.167500       0.882407
    14275.517500       0.881183
    14295.925700       0.879971
    14316.392300       0.878772
    14336.917600       0.877585
    14357.501800       0.876412
    14378.145200       0.875252
    14398.848100       0.874106
    14419.610700       0.872973
    14440.433200       0.871855
    14461.316000       0.870752
    14482.259200       0.869663
    14503.263200       0.868590
    14524.328200       0.867532
    14545.454500       0.866489
    14566.642400       0.865463
    14587.892000       0.864452
    14609.203800       0.863458
    14630.577900       0.862480
    14652.014700       0.861519
    14673.514300       0.860575
    14695.077100       0.859648
    14716.703500       0.858739
    14738.393500       0.857847
    14760.147600       0.856973
    14781.966000       0.856117
    14803.849000       0.855279
    14825.796900       0.854459
    14847.809900       0.853658
    14869.888500       0.852875
    14892.032800       0.852111
    14914.243100       0.851366
    14936.519800       0.850639
    14958.863100       0.849932
    14981.273400       0.849244
    15003.750900       0.848575
    15026.296000       0.847925
    15048.909000       0.847295
    15071.590100       0.846685
    15094.339600       0.846094
    15117.158000       0.845522
    15140.045400       0.844970
    15163.002300       0.844438
    15186.028900       0.843926
    15209.125500       0.843434
    15232.292500       0.842961
    15255.530100       0.842508
    15278.838800       0.842075
    15302.218800       0.841661
    15325.670500       0.841268
    15349.194200       0.840894
    15372.790200       0.840539
    15396.458800       0.840205
    15420.200500       0.839889
    15444.015400       0.839594
    15467.904100       0.839317
    15491.866800       0.839060
    15515.903800       0.838823
    15540.015500       0.838604
    15564.202300       0.838404
    15588.464500       0.838224
    15612.802500       0.838061
    15637.216600       0.837918
    15661.707100       0.837793
    15686.274500       0.837686
    15710.919100       0.837598
    15735.641200       0.837527
    15760.441300       0.837474
    15785.319700       0.837438
    15810.276700       0.837420
    15835.312700       0.837419
    15860.428200       0.837435
    15885.623500       0.837467
    15910.899000       0.837516
    15936.255000       0.837581
    15961.691900       0.837661
    15987.210200       0.837758
    16012.810200       0.837869
    16038.492400       0.837996
    16064.257000       0.838137
    16090.104600       0.838292
    16116.035500       0.838462
    16142.050000       0.838645
    16168.148700       0.838841
    16194.332000       0.839051
    16220.600200       0.839273
    16246.953700       0.839507
    16273.393000       0.839753
    16299.918500       0.840010
    16326.530600       0.840279
    16353.229800       0.840558
    16380.016400       0.840847
    16406.890900       0.841146
    16433.853700       0.841455
    16460.905300       0.841772
    16488.046200       0.842097
    16515.276600       0.842431
    16542.597200       0.842772
    16570.008300       0.843119
    16597.510400       0.843474
    16625.103900       0.843834
    16652.789300       0.844199
    16680.567100       0.844570
    16708.437800       0.844945
    16736.401700       0.845323
    16764.459300       0.845705
    16792.611300       0.846090
    16820.857900       0.846476
    16849.199700       0.846865
    16877.637100       0.847254
    16906.170800       0.847643
    16934.801000       0.848032
    16963.528400       0.848421
    16992.353400       0.848808
    17021.276600       0.849192
    17050.298400       0.849574
    17079.419300       0.849953
    17108.639900       0.850327
    17137.960600       0.850697
    17167.382000       0.851061
    17196.904600       0.851420
    17226.528900       0.851771
    17256.255400       0.852115
    17286.084700       0.852451
    17316.017300       0.852778
    17346.053800       0.853096
    17376.194600       0.853403
    17406.440400       0.853699
    17436.791600       0.853984
    17467.248900       0.854256
    17497.812800       0.854515
    17528.483800       0.854759
    17559.262500       0.854990
    17590.149500       0.855204
    17621.145400       0.855403
    17652.250700       0.855584
    17683.466000       0.855748
