25,   25, MVIRI VIS channel from srf_MET2_1985078_1985079_1801-Release_S10EL_10.dat
Number of data points:
730
Wavenumber (cm-1)   Filter response
     8916.629500       0.000000
     8924.587200       0.000000
     8932.559200       0.000002
     8940.545400       0.000011
     8948.545900       0.000032
     8956.560700       0.000069
     8964.589900       0.000125
     8972.633500       0.000207
     8980.691500       0.000316
     8988.764000       0.000458
     8996.851100       0.000636
     9004.952700       0.000853
     9013.068900       0.001113
     9021.199800       0.001418
     9029.345400       0.001773
     9037.505600       0.002179
     9045.680700       0.002640
     9053.870500       0.003157
     9062.075200       0.003735
     9070.294800       0.004374
     9078.529300       0.005077
     9086.778700       0.005847
     9095.043200       0.006685
     9103.322700       0.007593
     9111.617300       0.008572
     9119.927000       0.009625
     9128.251900       0.010753
     9136.592100       0.011958
     9144.947400       0.013240
     9153.318100       0.014601
     9161.704100       0.016041
     9170.105500       0.017563
     9178.522300       0.019167
     9186.954500       0.020853
     9195.402300       0.022622
     9203.865600       0.024476
     9212.344500       0.026414
     9220.839100       0.028437
     9229.349300       0.030545
     9237.875300       0.032740
     9246.417000       0.035020
     9254.974500       0.037387
     9263.547900       0.039839
     9272.137200       0.042378
     9280.742500       0.045003
     9289.363700       0.047714
     9298.000900       0.050512
     9306.654300       0.053395
     9315.323700       0.056363
     9324.009300       0.059417
     9332.711200       0.062555
     9341.429200       0.065777
     9350.163600       0.069084
     9358.914400       0.072473
     9367.681500       0.075945
     9376.465100       0.079499
     9385.265100       0.083133
     9394.081700       0.086849
     9402.914900       0.090644
     9411.764700       0.094518
     9420.631200       0.098471
     9429.514400       0.102500
     9438.414300       0.106605
     9447.331100       0.110786
     9456.264800       0.115041
     9465.215300       0.119370
     9474.182900       0.123770
     9483.167400       0.128242
     9492.169000       0.132783
     9501.187600       0.137394
     9510.223500       0.142072
     9519.276500       0.146817
     9528.346800       0.151627
     9537.434400       0.156501
     9546.539400       0.161438
     9555.661700       0.166437
     9564.801500       0.171495
     9573.958800       0.176614
     9583.133700       0.181790
     9592.326100       0.187021
     9601.536200       0.192309
     9610.764100       0.197649
     9620.009600       0.203043
     9629.273000       0.208487
     9638.554200       0.213981
     9647.853400       0.219523
     9657.170400       0.225112
     9666.505600       0.230746
     9675.858700       0.236425
     9685.230000       0.242146
     9694.619500       0.247908
     9704.027200       0.253710
     9713.453100       0.259550
     9722.897400       0.265428
     9732.360100       0.271341
     9741.841200       0.277288
     9751.340800       0.283267
     9760.859000       0.289279
     9770.395700       0.295320
     9779.951100       0.301389
     9789.525200       0.307485
     9799.118100       0.313608
     9808.729800       0.319754
     9818.360300       0.325923
     9828.009800       0.332113
     9837.678300       0.338324
     9847.365800       0.344553
     9857.072400       0.350799
     9866.798200       0.357062
     9876.543200       0.363339
     9886.307500       0.369629
     9896.091000       0.375932
     9905.894000       0.382244
     9915.716400       0.388566
     9925.558300       0.394895
     9935.419800       0.401232
     9945.300800       0.407574
     9955.201600       0.413919
     9965.122100       0.420268
     9975.062300       0.426618
     9985.022500       0.432968
     9995.002500       0.439318
    10005.002500       0.445665
    10015.022500       0.452008
    10025.062700       0.458347
    10035.122900       0.464681
    10045.203400       0.471007
    10055.304200       0.477325
    10065.425300       0.483634
    10075.566800       0.489933
    10085.728700       0.496220
    10095.911200       0.502495
    10106.114200       0.508756
    10116.337900       0.515002
    10126.582300       0.521232
    10136.847400       0.527446
    10147.133400       0.533642
    10157.440300       0.539819
    10167.768200       0.545976
    10178.117000       0.552112
    10188.487000       0.558227
    10198.878100       0.564319
    10209.290500       0.570387
    10219.724100       0.576431
    10230.179000       0.582449
    10240.655400       0.588442
    10251.153300       0.594407
    10261.672700       0.600344
    10272.213700       0.606252
    10282.776300       0.612130
    10293.360800       0.617979
    10303.967000       0.623795
    10314.595200       0.629580
    10325.245200       0.635333
    10335.917300       0.641052
    10346.611500       0.646736
    10357.327800       0.652386
    10368.066400       0.658000
    10378.827200       0.663578
    10389.610400       0.669120
    10400.416000       0.674624
    10411.244100       0.680089
    10422.094800       0.685517
    10432.968200       0.690904
    10443.864200       0.696253
    10454.783100       0.701560
    10465.724800       0.706827
    10476.689400       0.712052
    10487.677000       0.717236
    10498.687700       0.722377
    10509.721500       0.727476
    10520.778500       0.732530
    10531.858900       0.737542
    10542.962600       0.742509
    10554.089700       0.747431
    10565.240400       0.752309
    10576.414600       0.757141
    10587.612500       0.761927
    10598.834100       0.766668
    10610.079600       0.771362
    10621.348900       0.776009
    10632.642200       0.780609
    10643.959600       0.785162
    10655.301000       0.789667
    10666.666700       0.794125
    10678.056600       0.798534
    10689.470900       0.802895
    10700.909600       0.807208
    10712.372800       0.811471
    10723.860600       0.815686
    10735.373100       0.819852
    10746.910300       0.823968
    10758.472300       0.828035
    10770.059200       0.832052
    10781.671200       0.836019
    10793.308100       0.839937
    10804.970300       0.843805
    10816.657700       0.847622
    10828.370300       0.851390
    10840.108400       0.855107
    10851.871900       0.858774
    10863.661100       0.862391
    10875.475800       0.865957
    10887.316300       0.869473
    10899.182600       0.872939
    10911.074700       0.876354
    10922.992900       0.879719
    10934.937100       0.883033
    10946.907500       0.886297
    10958.904100       0.889511
    10970.927000       0.892674
    10982.976400       0.895787
    10995.052200       0.898850
    11007.154700       0.901863
    11019.283700       0.904826
    11031.439600       0.907739
    11043.622300       0.910603
    11055.832000       0.913416
    11068.068600       0.916180
    11080.332400       0.918895
    11092.623400       0.921560
    11104.941700       0.924176
    11117.287400       0.926743
    11129.660500       0.929261
    11142.061300       0.931731
    11154.489700       0.934152
    11166.945800       0.936524
    11179.429800       0.938849
    11191.941800       0.941125
    11204.481800       0.943354
    11217.049900       0.945535
    11229.646300       0.947668
    11242.270900       0.949755
    11254.924000       0.951794
    11267.605600       0.953787
    11280.315800       0.955733
    11293.054800       0.957634
    11305.822500       0.959488
    11318.619100       0.961296
    11331.444800       0.963059
    11344.299500       0.964776
    11357.183400       0.966449
    11370.096600       0.968077
    11383.039300       0.969660
    11396.011400       0.971200
    11409.013100       0.972695
    11422.044500       0.974147
    11435.105800       0.975555
    11448.196900       0.976920
    11461.318100       0.978243
    11474.469300       0.979523
    11487.650800       0.980761
    11500.862600       0.981957
    11514.104800       0.983111
    11527.377500       0.984224
    11540.680900       0.985297
    11554.015000       0.986328
    11567.380000       0.987320
    11580.775900       0.988271
    11594.202900       0.989182
    11607.661100       0.990054
    11621.150500       0.990887
    11634.671300       0.991682
    11648.223600       0.992437
    11661.807600       0.993155
    11675.423200       0.993835
    11689.070700       0.994477
    11702.750100       0.995082
    11716.461600       0.995651
    11730.205300       0.996183
    11743.981200       0.996678
    11757.789500       0.997138
    11771.630400       0.997562
    11785.503800       0.997951
    11799.410000       0.998306
    11813.349100       0.998625
    11827.321100       0.998911
    11841.326200       0.999162
    11855.364600       0.999380
    11869.436200       0.999565
    11883.541300       0.999716
    11897.680000       0.999835
    11911.852300       0.999922
    11926.058400       0.999977
    11940.298500       1.000000
    11954.572600       0.999992
    11968.880900       0.999953
    11983.223500       0.999883
    11997.600500       0.999782
    12012.012000       0.999652
    12026.458200       0.999492
    12040.939200       0.999302
    12055.455100       0.999083
    12070.006000       0.998836
    12084.592100       0.998560
    12099.213600       0.998255
    12113.870400       0.997923
    12128.562800       0.997563
    12143.290800       0.997176
    12158.054700       0.996761
    12172.854500       0.996320
    12187.690400       0.995853
    12202.562500       0.995359
    12217.471000       0.994840
    12232.415900       0.994294
    12247.397400       0.993724
    12262.415700       0.993128
    12277.470800       0.992508
    12292.563000       0.991863
    12307.692300       0.991194
    12322.858900       0.990501
    12338.062900       0.989785
    12353.304500       0.989045
    12368.583800       0.988282
    12383.900900       0.987495
    12399.256000       0.986687
    12414.649300       0.985856
    12430.080800       0.985002
    12445.550700       0.984127
    12461.059200       0.983231
    12476.606400       0.982312
    12492.192400       0.981373
    12507.817400       0.980413
    12523.481500       0.979432
    12539.185000       0.978430
    12554.927800       0.977409
    12570.710200       0.976367
    12586.532400       0.975305
    12602.394500       0.974224
    12618.296500       0.973124
    12634.238800       0.972004
    12650.221400       0.970866
    12666.244500       0.969708
    12682.308200       0.968532
    12698.412700       0.967338
    12714.558200       0.966126
    12730.744700       0.964896
    12746.972600       0.963648
    12763.241900       0.962382
    12779.552700       0.961099
    12795.905300       0.959799
    12812.299800       0.958482
    12828.736400       0.957148
    12845.215200       0.955797
    12861.736300       0.954430
    12878.300100       0.953047
    12894.906500       0.951647
    12911.555800       0.950231
    12928.248200       0.948800
    12944.983800       0.947353
    12961.762800       0.945890
    12978.585300       0.944412
    12995.451600       0.942918
    13012.361700       0.941410
    13029.316000       0.939887
    13046.314400       0.938348
    13063.357300       0.936796
    13080.444700       0.935228
    13097.576900       0.933646
    13114.754100       0.932050
    13131.976400       0.930440
    13149.243900       0.928816
    13166.556900       0.927178
    13183.915600       0.925526
    13201.320100       0.923861
    13218.770700       0.922181
    13236.267400       0.920489
    13253.810500       0.918783
    13271.400100       0.917064
    13289.036500       0.915332
    13306.719900       0.913587
    13324.450400       0.911829
    13342.228200       0.910058
    13360.053400       0.908275
    13377.926400       0.906479
    13395.847300       0.904670
    13413.816200       0.902850
    13431.833400       0.901016
    13449.899100       0.899171
    13468.013500       0.897313
    13486.176700       0.895444
    13504.388900       0.893562
    13522.650400       0.891669
    13540.961400       0.889763
    13559.322000       0.887846
    13577.732500       0.885918
    13596.193100       0.883978
    13614.703900       0.882026
    13633.265200       0.880063
    13651.877100       0.878088
    13670.540000       0.876103
    13689.253900       0.874106
    13708.019200       0.872098
    13726.836000       0.870079
    13745.704500       0.868049
    13764.624900       0.866008
    13783.597500       0.863956
    13802.622500       0.861894
    13821.700100       0.859820
    13840.830400       0.857737
    13860.013900       0.855642
    13879.250500       0.853537
    13898.540700       0.851421
    13917.884500       0.849295
    13937.282200       0.847159
    13956.734100       0.845013
    13976.240400       0.842856
    13995.801300       0.840689
    14015.417000       0.838512
    14035.087700       0.836325
    14054.813800       0.834128
    14074.595400       0.831921
    14094.432700       0.829704
    14114.326000       0.827477
    14134.275600       0.825241
    14154.281700       0.822994
    14174.344400       0.820739
    14194.464200       0.818473
    14214.641100       0.816198
    14234.875400       0.813914
    14255.167500       0.811620
    14275.517500       0.809317
    14295.925700       0.807005
    14316.392300       0.804683
    14336.917600       0.802353
    14357.501800       0.800013
    14378.145200       0.797664
    14398.848100       0.795306
    14419.610700       0.792939
    14440.433200       0.790564
    14461.316000       0.788179
    14482.259200       0.785786
    14503.263200       0.783385
    14524.328200       0.780974
    14545.454500       0.778555
    14566.642400       0.776128
    14587.892000       0.773692
    14609.203800       0.771248
    14630.577900       0.768796
    14652.014700       0.766335
    14673.514300       0.763867
    14695.077100       0.761390
    14716.703500       0.758906
    14738.393500       0.756413
    14760.147600       0.753913
    14781.966000       0.751405
    14803.849000       0.748889
    14825.796900       0.746366
    14847.809900       0.743835
    14869.888500       0.741297
    14892.032800       0.738752
    14914.243100       0.736199
    14936.519800       0.733639
    14958.863100       0.731072
    14981.273400       0.728498
    15003.750900       0.725917
    15026.296000       0.723330
    15048.909000       0.720735
    15071.590100       0.718135
    15094.339600       0.715527
    15117.158000       0.712913
    15140.045400       0.710293
    15163.002300       0.707666
    15186.028900       0.705034
    15209.125500       0.702395
    15232.292500       0.699750
    15255.530100       0.697100
    15278.838800       0.694443
    15302.218800       0.691782
    15325.670500       0.689114
    15349.194200       0.686441
    15372.790200       0.683763
    15396.458800       0.681080
    15420.200500       0.678392
    15444.015400       0.675698
    15467.904100       0.673000
    15491.866800       0.670298
    15515.903800       0.667590
    15540.015500       0.664878
    15564.202300       0.662162
    15588.464500       0.659441
    15612.802500       0.656716
    15637.216600       0.653988
    15661.707100       0.651255
    15686.274500       0.648519
    15710.919100       0.645779
    15735.641200       0.643035
    15760.441300       0.640289
    15785.319700       0.637539
    15810.276700       0.634785
    15835.312700       0.632029
    15860.428200       0.629271
    15885.623500       0.626509
    15910.899000       0.623745
    15936.255000       0.620978
    15961.691900       0.618209
    15987.210200       0.615438
    16012.810200       0.612665
    16038.492400       0.609890
    16064.257000       0.607114
    16090.104600       0.604336
    16116.035500       0.601556
    16142.050000       0.598775
    16168.148700       0.595993
    16194.332000       0.593210
    16220.600200       0.590426
    16246.953700       0.587641
    16273.393000       0.584856
    16299.918500       0.582071
    16326.530600       0.579285
    16353.229800       0.576499
    16380.016400       0.573713
    16406.890900       0.570927
    16433.853700       0.568142
    16460.905300       0.565357
    16488.046200       0.562573
    16515.276600       0.559789
    16542.597200       0.557006
    16570.008300       0.554225
    16597.510400       0.551445
    16625.103900       0.548665
    16652.789300       0.545888
    16680.567100       0.543112
    16708.437800       0.540338
    16736.401700       0.537566
    16764.459300       0.534796
    16792.611300       0.532029
    16820.857900       0.529263
    16849.199700       0.526501
    16877.637100       0.523741
    16906.170800       0.520983
    16934.801000       0.518229
    16963.528400       0.515478
    16992.353400       0.512730
    17021.276600       0.509986
    17050.298400       0.507245
    17079.419300       0.504507
    17108.639900       0.501774
    17137.960600       0.499045
    17167.382000       0.496319
    17196.904600       0.493598
    17226.528900       0.490881
    17256.255400       0.488168
    17286.084700       0.485460
    17316.017300       0.482757
    17346.053800       0.480059
    17376.194600       0.477366
    17406.440400       0.474678
    17436.791600       0.471995
    17467.248900       0.469317
    17497.812800       0.466645
    17528.483800       0.463978
    17559.262500       0.461317
    17590.149500       0.458662
    17621.145400       0.456012
    17652.250700       0.453369
    17683.466000       0.450732
    17714.791900       0.448100
    17746.228900       0.445475
    17777.777800       0.442857
    17809.439000       0.440245
    17841.213200       0.437639
    17873.101000       0.435040
    17905.103000       0.432448
    17937.219700       0.429863
    17969.451900       0.427284
    18001.800200       0.424713
    18034.265100       0.422148
    18066.847300       0.419591
    18099.547500       0.417040
    18132.366300       0.414497
    18165.304300       0.411961
    18198.362100       0.409433
    18231.540600       0.406911
    18264.840200       0.404397
    18298.261700       0.401891
    18331.805700       0.399392
    18365.472900       0.396901
    18399.264000       0.394417
    18433.179700       0.391940
    18467.220700       0.389471
    18501.387600       0.387010
    18535.681200       0.384557
    18570.102100       0.382111
    18604.651200       0.379673
    18639.329000       0.377242
    18674.136300       0.374819
    18709.073900       0.372404
    18744.142500       0.369996
    18779.342700       0.367596
    18814.675400       0.365203
    18850.141400       0.362819
    18885.741300       0.360441
    18921.475900       0.358071
    18957.346000       0.355709
    18993.352300       0.353354
    19029.495700       0.351006
    19065.776900       0.348666
    19102.196800       0.346333
    19138.756000       0.344007
    19175.455400       0.341689
    19212.295900       0.339377
    19249.278200       0.337073
    19286.403100       0.334775
    19323.671500       0.332485
    19361.084200       0.330201
    19398.642100       0.327924
    19436.346000       0.325653
    19474.196700       0.323389
    19512.195100       0.321131
    19550.342100       0.318880
    19588.638600       0.316635
    19627.085400       0.314396
    19665.683400       0.312162
    19704.433500       0.309935
    19743.336600       0.307713
    19782.393700       0.305497
    19821.605600       0.303286
    19860.973200       0.301080
    19900.497500       0.298879
