04 , goes_11_imager_05.flt
Number of data points:
909
Wavenumber (cm-1)   Filter response
      785.000000       0.002496
      785.100000       0.007609
      785.200000       0.010304
      785.300000       0.010484
      785.400000       0.010662
      785.500000       0.010834
      785.600000       0.011009
      785.700000       0.011179
      785.800000       0.011349
      785.900000       0.011525
      786.000000       0.011700
      786.100000       0.011875
      786.200000       0.012060
      786.300000       0.012245
      786.400000       0.012435
      786.500000       0.012637
      786.600000       0.012845
      786.700000       0.013063
      786.800000       0.013293
      786.900000       0.013533
      787.000000       0.013788
      787.100000       0.014055
      787.200000       0.014343
      787.300000       0.014648
      787.400000       0.014978
      787.500000       0.015323
      787.600000       0.015696
      787.700000       0.016096
      787.800000       0.016521
      787.900000       0.016974
      788.000000       0.017462
      788.100000       0.017982
      788.200000       0.018537
      788.300000       0.019137
      788.400000       0.019772
      788.500000       0.020455
      788.600000       0.021170
      788.700000       0.021926
      788.800000       0.022711
      788.900000       0.023526
      789.000000       0.024374
      789.100000       0.025252
      789.200000       0.026157
      789.300000       0.027092
      789.400000       0.028055
      789.500000       0.029046
      789.600000       0.030059
      789.700000       0.031096
      789.800000       0.032154
      789.900000       0.033237
      790.000000       0.034340
      790.100000       0.035463
      790.200000       0.036604
      790.300000       0.037766
      790.400000       0.038947
      790.500000       0.040155
      790.600000       0.041388
      790.700000       0.042651
      790.800000       0.043946
      790.900000       0.045282
      791.000000       0.046655
      791.100000       0.048078
      791.200000       0.049554
      791.300000       0.051084
      791.400000       0.052677
      791.500000       0.054335
      791.600000       0.056044
      791.700000       0.057822
      791.800000       0.059657
      791.900000       0.061553
      792.000000       0.063514
      792.100000       0.065532
      792.200000       0.067623
      792.300000       0.069784
      792.400000       0.072020
      792.500000       0.074318
      792.600000       0.076679
      792.700000       0.079100
      792.800000       0.081566
      792.900000       0.084087
      793.000000       0.086648
      793.100000       0.089254
      793.200000       0.091907
      793.300000       0.094588
      793.400000       0.097314
      793.500000       0.100078
      793.600000       0.102887
      793.700000       0.105745
      793.800000       0.108659
      793.900000       0.111630
      794.000000       0.114666
      794.100000       0.117772
      794.200000       0.120956
      794.300000       0.124227
      794.400000       0.127593
      794.500000       0.131057
      794.600000       0.134633
      794.700000       0.138330
      794.800000       0.142148
      794.900000       0.146112
      795.000000       0.150224
      795.100000       0.154500
      795.200000       0.158962
      795.300000       0.163624
      795.400000       0.168495
      795.500000       0.173570
      795.600000       0.178839
      795.700000       0.184301
      795.800000       0.189945
      795.900000       0.195785
      796.000000       0.201799
      796.100000       0.207994
      796.200000       0.214389
      796.300000       0.220971
      796.400000       0.227745
      796.500000       0.234678
      796.600000       0.241740
      796.700000       0.248905
      796.800000       0.256135
      796.900000       0.263420
      797.000000       0.270707
      797.100000       0.277985
      797.200000       0.285232
      797.300000       0.292404
      797.400000       0.299496
      797.500000       0.306519
      797.600000       0.313488
      797.700000       0.320425
      797.800000       0.327335
      797.900000       0.334249
      798.000000       0.341169
      798.100000       0.348118
      798.200000       0.355110
      798.300000       0.362165
      798.400000       0.369282
      798.500000       0.376451
      798.600000       0.383658
      798.700000       0.390893
      798.800000       0.398132
      798.900000       0.405369
      799.000000       0.412578
      799.100000       0.419755
      799.200000       0.426879
      799.300000       0.433936
      799.400000       0.440922
      799.500000       0.447849
      799.600000       0.454735
      799.700000       0.461601
      799.800000       0.468463
      799.900000       0.475334
      800.000000       0.482238
      800.100000       0.489184
      800.200000       0.496205
      800.300000       0.503301
      800.400000       0.510490
      800.500000       0.517731
      800.600000       0.524989
      800.700000       0.532238
      800.800000       0.539426
      800.900000       0.546532
      801.000000       0.553507
      801.100000       0.560320
      801.200000       0.566931
      801.300000       0.573289
      801.400000       0.579371
      801.500000       0.585186
      801.600000       0.590729
      801.700000       0.596013
      801.800000       0.601038
      801.900000       0.605797
      802.000000       0.610287
      802.100000       0.614501
      802.200000       0.618430
      802.300000       0.622059
      802.400000       0.625396
      802.500000       0.628470
      802.600000       0.631324
      802.700000       0.633997
      802.800000       0.636521
      802.900000       0.638932
      803.000000       0.641258
      803.100000       0.643539
      803.200000       0.645798
      803.300000       0.648071
      803.400000       0.650387
      803.500000       0.652751
      803.600000       0.655180
      803.700000       0.657683
      803.800000       0.660280
      803.900000       0.662983
      804.000000       0.665807
      804.100000       0.668773
      804.200000       0.671894
      804.300000       0.675191
      804.400000       0.678670
      804.500000       0.682264
      804.600000       0.685925
      804.700000       0.689604
      804.800000       0.693236
      804.900000       0.696770
      805.000000       0.700141
      805.100000       0.703303
      805.200000       0.706185
      805.300000       0.708726
      805.400000       0.710898
      805.500000       0.712732
      805.600000       0.714276
      805.700000       0.715577
      805.800000       0.716661
      805.900000       0.717578
      806.000000       0.718360
      806.100000       0.719034
      806.200000       0.719641
      806.300000       0.720210
      806.400000       0.720764
      806.500000       0.721306
      806.600000       0.721835
      806.700000       0.722345
      806.800000       0.722842
      806.900000       0.723321
      807.000000       0.723784
      807.100000       0.724226
      807.200000       0.724648
      807.300000       0.725048
      807.400000       0.725425
      807.500000       0.725775
      807.600000       0.726097
      807.700000       0.726395
      807.800000       0.726660
      807.900000       0.726897
      808.000000       0.727097
      808.100000       0.727262
      808.200000       0.727382
      808.300000       0.727467
      808.400000       0.727505
      808.500000       0.727503
      808.600000       0.727463
      808.700000       0.727398
      808.800000       0.727303
      808.900000       0.727186
      809.000000       0.727051
      809.100000       0.726902
      809.200000       0.726739
      809.300000       0.726572
      809.400000       0.726395
      809.500000       0.726218
      809.600000       0.726039
      809.700000       0.725856
      809.800000       0.725674
      809.900000       0.725495
      810.000000       0.725323
      810.100000       0.725151
      810.200000       0.724989
      810.300000       0.724830
      810.400000       0.724688
      810.500000       0.724548
      810.600000       0.724421
      810.700000       0.724297
      810.800000       0.724175
      810.900000       0.724056
      811.000000       0.723939
      811.100000       0.723822
      811.200000       0.723701
      811.300000       0.723579
      811.400000       0.723455
      811.500000       0.723331
      811.600000       0.723219
      811.700000       0.723127
      811.800000       0.723051
      811.900000       0.723009
      812.000000       0.723000
      812.100000       0.723041
      812.200000       0.723132
      812.300000       0.723283
      812.400000       0.723499
      812.500000       0.723778
      812.600000       0.724119
      812.700000       0.724515
      812.800000       0.724966
      812.900000       0.725473
      813.000000       0.726029
      813.100000       0.726645
      813.200000       0.727309
      813.300000       0.728028
      813.400000       0.728799
      813.500000       0.729611
      813.600000       0.730442
      813.700000       0.731299
      813.800000       0.732153
      813.900000       0.733002
      814.000000       0.733826
      814.100000       0.734620
      814.200000       0.735369
      814.300000       0.736063
      814.400000       0.736690
      814.500000       0.737274
      814.600000       0.737828
      814.700000       0.738362
      814.800000       0.738896
      814.900000       0.739453
      815.000000       0.740039
      815.100000       0.740674
      815.200000       0.741378
      815.300000       0.742167
      815.400000       0.743046
      815.500000       0.744018
      815.600000       0.745073
      815.700000       0.746204
      815.800000       0.747399
      815.900000       0.748666
      816.000000       0.749990
      816.100000       0.751372
      816.200000       0.752814
      816.300000       0.754306
      816.400000       0.755848
      816.500000       0.757445
      816.600000       0.759095
      816.700000       0.760807
      816.800000       0.762576
      816.900000       0.764413
      817.000000       0.766321
      817.100000       0.768300
      817.200000       0.770362
      817.300000       0.772512
      817.400000       0.774752
      817.500000       0.777064
      817.600000       0.779441
      817.700000       0.781871
      817.800000       0.784343
      817.900000       0.786843
      818.000000       0.789355
      818.100000       0.791880
      818.200000       0.794397
      818.300000       0.796899
      818.400000       0.799381
      818.500000       0.801839
      818.600000       0.804268
      818.700000       0.806680
      818.800000       0.809065
      818.900000       0.811422
      819.000000       0.813751
      819.100000       0.816055
      819.200000       0.818325
      819.300000       0.820561
      819.400000       0.822770
      819.500000       0.824957
      819.600000       0.827129
      819.700000       0.829293
      819.800000       0.831462
      819.900000       0.833643
      820.000000       0.835842
      820.100000       0.838073
      820.200000       0.840350
      820.300000       0.842664
      820.400000       0.845045
      820.500000       0.847463
      820.600000       0.849930
      820.700000       0.852431
      820.800000       0.854962
      820.900000       0.857513
      821.000000       0.860084
      821.100000       0.862665
      821.200000       0.865253
      821.300000       0.867849
      821.400000       0.870435
      821.500000       0.873018
      821.600000       0.875599
      821.700000       0.878174
      821.800000       0.880737
      821.900000       0.883293
      822.000000       0.885839
      822.100000       0.888367
      822.200000       0.890885
      822.300000       0.893383
      822.400000       0.895866
      822.500000       0.898326
      822.600000       0.900777
      822.700000       0.903222
      822.800000       0.905657
      822.900000       0.908088
      823.000000       0.910513
      823.100000       0.912944
      823.200000       0.915374
      823.300000       0.917809
      823.400000       0.920250
      823.500000       0.922682
      823.600000       0.925105
      823.700000       0.927508
      823.800000       0.929876
      823.900000       0.932201
      824.000000       0.934477
      824.100000       0.936684
      824.200000       0.938825
      824.300000       0.940873
      824.400000       0.942833
      824.500000       0.944703
      824.600000       0.946488
      824.700000       0.948204
      824.800000       0.949847
      824.900000       0.951422
      825.000000       0.952937
      825.100000       0.954390
      825.200000       0.955785
      825.300000       0.957128
      825.400000       0.958413
      825.500000       0.959659
      825.600000       0.960864
      825.700000       0.962047
      825.800000       0.963212
      825.900000       0.964363
      826.000000       0.965510
      826.100000       0.966663
      826.200000       0.967831
      826.300000       0.969017
      826.400000       0.970227
      826.500000       0.971455
      826.600000       0.972698
      826.700000       0.973949
      826.800000       0.975199
      826.900000       0.976450
      827.000000       0.977688
      827.100000       0.978908
      827.200000       0.980111
      827.300000       0.981284
      827.400000       0.982422
      827.500000       0.983530
      827.600000       0.984598
      827.700000       0.985634
      827.800000       0.986629
      827.900000       0.987582
      828.000000       0.988490
      828.100000       0.989352
      828.200000       0.990162
      828.300000       0.990920
      828.400000       0.991620
      828.500000       0.992268
      828.600000       0.992873
      828.700000       0.993435
      828.800000       0.993967
      828.900000       0.994467
      829.000000       0.994944
      829.100000       0.995402
      829.200000       0.995836
      829.300000       0.996266
      829.400000       0.996680
      829.500000       0.997085
      829.600000       0.997469
      829.700000       0.997841
      829.800000       0.998190
      829.900000       0.998519
      830.000000       0.998821
      830.100000       0.999092
      830.200000       0.999334
      830.300000       0.999536
      830.400000       0.999702
      830.500000       0.999828
      830.600000       0.999922
      830.700000       0.999979
      830.800000       1.000000
      830.900000       0.999991
      831.000000       0.999953
      831.100000       0.999879
      831.200000       0.999775
      831.300000       0.999634
      831.400000       0.999462
      831.500000       0.999261
      831.600000       0.999027
      831.700000       0.998768
      831.800000       0.998484
      831.900000       0.998173
      832.000000       0.997844
      832.100000       0.997483
      832.200000       0.997109
      832.300000       0.996705
      832.400000       0.996286
      832.500000       0.995847
      832.600000       0.995393
      832.700000       0.994936
      832.800000       0.994470
      832.900000       0.994001
      833.000000       0.993534
      833.100000       0.993073
      833.200000       0.992622
      833.300000       0.992183
      833.400000       0.991759
      833.500000       0.991350
      833.600000       0.990951
      833.700000       0.990572
      833.800000       0.990206
      833.900000       0.989850
      834.000000       0.989509
      834.100000       0.989180
      834.200000       0.988864
      834.300000       0.988562
      834.400000       0.988271
      834.500000       0.987990
      834.600000       0.987709
      834.700000       0.987430
      834.800000       0.987137
      834.900000       0.986838
      835.000000       0.986520
      835.100000       0.986176
      835.200000       0.985805
      835.300000       0.985402
      835.400000       0.984958
      835.500000       0.984475
      835.600000       0.983954
      835.700000       0.983395
      835.800000       0.982794
      835.900000       0.982156
      836.000000       0.981477
      836.100000       0.980756
      836.200000       0.979988
      836.300000       0.979172
      836.400000       0.978311
      836.500000       0.977415
      836.600000       0.976502
      836.700000       0.975578
      836.800000       0.974658
      836.900000       0.973754
      837.000000       0.972881
      837.100000       0.972050
      837.200000       0.971277
      837.300000       0.970574
      837.400000       0.969953
      837.500000       0.969402
      837.600000       0.968914
      837.700000       0.968491
      837.800000       0.968118
      837.900000       0.967795
      838.000000       0.967517
      838.100000       0.967274
      838.200000       0.967066
      838.300000       0.966893
      838.400000       0.966748
      838.500000       0.966608
      838.600000       0.966475
      838.700000       0.966327
      838.800000       0.966154
      838.900000       0.965946
      839.000000       0.965688
      839.100000       0.965358
      839.200000       0.964952
      839.300000       0.964449
      839.400000       0.963844
      839.500000       0.963146
      839.600000       0.962368
      839.700000       0.961518
      839.800000       0.960610
      839.900000       0.959652
      840.000000       0.958646
      840.100000       0.957616
      840.200000       0.956553
      840.300000       0.955483
      840.400000       0.954397
      840.500000       0.953302
      840.600000       0.952199
      840.700000       0.951088
      840.800000       0.949965
      840.900000       0.948835
      841.000000       0.947702
      841.100000       0.946549
      841.200000       0.945396
      841.300000       0.944230
      841.400000       0.943055
      841.500000       0.941879
      841.600000       0.940701
      841.700000       0.939528
      841.800000       0.938368
      841.900000       0.937210
      842.000000       0.936077
      842.100000       0.934959
      842.200000       0.933868
      842.300000       0.932810
      842.400000       0.931787
      842.500000       0.930806
      842.600000       0.929865
      842.700000       0.928975
      842.800000       0.928139
      842.900000       0.927361
      843.000000       0.926650
      843.100000       0.926012
      843.200000       0.925454
      843.300000       0.924985
      843.400000       0.924612
      843.500000       0.924314
      843.600000       0.924083
      843.700000       0.923907
      843.800000       0.923776
      843.900000       0.923670
      844.000000       0.923585
      844.100000       0.923511
      844.200000       0.923428
      844.300000       0.923334
      844.400000       0.923219
      844.500000       0.923090
      844.600000       0.922942
      844.700000       0.922783
      844.800000       0.922620
      844.900000       0.922456
      845.000000       0.922288
      845.100000       0.922127
      845.200000       0.921973
      845.300000       0.921830
      845.400000       0.921696
      845.500000       0.921580
      845.600000       0.921472
      845.700000       0.921376
      845.800000       0.921287
      845.900000       0.921201
      846.000000       0.921127
      846.100000       0.921056
      846.200000       0.920987
      846.300000       0.920923
      846.400000       0.920859
      846.500000       0.920798
      846.600000       0.920734
      846.700000       0.920667
      846.800000       0.920593
      846.900000       0.920516
      847.000000       0.920424
      847.100000       0.920324
