102,   102, MVIRI VIS channel from srf_MET5_2003348_2003349_1801-Release_S10EL_10.dat
Number of data points:
806
Wavenumber (cm-1)   Filter response
     8350.730700       0.000000
     8357.710000       0.000000
     8364.701000       0.000000
     8371.703600       0.000002
     8378.718100       0.000004
     8385.744200       0.000009
     8392.782200       0.000017
     8399.832000       0.000028
     8406.893700       0.000042
     8413.967200       0.000061
     8421.052600       0.000085
     8428.150000       0.000114
     8435.259400       0.000149
     8442.380800       0.000190
     8449.514200       0.000237
     8456.659600       0.000292
     8463.817200       0.000354
     8470.986900       0.000424
     8478.168700       0.000502
     8485.362700       0.000588
     8492.569000       0.000684
     8499.787500       0.000789
     8507.018300       0.000903
     8514.261400       0.001027
     8521.516800       0.001162
     8528.784600       0.001307
     8536.064900       0.001463
     8543.357500       0.001629
     8550.662700       0.001808
     8557.980300       0.001997
     8565.310500       0.002199
     8572.653200       0.002413
     8580.008600       0.002639
     8587.376600       0.002877
     8594.757200       0.003129
     8602.150500       0.003393
     8609.556600       0.003671
     8616.975400       0.003961
     8624.407100       0.004266
     8631.851500       0.004584
     8639.308900       0.004916
     8646.779100       0.005263
     8654.262200       0.005623
     8661.758300       0.005999
     8669.267400       0.006388
     8676.789600       0.006793
     8684.324800       0.007212
     8691.873100       0.007647
     8699.434500       0.008097
     8707.009100       0.008562
     8714.596900       0.009043
     8722.198000       0.009540
     8729.812300       0.010053
     8737.439900       0.010581
     8745.080900       0.011125
     8752.735200       0.011686
     8760.403000       0.012263
     8768.084200       0.012857
     8775.778900       0.013467
     8783.487000       0.014094
     8791.208800       0.014738
     8798.944100       0.015399
     8806.693100       0.016077
     8814.455700       0.016772
     8822.232000       0.017485
     8830.022100       0.018215
     8837.825900       0.018962
     8845.643500       0.019727
     8853.475000       0.020511
     8861.320300       0.021311
     8869.179600       0.022130
     8877.052800       0.022967
     8884.940000       0.023822
     8892.841300       0.024696
     8900.756600       0.025588
     8908.686000       0.026499
     8916.629500       0.027428
     8924.587200       0.028376
     8932.559200       0.029342
     8940.545400       0.030328
     8948.545900       0.031333
     8956.560700       0.032357
     8964.589900       0.033400
     8972.633500       0.034462
     8980.691500       0.035544
     8988.764000       0.036646
     8996.851100       0.037767
     9004.952700       0.038908
     9013.068900       0.040069
     9021.199800       0.041250
     9029.345400       0.042451
     9037.505600       0.043672
     9045.680700       0.044913
     9053.870500       0.046175
     9062.075200       0.047457
     9070.294800       0.048760
     9078.529300       0.050083
     9086.778700       0.051427
     9095.043200       0.052792
     9103.322700       0.054178
     9111.617300       0.055585
     9119.927000       0.057013
     9128.251900       0.058462
     9136.592100       0.059933
     9144.947400       0.061424
     9153.318100       0.062938
     9161.704100       0.064473
     9170.105500       0.066029
     9178.522300       0.067608
     9186.954500       0.069208
     9195.402300       0.070830
     9203.865600       0.072474
     9212.344500       0.074140
     9220.839100       0.075829
     9229.349300       0.077539
     9237.875300       0.079272
     9246.417000       0.081028
     9254.974500       0.082805
     9263.547900       0.084606
     9272.137200       0.086429
     9280.742500       0.088274
     9289.363700       0.090143
     9298.000900       0.092034
     9306.654300       0.093948
     9315.323700       0.095885
     9324.009300       0.097846
     9332.711200       0.099829
     9341.429200       0.101835
     9350.163600       0.103865
     9358.914400       0.105918
     9367.681500       0.107994
     9376.465100       0.110094
     9385.265100       0.112217
     9394.081700       0.114363
     9402.914900       0.116533
     9411.764700       0.118727
     9420.631200       0.120944
     9429.514400       0.123185
     9438.414300       0.125449
     9447.331100       0.127737
     9456.264800       0.130049
     9465.215300       0.132385
     9474.182900       0.134744
     9483.167400       0.137127
     9492.169000       0.139534
     9501.187600       0.141965
     9510.223500       0.144419
     9519.276500       0.146898
     9528.346800       0.149400
     9537.434400       0.151926
     9546.539400       0.154476
     9555.661700       0.157050
     9564.801500       0.159648
     9573.958800       0.162269
     9583.133700       0.164915
     9592.326100       0.167584
     9601.536200       0.170277
     9610.764100       0.172993
     9620.009600       0.175734
     9629.273000       0.178498
     9638.554200       0.181285
     9647.853400       0.184097
     9657.170400       0.186932
     9666.505600       0.189790
     9675.858700       0.192672
     9685.230000       0.195578
     9694.619500       0.198506
     9704.027200       0.201458
     9713.453100       0.204434
     9722.897400       0.207432
     9732.360100       0.210454
     9741.841200       0.213499
     9751.340800       0.216566
     9760.859000       0.219657
     9770.395700       0.222770
     9779.951100       0.225906
     9789.525200       0.229064
     9799.118100       0.232246
     9808.729800       0.235449
     9818.360300       0.238674
     9828.009800       0.241922
     9837.678300       0.245192
     9847.365800       0.248484
     9857.072400       0.251797
     9866.798200       0.255133
     9876.543200       0.258489
     9886.307500       0.261867
     9896.091000       0.265267
     9905.894000       0.268687
     9915.716400       0.272129
     9925.558300       0.275591
     9935.419800       0.279074
     9945.300800       0.282577
     9955.201600       0.286100
     9965.122100       0.289644
     9975.062300       0.293207
     9985.022500       0.296791
     9995.002500       0.300394
    10005.002500       0.304016
    10015.022500       0.307658
    10025.062700       0.311318
    10035.122900       0.314998
    10045.203400       0.318695
    10055.304200       0.322412
    10065.425300       0.326146
    10075.566800       0.329898
    10085.728700       0.333668
    10095.911200       0.337456
    10106.114200       0.341261
    10116.337900       0.345082
    10126.582300       0.348921
    10136.847400       0.352776
    10147.133400       0.356647
    10157.440300       0.360535
    10167.768200       0.364438
    10178.117000       0.368356
    10188.487000       0.372290
    10198.878100       0.376239
    10209.290500       0.380203
    10219.724100       0.384181
    10230.179000       0.388173
    10240.655400       0.392179
    10251.153300       0.396198
    10261.672700       0.400231
    10272.213700       0.404277
    10282.776300       0.408335
    10293.360800       0.412406
    10303.967000       0.416489
    10314.595200       0.420584
    10325.245200       0.424690
    10335.917300       0.428807
    10346.611500       0.432935
    10357.327800       0.437074
    10368.066400       0.441223
    10378.827200       0.445381
    10389.610400       0.449550
    10400.416000       0.453727
    10411.244100       0.457913
    10422.094800       0.462108
    10432.968200       0.466310
    10443.864200       0.470521
    10454.783100       0.474739
    10465.724800       0.478964
    10476.689400       0.483196
    10487.677000       0.487434
    10498.687700       0.491679
    10509.721500       0.495929
    10520.778500       0.500184
    10531.858900       0.504444
    10542.962600       0.508709
    10554.089700       0.512978
    10565.240400       0.517250
    10576.414600       0.521526
    10587.612500       0.525805
    10598.834100       0.530088
    10610.079600       0.534372
    10621.348900       0.538658
    10632.642200       0.542945
    10643.959600       0.547234
    10655.301000       0.551523
    10666.666700       0.555813
    10678.056600       0.560102
    10689.470900       0.564392
    10700.909600       0.568680
    10712.372800       0.572967
    10723.860600       0.577253
    10735.373100       0.581536
    10746.910300       0.585817
    10758.472300       0.590095
    10770.059200       0.594370
    10781.671200       0.598641
    10793.308100       0.602908
    10804.970300       0.607171
    10816.657700       0.611429
    10828.370300       0.615681
    10840.108400       0.619928
    10851.871900       0.624169
    10863.661100       0.628403
    10875.475800       0.632630
    10887.316300       0.636850
    10899.182600       0.641062
    10911.074700       0.645266
    10922.992900       0.649462
    10934.937100       0.653648
    10946.907500       0.657825
    10958.904100       0.661993
    10970.927000       0.666150
    10982.976400       0.670297
    10995.052200       0.674432
    11007.154700       0.678556
    11019.283700       0.682669
    11031.439600       0.686769
    11043.622300       0.690857
    11055.832000       0.694931
    11068.068600       0.698992
    11080.332400       0.703039
    11092.623400       0.707072
    11104.941700       0.711091
    11117.287400       0.715094
    11129.660500       0.719082
    11142.061300       0.723054
    11154.489700       0.727010
    11166.945800       0.730950
    11179.429800       0.734872
    11191.941800       0.738777
    11204.481800       0.742664
    11217.049900       0.746533
    11229.646300       0.750384
    11242.270900       0.754216
    11254.924000       0.758028
    11267.605600       0.761821
    11280.315800       0.765594
    11293.054800       0.769346
    11305.822500       0.773078
    11318.619100       0.776789
    11331.444800       0.780478
    11344.299500       0.784145
    11357.183400       0.787790
    11370.096600       0.791413
    11383.039300       0.795012
    11396.011400       0.798589
    11409.013100       0.802141
    11422.044500       0.805670
    11435.105800       0.809175
    11448.196900       0.812655
    11461.318100       0.816110
    11474.469300       0.819540
    11487.650800       0.822944
    11500.862600       0.826323
    11514.104800       0.829675
    11527.377500       0.833001
    11540.680900       0.836300
    11554.015000       0.839572
    11567.380000       0.842816
    11580.775900       0.846032
    11594.202900       0.849221
    11607.661100       0.852381
    11621.150500       0.855513
    11634.671300       0.858616
    11648.223600       0.861690
    11661.807600       0.864734
    11675.423200       0.867749
    11689.070700       0.870734
    11702.750100       0.873688
    11716.461600       0.876613
    11730.205300       0.879506
    11743.981200       0.882369
    11757.789500       0.885200
    11771.630400       0.888000
    11785.503800       0.890769
    11799.410000       0.893505
    11813.349100       0.896210
    11827.321100       0.898882
    11841.326200       0.901522
    11855.364600       0.904129
    11869.436200       0.906703
    11883.541300       0.909244
    11897.680000       0.911752
    11911.852300       0.914227
    11926.058400       0.916668
    11940.298500       0.919075
    11954.572600       0.921448
    11968.880900       0.923787
    11983.223500       0.926092
    11997.600500       0.928363
    12012.012000       0.930599
    12026.458200       0.932800
    12040.939200       0.934966
    12055.455100       0.937098
    12070.006000       0.939195
    12084.592100       0.941256
    12099.213600       0.943282
    12113.870400       0.945273
    12128.562800       0.947228
    12143.290800       0.949148
    12158.054700       0.951032
    12172.854500       0.952881
    12187.690400       0.954694
    12202.562500       0.956470
    12217.471000       0.958211
    12232.415900       0.959917
    12247.397400       0.961586
    12262.415700       0.963219
    12277.470800       0.964816
    12292.563000       0.966377
    12307.692300       0.967901
    12322.858900       0.969390
    12338.062900       0.970842
    12353.304500       0.972259
    12368.583800       0.973639
    12383.900900       0.974983
    12399.256000       0.976291
    12414.649300       0.977563
    12430.080800       0.978799
    12445.550700       0.979999
    12461.059200       0.981162
    12476.606400       0.982290
    12492.192400       0.983382
    12507.817400       0.984438
    12523.481500       0.985459
    12539.185000       0.986443
    12554.927800       0.987392
    12570.710200       0.988306
    12586.532400       0.989184
    12602.394500       0.990026
    12618.296500       0.990834
    12634.238800       0.991606
    12650.221400       0.992343
    12666.244500       0.993045
    12682.308200       0.993713
    12698.412700       0.994346
    12714.558200       0.994944
    12730.744700       0.995508
    12746.972600       0.996038
    12763.241900       0.996533
    12779.552700       0.996995
    12795.905300       0.997423
    12812.299800       0.997817
    12828.736400       0.998178
    12845.215200       0.998506
    12861.736300       0.998800
    12878.300100       0.999062
    12894.906500       0.999291
    12911.555800       0.999488
    12928.248200       0.999653
    12944.983800       0.999785
    12961.762800       0.999886
    12978.585300       0.999955
    12995.451600       0.999993
    13012.361700       1.000000
    13029.316000       0.999976
    13046.314400       0.999921
    13063.357300       0.999836
    13080.444700       0.999721
    13097.576900       0.999577
    13114.754100       0.999402
    13131.976400       0.999199
    13149.243900       0.998966
    13166.556900       0.998705
    13183.915600       0.998415
    13201.320100       0.998097
    13218.770700       0.997751
    13236.267400       0.997378
    13253.810500       0.996978
    13271.400100       0.996550
    13289.036500       0.996096
    13306.719900       0.995616
    13324.450400       0.995110
    13342.228200       0.994578
    13360.053400       0.994021
    13377.926400       0.993439
    13395.847300       0.992832
    13413.816200       0.992201
    13431.833400       0.991546
    13449.899100       0.990868
    13468.013500       0.990166
    13486.176700       0.989441
    13504.388900       0.988694
    13522.650400       0.987925
    13540.961400       0.987134
    13559.322000       0.986322
    13577.732500       0.985488
    13596.193100       0.984634
    13614.703900       0.983760
    13633.265200       0.982866
    13651.877100       0.981952
    13670.540000       0.981019
    13689.253900       0.980067
    13708.019200       0.979097
    13726.836000       0.978109
    13745.704500       0.977104
    13764.624900       0.976081
    13783.597500       0.975042
    13802.622500       0.973986
    13821.700100       0.972915
    13840.830400       0.971828
    13860.013900       0.970725
    13879.250500       0.969608
    13898.540700       0.968477
    13917.884500       0.967332
    13937.282200       0.966173
    13956.734100       0.965001
    13976.240400       0.963817
    13995.801300       0.962621
    14015.417000       0.961412
    14035.087700       0.960192
    14054.813800       0.958961
    14074.595400       0.957720
    14094.432700       0.956469
    14114.326000       0.955208
    14134.275600       0.953937
    14154.281700       0.952658
    14174.344400       0.951370
    14194.464200       0.950074
    14214.641100       0.948770
    14234.875400       0.947460
    14255.167500       0.946142
    14275.517500       0.944819
    14295.925700       0.943489
    14316.392300       0.942154
    14336.917600       0.940813
    14357.501800       0.939468
    14378.145200       0.938119
    14398.848100       0.936765
    14419.610700       0.935409
    14440.433200       0.934049
    14461.316000       0.932686
    14482.259200       0.931322
    14503.263200       0.929955
    14524.328200       0.928587
    14545.454500       0.927218
    14566.642400       0.925849
    14587.892000       0.924479
    14609.203800       0.923109
    14630.577900       0.921740
    14652.014700       0.920371
    14673.514300       0.919004
    14695.077100       0.917639
    14716.703500       0.916276
    14738.393500       0.914915
    14760.147600       0.913557
    14781.966000       0.912202
    14803.849000       0.910850
    14825.796900       0.909503
    14847.809900       0.908160
    14869.888500       0.906821
    14892.032800       0.905488
    14914.243100       0.904159
    14936.519800       0.902836
    14958.863100       0.901520
    14981.273400       0.900209
    15003.750900       0.898905
    15026.296000       0.897608
    15048.909000       0.896319
    15071.590100       0.895036
    15094.339600       0.893762
    15117.158000       0.892496
    15140.045400       0.891239
    15163.002300       0.889990
    15186.028900       0.888750
    15209.125500       0.887520
    15232.292500       0.886299
    15255.530100       0.885088
    15278.838800       0.883887
    15302.218800       0.882697
    15325.670500       0.881517
    15349.194200       0.880348
    15372.790200       0.879190
    15396.458800       0.878044
    15420.200500       0.876909
    15444.015400       0.875786
    15467.904100       0.874675
    15491.866800       0.873576
    15515.903800       0.872490
    15540.015500       0.871416
    15564.202300       0.870355
    15588.464500       0.869307
    15612.802500       0.868272
    15637.216600       0.867250
    15661.707100       0.866242
    15686.274500       0.865247
    15710.919100       0.864266
    15735.641200       0.863299
    15760.441300       0.862346
    15785.319700       0.861407
    15810.276700       0.860482
    15835.312700       0.859571
    15860.428200       0.858675
    15885.623500       0.857793
    15910.899000       0.856926
    15936.255000       0.856073
    15961.691900       0.855235
    15987.210200       0.854412
    16012.810200       0.853603
    16038.492400       0.852809
    16064.257000       0.852030
    16090.104600       0.851266
    16116.035500       0.850516
    16142.050000       0.849781
    16168.148700       0.849061
    16194.332000       0.848356
    16220.600200       0.847666
    16246.953700       0.846990
    16273.393000       0.846328
    16299.918500       0.845682
    16326.530600       0.845050
    16353.229800       0.844432
    16380.016400       0.843828
    16406.890900       0.843239
    16433.853700       0.842663
    16460.905300       0.842102
    16488.046200       0.841555
    16515.276600       0.841021
    16542.597200       0.840501
    16570.008300       0.839994
    16597.510400       0.839500
    16625.103900       0.839020
    16652.789300       0.838552
    16680.567100       0.838097
    16708.437800       0.837654
    16736.401700       0.837224
    16764.459300       0.836805
    16792.611300       0.836399
    16820.857900       0.836003
    16849.199700       0.835619
    16877.637100       0.835246
    16906.170800       0.834884
    16934.801000       0.834532
    16963.528400       0.834191
    16992.353400       0.833859
    17021.276600       0.833536
    17050.298400       0.833223
    17079.419300       0.832918
    17108.639900       0.832622
    17137.960600       0.832334
    17167.382000       0.832053
    17196.904600       0.831780
    17226.528900       0.831514
    17256.255400       0.831255
    17286.084700       0.831001
