14,   14, MVIRI VIS channel from srf_MET3_1990213_1990214_1801-Release_S10EE_10.dat
Number of data points:
743
Wavenumber (cm-1)   Filter response
     8814.455700       0.000000
     8822.232000       0.000000
     8830.022100       0.000709
     8837.825900       0.002972
     8845.643500       0.005256
     8853.475000       0.007557
     8861.320300       0.009877
     8869.179600       0.012212
     8877.052800       0.014562
     8884.940000       0.016927
     8892.841300       0.019304
     8900.756600       0.021694
     8908.686000       0.024095
     8916.629500       0.026507
     8924.587200       0.028928
     8932.559200       0.031358
     8940.545400       0.033797
     8948.545900       0.036243
     8956.560700       0.038697
     8964.589900       0.041157
     8972.633500       0.043623
     8980.691500       0.046095
     8988.764000       0.048573
     8996.851100       0.051055
     9004.952700       0.053542
     9013.068900       0.056032
     9021.199800       0.058528
     9029.345400       0.061026
     9037.505600       0.063528
     9045.680700       0.066034
     9053.870500       0.068542
     9062.075200       0.071054
     9070.294800       0.073569
     9078.529300       0.076086
     9086.778700       0.078607
     9095.043200       0.081130
     9103.322700       0.083656
     9111.617300       0.086185
     9119.927000       0.088716
     9128.251900       0.091251
     9136.592100       0.093789
     9144.947400       0.096329
     9153.318100       0.098873
     9161.704100       0.101420
     9170.105500       0.103971
     9178.522300       0.106526
     9186.954500       0.109084
     9195.402300       0.111646
     9203.865600       0.114212
     9212.344500       0.116783
     9220.839100       0.119358
     9229.349300       0.121939
     9237.875300       0.124524
     9246.417000       0.127115
     9254.974500       0.129711
     9263.547900       0.132313
     9272.137200       0.134921
     9280.742500       0.137536
     9289.363700       0.140157
     9298.000900       0.142786
     9306.654300       0.145422
     9315.323700       0.148065
     9324.009300       0.150716
     9332.711200       0.153375
     9341.429200       0.156042
     9350.163600       0.158719
     9358.914400       0.161404
     9367.681500       0.164099
     9376.465100       0.166803
     9385.265100       0.169517
     9394.081700       0.172242
     9402.914900       0.174977
     9411.764700       0.177723
     9420.631200       0.180480
     9429.514400       0.183248
     9438.414300       0.186029
     9447.331100       0.188821
     9456.264800       0.191626
     9465.215300       0.194443
     9474.182900       0.197273
     9483.167400       0.200117
     9492.169000       0.202973
     9501.187600       0.205844
     9510.223500       0.208728
     9519.276500       0.211627
     9528.346800       0.214540
     9537.434400       0.217468
     9546.539400       0.220410
     9555.661700       0.223369
     9564.801500       0.226342
     9573.958800       0.229331
     9583.133700       0.232336
     9592.326100       0.235356
     9601.536200       0.238393
     9610.764100       0.241447
     9620.009600       0.244517
     9629.273000       0.247604
     9638.554200       0.250708
     9647.853400       0.253829
     9657.170400       0.256967
     9666.505600       0.260122
     9675.858700       0.263296
     9685.230000       0.266486
     9694.619500       0.269695
     9704.027200       0.272921
     9713.453100       0.276166
     9722.897400       0.279428
     9732.360100       0.282709
     9741.841200       0.286008
     9751.340800       0.289325
     9760.859000       0.292660
     9770.395700       0.296014
     9779.951100       0.299386
     9789.525200       0.302777
     9799.118100       0.306187
     9808.729800       0.309614
     9818.360300       0.313061
     9828.009800       0.316525
     9837.678300       0.320008
     9847.365800       0.323510
     9857.072400       0.327030
     9866.798200       0.330568
     9876.543200       0.334124
     9886.307500       0.337699
     9896.091000       0.341292
     9905.894000       0.344903
     9915.716400       0.348532
     9925.558300       0.352179
     9935.419800       0.355844
     9945.300800       0.359526
     9955.201600       0.363226
     9965.122100       0.366943
     9975.062300       0.370677
     9985.022500       0.374429
     9995.002500       0.378197
    10005.002500       0.381982
    10015.022500       0.385784
    10025.062700       0.389602
    10035.122900       0.393436
    10045.203400       0.397286
    10055.304200       0.401153
    10065.425300       0.405034
    10075.566800       0.408931
    10085.728700       0.412843
    10095.911200       0.416770
    10106.114200       0.420712
    10116.337900       0.424667
    10126.582300       0.428637
    10136.847400       0.432621
    10147.133400       0.436619
    10157.440300       0.440629
    10167.768200       0.444652
    10178.117000       0.448689
    10188.487000       0.452737
    10198.878100       0.456798
    10209.290500       0.460870
    10219.724100       0.464954
    10230.179000       0.469048
    10240.655400       0.473154
    10251.153300       0.477270
    10261.672700       0.481395
    10272.213700       0.485531
    10282.776300       0.489676
    10293.360800       0.493830
    10303.967000       0.497992
    10314.595200       0.502162
    10325.245200       0.506341
    10335.917300       0.510527
    10346.611500       0.514720
    10357.327800       0.518919
    10368.066400       0.523125
    10378.827200       0.527336
    10389.610400       0.531554
    10400.416000       0.535776
    10411.244100       0.540002
    10422.094800       0.544233
    10432.968200       0.548468
    10443.864200       0.552706
    10454.783100       0.556947
    10465.724800       0.561191
    10476.689400       0.565436
    10487.677000       0.569684
    10498.687700       0.573932
    10509.721500       0.578181
    10520.778500       0.582430
    10531.858900       0.586680
    10542.962600       0.590928
    10554.089700       0.595176
    10565.240400       0.599422
    10576.414600       0.603666
    10587.612500       0.607908
    10598.834100       0.612147
    10610.079600       0.616382
    10621.348900       0.620614
    10632.642200       0.624842
    10643.959600       0.629065
    10655.301000       0.633282
    10666.666700       0.637494
    10678.056600       0.641700
    10689.470900       0.645899
    10700.909600       0.650092
    10712.372800       0.654277
    10723.860600       0.658454
    10735.373100       0.662622
    10746.910300       0.666782
    10758.472300       0.670932
    10770.059200       0.675073
    10781.671200       0.679203
    10793.308100       0.683322
    10804.970300       0.687431
    10816.657700       0.691528
    10828.370300       0.695612
    10840.108400       0.699684
    10851.871900       0.703744
    10863.661100       0.707790
    10875.475800       0.711821
    10887.316300       0.715839
    10899.182600       0.719842
    10911.074700       0.723829
    10922.992900       0.727801
    10934.937100       0.731757
    10946.907500       0.735696
    10958.904100       0.739618
    10970.927000       0.743523
    10982.976400       0.747410
    10995.052200       0.751279
    11007.154700       0.755129
    11019.283700       0.758960
    11031.439600       0.762772
    11043.622300       0.766564
    11055.832000       0.770335
    11068.068600       0.774086
    11080.332400       0.777815
    11092.623400       0.781523
    11104.941700       0.785209
    11117.287400       0.788873
    11129.660500       0.792514
    11142.061300       0.796132
    11154.489700       0.799727
    11166.945800       0.803297
    11179.429800       0.806844
    11191.941800       0.810366
    11204.481800       0.813863
    11217.049900       0.817335
    11229.646300       0.820781
    11242.270900       0.824201
    11254.924000       0.827595
    11267.605600       0.830962
    11280.315800       0.834303
    11293.054800       0.837615
    11305.822500       0.840901
    11318.619100       0.844158
    11331.444800       0.847387
    11344.299500       0.850588
    11357.183400       0.853759
    11370.096600       0.856902
    11383.039300       0.860015
    11396.011400       0.863098
    11409.013100       0.866152
    11422.044500       0.869175
    11435.105800       0.872167
    11448.196900       0.875129
    11461.318100       0.878059
    11474.469300       0.880958
    11487.650800       0.883826
    11500.862600       0.886662
    11514.104800       0.889466
    11527.377500       0.892237
    11540.680900       0.894976
    11554.015000       0.897682
    11567.380000       0.900355
    11580.775900       0.902996
    11594.202900       0.905602
    11607.661100       0.908176
    11621.150500       0.910715
    11634.671300       0.913221
    11648.223600       0.915692
    11661.807600       0.918130
    11675.423200       0.920532
    11689.070700       0.922901
    11702.750100       0.925234
    11716.461600       0.927533
    11730.205300       0.929797
    11743.981200       0.932025
    11757.789500       0.934218
    11771.630400       0.936376
    11785.503800       0.938499
    11799.410000       0.940585
    11813.349100       0.942637
    11827.321100       0.944652
    11841.326200       0.946631
    11855.364600       0.948574
    11869.436200       0.950482
    11883.541300       0.952353
    11897.680000       0.954188
    11911.852300       0.955986
    11926.058400       0.957748
    11940.298500       0.959474
    11954.572600       0.961164
    11968.880900       0.962817
    11983.223500       0.964433
    11997.600500       0.966013
    12012.012000       0.967557
    12026.458200       0.969064
    12040.939200       0.970534
    12055.455100       0.971968
    12070.006000       0.973366
    12084.592100       0.974726
    12099.213600       0.976051
    12113.870400       0.977338
    12128.562800       0.978590
    12143.290800       0.979805
    12158.054700       0.980983
    12172.854500       0.982125
    12187.690400       0.983231
    12202.562500       0.984300
    12217.471000       0.985334
    12232.415900       0.986331
    12247.397400       0.987292
    12262.415700       0.988217
    12277.470800       0.989106
    12292.563000       0.989959
    12307.692300       0.990777
    12322.858900       0.991559
    12338.062900       0.992305
    12353.304500       0.993016
    12368.583800       0.993692
    12383.900900       0.994333
    12399.256000       0.994938
    12414.649300       0.995508
    12430.080800       0.996044
    12445.550700       0.996545
    12461.059200       0.997011
    12476.606400       0.997443
    12492.192400       0.997841
    12507.817400       0.998204
    12523.481500       0.998534
    12539.185000       0.998830
    12554.927800       0.999092
    12570.710200       0.999321
    12586.532400       0.999516
    12602.394500       0.999678
    12618.296500       0.999808
    12634.238800       0.999904
    12650.221400       0.999968
    12666.244500       1.000000
    12682.308200       0.999999
    12698.412700       0.999967
    12714.558200       0.999903
    12730.744700       0.999807
    12746.972600       0.999680
    12763.241900       0.999521
    12779.552700       0.999332
    12795.905300       0.999112
    12812.299800       0.998861
    12828.736400       0.998581
    12845.215200       0.998270
    12861.736300       0.997929
    12878.300100       0.997559
    12894.906500       0.997160
    12911.555800       0.996731
    12928.248200       0.996273
    12944.983800       0.995787
    12961.762800       0.995273
    12978.585300       0.994730
    12995.451600       0.994160
    13012.361700       0.993562
    13029.316000       0.992936
    13046.314400       0.992283
    13063.357300       0.991604
    13080.444700       0.990898
    13097.576900       0.990166
    13114.754100       0.989407
    13131.976400       0.988623
    13149.243900       0.987813
    13166.556900       0.986978
    13183.915600       0.986118
    13201.320100       0.985233
    13218.770700       0.984324
    13236.267400       0.983390
    13253.810500       0.982433
    13271.400100       0.981452
    13289.036500       0.980448
    13306.719900       0.979420
    13324.450400       0.978370
    13342.228200       0.977297
    13360.053400       0.976202
    13377.926400       0.975085
    13395.847300       0.973946
    13413.816200       0.972786
    13431.833400       0.971605
    13449.899100       0.970403
    13468.013500       0.969180
    13486.176700       0.967937
    13504.388900       0.966674
    13522.650400       0.965391
    13540.961400       0.964088
    13559.322000       0.962767
    13577.732500       0.961427
    13596.193100       0.960067
    13614.703900       0.958690
    13633.265200       0.957295
    13651.877100       0.955881
    13670.540000       0.954451
    13689.253900       0.953002
    13708.019200       0.951537
    13726.836000       0.950056
    13745.704500       0.948558
    13764.624900       0.947043
    13783.597500       0.945513
    13802.622500       0.943967
    13821.700100       0.942406
    13840.830400       0.940830
    13860.013900       0.939238
    13879.250500       0.937633
    13898.540700       0.936013
    13917.884500       0.934379
    13937.282200       0.932731
    13956.734100       0.931069
    13976.240400       0.929395
    13995.801300       0.927707
    14015.417000       0.926007
    14035.087700       0.924294
    14054.813800       0.922569
    14074.595400       0.920831
    14094.432700       0.919082
    14114.326000       0.917322
    14134.275600       0.915550
    14154.281700       0.913767
    14174.344400       0.911973
    14194.464200       0.910169
    14214.641100       0.908354
    14234.875400       0.906529
    14255.167500       0.904694
    14275.517500       0.902849
    14295.925700       0.900995
    14316.392300       0.899132
    14336.917600       0.897259
    14357.501800       0.895378
    14378.145200       0.893488
    14398.848100       0.891590
    14419.610700       0.889683
    14440.433200       0.887768
    14461.316000       0.885846
    14482.259200       0.883916
    14503.263200       0.881978
    14524.328200       0.880033
    14545.454500       0.878081
    14566.642400       0.876122
    14587.892000       0.874156
    14609.203800       0.872184
    14630.577900       0.870205
    14652.014700       0.868221
    14673.514300       0.866230
    14695.077100       0.864233
    14716.703500       0.862230
    14738.393500       0.860222
    14760.147600       0.858209
    14781.966000       0.856190
    14803.849000       0.854166
    14825.796900       0.852137
    14847.809900       0.850103
    14869.888500       0.848064
    14892.032800       0.846021
    14914.243100       0.843973
    14936.519800       0.841921
    14958.863100       0.839865
    14981.273400       0.837804
    15003.750900       0.835740
    15026.296000       0.833672
    15048.909000       0.831599
    15071.590100       0.829524
    15094.339600       0.827444
    15117.158000       0.825361
    15140.045400       0.823275
    15163.002300       0.821185
    15186.028900       0.819092
    15209.125500       0.816996
    15232.292500       0.814897
    15255.530100       0.812795
    15278.838800       0.810690
    15302.218800       0.808582
    15325.670500       0.806471
    15349.194200       0.804358
    15372.790200       0.802241
    15396.458800       0.800123
    15420.200500       0.798001
    15444.015400       0.795877
    15467.904100       0.793751
    15491.866800       0.791622
    15515.903800       0.789490
    15540.015500       0.787356
    15564.202300       0.785220
    15588.464500       0.783082
    15612.802500       0.780941
    15637.216600       0.778798
    15661.707100       0.776652
    15686.274500       0.774504
    15710.919100       0.772354
    15735.641200       0.770202
    15760.441300       0.768047
    15785.319700       0.765890
    15810.276700       0.763731
    15835.312700       0.761570
    15860.428200       0.759406
    15885.623500       0.757240
    15910.899000       0.755072
    15936.255000       0.752901
    15961.691900       0.750728
    15987.210200       0.748552
    16012.810200       0.746374
    16038.492400       0.744194
    16064.257000       0.742011
    16090.104600       0.739826
    16116.035500       0.737638
    16142.050000       0.735447
    16168.148700       0.733254
    16194.332000       0.731058
    16220.600200       0.728860
    16246.953700       0.726658
    16273.393000       0.724454
    16299.918500       0.722247
    16326.530600       0.720037
    16353.229800       0.717824
    16380.016400       0.715607
    16406.890900       0.713388
    16433.853700       0.711166
    16460.905300       0.708940
    16488.046200       0.706711
    16515.276600       0.704478
    16542.597200       0.702242
    16570.008300       0.700002
    16597.510400       0.697759
    16625.103900       0.695512
    16652.789300       0.693261
    16680.567100       0.691007
    16708.437800       0.688748
    16736.401700       0.686485
    16764.459300       0.684218
    16792.611300       0.681947
    16820.857900       0.679672
    16849.199700       0.677392
    16877.637100       0.675108
    16906.170800       0.672819
    16934.801000       0.670526
    16963.528400       0.668227
    16992.353400       0.665924
    17021.276600       0.663616
    17050.298400       0.661303
    17079.419300       0.658985
    17108.639900       0.656662
    17137.960600       0.654333
    17167.382000       0.651999
    17196.904600       0.649659
    17226.528900       0.647314
    17256.255400       0.644963
    17286.084700       0.642606
    17316.017300       0.640243
    17346.053800       0.637875
    17376.194600       0.635500
    17406.440400       0.633119
    17436.791600       0.630732
    17467.248900       0.628339
    17497.812800       0.625939
    17528.483800       0.623532
    17559.262500       0.621119
    17590.149500       0.618699
    17621.145400       0.616273
    17652.250700       0.613839
    17683.466000       0.611399
    17714.791900       0.608951
    17746.228900       0.606497
    17777.777800       0.604035
    17809.439000       0.601566
    17841.213200       0.599089
    17873.101000       0.596605
    17905.103000       0.594113
    17937.219700       0.591614
    17969.451900       0.589107
    18001.800200       0.586592
    18034.265100       0.584070
    18066.847300       0.581539
    18099.547500       0.579001
    18132.366300       0.576455
    18165.304300       0.573900
    18198.362100       0.571338
    18231.540600       0.568767
    18264.840200       0.566188
    18298.261700       0.563600
    18331.805700       0.561004
    18365.472900       0.558400
    18399.264000       0.555788
    18433.179700       0.553167
    18467.220700       0.550537
    18501.387600       0.547899
    18535.681200       0.545252
    18570.102100       0.542597
    18604.651200       0.539933
    18639.329000       0.537260
    18674.136300       0.534579
    18709.073900       0.531889
    18744.142500       0.529190
    18779.342700       0.526483
    18814.675400       0.523767
    18850.141400       0.521042
    18885.741300       0.518309
    18921.475900       0.515567
    18957.346000       0.512816
    18993.352300       0.510056
    19029.495700       0.507288
    19065.776900       0.504511
    19102.196800       0.501726
    19138.756000       0.498932
    19175.455400       0.496129
    19212.295900       0.493318
    19249.278200       0.490499
    19286.403100       0.487671
    19323.671500       0.484834
    19361.084200       0.481990
    19398.642100       0.479137
