12,   channel 12 SRF from file SRF_SSH-1_Delivery_220520/SRF_DMSP-F2_SSH_Chan12.asc received June 2022 from SPASCIA
Number of data points:
248
Wavenumber (cm-1)   Filter response
      694.900000       0.000970
      695.000000       0.001080
      695.100000       0.001210
      695.200000       0.001350
      695.300000       0.001510
      695.400000       0.001680
      695.500000       0.001870
      695.600000       0.002080
      695.700000       0.002310
      695.800000       0.002570
      695.900000       0.002850
      696.000000       0.003150
      696.100000       0.003490
      696.200000       0.003860
      696.300000       0.004270
      696.400000       0.004720
      696.500000       0.005200
      696.600000       0.005730
      696.700000       0.006310
      696.800000       0.006950
      696.900000       0.007640
      697.000000       0.008380
      697.100000       0.009200
      697.200000       0.010080
      697.300000       0.011040
      697.400000       0.012080
      697.500000       0.013210
      697.600000       0.014430
      697.700000       0.015750
      697.800000       0.017170
      697.900000       0.018700
      698.000000       0.020350
      698.100000       0.022120
      698.200000       0.024030
      698.300000       0.026080
      698.400000       0.028280
      698.500000       0.030640
      698.600000       0.033160
      698.700000       0.035860
      698.800000       0.038740
      698.900000       0.041820
      699.000000       0.045100
      699.100000       0.048590
      699.200000       0.052300
      699.300000       0.056250
      699.400000       0.060440
      699.500000       0.064890
      699.600000       0.069590
      699.700000       0.074570
      699.800000       0.079840
      699.900000       0.085400
      700.000000       0.091260
      700.100000       0.097440
      700.200000       0.108020
      700.300000       0.121880
      700.400000       0.136360
      700.500000       0.151450
      700.600000       0.167150
      700.700000       0.183450
      700.800000       0.200320
      700.900000       0.217750
      701.000000       0.235730
      701.100000       0.254230
      701.200000       0.273230
      701.300000       0.292700
      701.400000       0.312600
      701.500000       0.332920
      701.600000       0.353610
      701.700000       0.374630
      701.800000       0.395960
      701.900000       0.417540
      702.000000       0.439330
      702.100000       0.461300
      702.200000       0.483380
      702.300000       0.503480
      702.400000       0.517460
      702.500000       0.531530
      702.600000       0.545690
      702.700000       0.559900
      702.800000       0.574170
      702.900000       0.588470
      703.000000       0.602790
      703.100000       0.617110
      703.200000       0.631420
      703.300000       0.645710
      703.400000       0.659950
      703.500000       0.674120
      703.600000       0.688220
      703.700000       0.702220
      703.800000       0.716110
      703.900000       0.729860
      704.000000       0.743460
      704.100000       0.756900
      704.200000       0.770140
      704.300000       0.783180
      704.400000       0.796000
      704.500000       0.808580
      704.600000       0.820900
      704.700000       0.832940
      704.800000       0.844680
      704.900000       0.856110
      705.000000       0.867220
      705.100000       0.877970
      705.200000       0.888370
      705.300000       0.898390
      705.400000       0.908010
      705.500000       0.917230
      705.600000       0.926020
      705.700000       0.934370
      705.800000       0.942280
      705.900000       0.949720
      706.000000       0.956680
      706.100000       0.963160
      706.200000       0.969150
      706.300000       0.974620
      706.400000       0.979580
      706.500000       0.984020
      706.600000       0.987920
      706.700000       0.991290
      706.800000       0.994120
      706.900000       0.996390
      707.000000       0.998120
      707.100000       0.999290
      707.200000       0.999900
      707.300000       0.999960
      707.400000       0.999450
      707.500000       0.998390
      707.600000       0.996780
      707.700000       0.994610
      707.800000       0.991900
      707.900000       0.988640
      708.000000       0.984840
      708.100000       0.980510
      708.200000       0.975650
      708.300000       0.970280
      708.400000       0.964400
      708.500000       0.958020
      708.600000       0.951150
      708.700000       0.943800
      708.800000       0.935990
      708.900000       0.927720
      709.000000       0.919020
      709.100000       0.909890
      709.200000       0.900340
      709.300000       0.890400
      709.400000       0.880080
      709.500000       0.869400
      709.600000       0.858360
      709.700000       0.846990
      709.800000       0.835310
      709.900000       0.823330
      710.000000       0.811060
      710.100000       0.798540
      710.200000       0.785770
      710.300000       0.772770
      710.400000       0.759560
      710.500000       0.746160
      710.600000       0.732590
      710.700000       0.718870
      710.800000       0.705010
      710.900000       0.691030
      711.000000       0.676950
      711.100000       0.662790
      711.200000       0.648560
      711.300000       0.634280
      711.400000       0.619980
      711.500000       0.605650
      711.600000       0.591330
      711.700000       0.577020
      711.800000       0.562750
      711.900000       0.548520
      712.000000       0.534360
      712.100000       0.520270
      712.200000       0.506270
      712.300000       0.487810
      712.400000       0.465710
      712.500000       0.443710
      712.600000       0.421880
      712.700000       0.400260
      712.800000       0.378880
      712.900000       0.357790
      713.000000       0.337030
      713.100000       0.316640
      713.200000       0.296640
      713.300000       0.277090
      713.400000       0.257990
      713.500000       0.239390
      713.600000       0.221310
      713.700000       0.203760
      713.800000       0.186780
      713.900000       0.170370
      714.000000       0.154550
      714.100000       0.139330
      714.200000       0.124720
      714.300000       0.110740
      714.400000       0.098710
      714.500000       0.092470
      714.600000       0.086550
      714.700000       0.080930
      714.800000       0.075600
      714.900000       0.070570
      715.000000       0.065810
      715.100000       0.061310
      715.200000       0.057070
      715.300000       0.053070
      715.400000       0.049310
      715.500000       0.045780
      715.600000       0.042460
      715.700000       0.039340
      715.800000       0.036420
      715.900000       0.033690
      716.000000       0.031130
      716.100000       0.028740
      716.200000       0.026510
      716.300000       0.024430
      716.400000       0.022500
      716.500000       0.020690
      716.600000       0.019020
      716.700000       0.017460
      716.800000       0.016020
      716.900000       0.014680
      717.000000       0.013450
      717.100000       0.012300
      717.200000       0.011250
      717.300000       0.010270
      717.400000       0.009370
      717.500000       0.008540
      717.600000       0.007780
      717.700000       0.007080
      717.800000       0.006440
      717.900000       0.005850
      718.000000       0.005300
      718.100000       0.004810
      718.200000       0.004360
      718.300000       0.003940
      718.400000       0.003560
      718.500000       0.003220
      718.600000       0.002910
      718.700000       0.002620
      718.800000       0.002360
      718.900000       0.002120
      719.000000       0.001910
      719.100000       0.001720
      719.200000       0.001540
      719.300000       0.001380
      719.400000       0.001240
      719.500000       0.001110
      719.600000       0.000990
