22,   22, MVIRI VIS channel from srf_MET2_1984303_1984304_1801-Release_S10EL_10.dat
Number of data points:
730
Wavenumber (cm-1)   Filter response
     8916.629500       0.000000
     8924.587200       0.000000
     8932.559200       0.000002
     8940.545400       0.000011
     8948.545900       0.000032
     8956.560700       0.000068
     8964.589900       0.000125
     8972.633500       0.000206
     8980.691500       0.000316
     8988.764000       0.000458
     8996.851100       0.000635
     9004.952700       0.000852
     9013.068900       0.001111
     9021.199800       0.001416
     9029.345400       0.001770
     9037.505600       0.002176
     9045.680700       0.002636
     9053.870500       0.003153
     9062.075200       0.003730
     9070.294800       0.004368
     9078.529300       0.005070
     9086.778700       0.005839
     9095.043200       0.006676
     9103.322700       0.007582
     9111.617300       0.008561
     9119.927000       0.009613
     9128.251900       0.010739
     9136.592100       0.011942
     9144.947400       0.013222
     9153.318100       0.014581
     9161.704100       0.016020
     9170.105500       0.017540
     9178.522300       0.019141
     9186.954500       0.020825
     9195.402300       0.022593
     9203.865600       0.024443
     9212.344500       0.026379
     9220.839100       0.028400
     9229.349300       0.030506
     9237.875300       0.032697
     9246.417000       0.034974
     9254.974500       0.037338
     9263.547900       0.039788
     9272.137200       0.042323
     9280.742500       0.044945
     9289.363700       0.047653
     9298.000900       0.050447
     9306.654300       0.053327
     9315.323700       0.056291
     9324.009300       0.059341
     9332.711200       0.062476
     9341.429200       0.065694
     9350.163600       0.068996
     9358.914400       0.072381
     9367.681500       0.075849
     9376.465100       0.079399
     9385.265100       0.083029
     9394.081700       0.086740
     9402.914900       0.090531
     9411.764700       0.094401
     9420.631200       0.098349
     9429.514400       0.102373
     9438.414300       0.106474
     9447.331100       0.110650
     9456.264800       0.114900
     9465.215300       0.119223
     9474.182900       0.123619
     9483.167400       0.128085
     9492.169000       0.132622
     9501.187600       0.137227
     9510.223500       0.141900
     9519.276500       0.146639
     9528.346800       0.151444
     9537.434400       0.156313
     9546.539400       0.161245
     9555.661700       0.166238
     9564.801500       0.171291
     9573.958800       0.176404
     9583.133700       0.181574
     9592.326100       0.186801
     9601.536200       0.192083
     9610.764100       0.197417
     9620.009600       0.202805
     9629.273000       0.208244
     9638.554200       0.213732
     9647.853400       0.219269
     9657.170400       0.224851
     9666.505600       0.230480
     9675.858700       0.236153
     9685.230000       0.241868
     9694.619500       0.247625
     9704.027200       0.253421
     9713.453100       0.259256
     9722.897400       0.265128
     9732.360100       0.271035
     9741.841200       0.276976
     9751.340800       0.282950
     9760.859000       0.288956
     9770.395700       0.294991
     9779.951100       0.301055
     9789.525200       0.307146
     9799.118100       0.313262
     9808.729800       0.319403
     9818.360300       0.325567
     9828.009800       0.331751
     9837.678300       0.337956
     9847.365800       0.344181
     9857.072400       0.350421
     9866.798200       0.356679
     9876.543200       0.362950
     9886.307500       0.369235
     9896.091000       0.375532
     9905.894000       0.381839
     9915.716400       0.388156
     9925.558300       0.394481
     9935.419800       0.400812
     9945.300800       0.407149
     9955.201600       0.413490
     9965.122100       0.419833
     9975.062300       0.426178
     9985.022500       0.432524
     9995.002500       0.438869
    10005.002500       0.445211
    10015.022500       0.451550
    10025.062700       0.457885
    10035.122900       0.464213
    10045.203400       0.470535
    10055.304200       0.476850
    10065.425300       0.483154
    10075.566800       0.489449
    10085.728700       0.495732
    10095.911200       0.502003
    10106.114200       0.508260
    10116.337900       0.514502
    10126.582300       0.520729
    10136.847400       0.526938
    10147.133400       0.533131
    10157.440300       0.539304
    10167.768200       0.545458
    10178.117000       0.551591
    10188.487000       0.557702
    10198.878100       0.563791
    10209.290500       0.569857
    10219.724100       0.575897
    10230.179000       0.581913
    10240.655400       0.587903
    10251.153300       0.593865
    10261.672700       0.599799
    10272.213700       0.605705
    10282.776300       0.611581
    10293.360800       0.617427
    10303.967000       0.623241
    10314.595200       0.629024
    10325.245200       0.634774
    10335.917300       0.640491
    10346.611500       0.646174
    10357.327800       0.651822
    10368.066400       0.657435
    10378.827200       0.663011
    10389.610400       0.668552
    10400.416000       0.674054
    10411.244100       0.679519
    10422.094800       0.684945
    10432.968200       0.690331
    10443.864200       0.695679
    10454.783100       0.700986
    10465.724800       0.706252
    10476.689400       0.711477
    10487.677000       0.716660
    10498.687700       0.721801
    10509.721500       0.726899
    10520.778500       0.731953
    10531.858900       0.736964
    10542.962600       0.741932
    10554.089700       0.746854
    10565.240400       0.751732
    10576.414600       0.756564
    10587.612500       0.761351
    10598.834100       0.766092
    10610.079600       0.770787
    10621.348900       0.775435
    10632.642200       0.780036
    10643.959600       0.784590
    10655.301000       0.789096
    10666.666700       0.793555
    10678.056600       0.797966
    10689.470900       0.802328
    10700.909600       0.806642
    10712.372800       0.810907
    10723.860600       0.815124
    10735.373100       0.819291
    10746.910300       0.823410
    10758.472300       0.827479
    10770.059200       0.831498
    10781.671200       0.835468
    10793.308100       0.839387
    10804.970300       0.843258
    10816.657700       0.847078
    10828.370300       0.850848
    10840.108400       0.854568
    10851.871900       0.858238
    10863.661100       0.861858
    10875.475800       0.865427
    10887.316300       0.868946
    10899.182600       0.872415
    10911.074700       0.875833
    10922.992900       0.879202
    10934.937100       0.882520
    10946.907500       0.885787
    10958.904100       0.889005
    10970.927000       0.892172
    10982.976400       0.895289
    10995.052200       0.898356
    11007.154700       0.901373
    11019.283700       0.904340
    11031.439600       0.907258
    11043.622300       0.910126
    11055.832000       0.912944
    11068.068600       0.915712
    11080.332400       0.918432
    11092.623400       0.921101
    11104.941700       0.923722
    11117.287400       0.926294
    11129.660500       0.928817
    11142.061300       0.931292
    11154.489700       0.933718
    11166.945800       0.936096
    11179.429800       0.938426
    11191.941800       0.940708
    11204.481800       0.942942
    11217.049900       0.945128
    11229.646300       0.947268
    11242.270900       0.949360
    11254.924000       0.951405
    11267.605600       0.953404
    11280.315800       0.955356
    11293.054800       0.957263
    11305.822500       0.959123
    11318.619100       0.960938
    11331.444800       0.962707
    11344.299500       0.964431
    11357.183400       0.966110
    11370.096600       0.967744
    11383.039300       0.969334
    11396.011400       0.970880
    11409.013100       0.972382
    11422.044500       0.973841
    11435.105800       0.975256
    11448.196900       0.976628
    11461.318100       0.977958
    11474.469300       0.979245
    11487.650800       0.980490
    11500.862600       0.981694
    11514.104800       0.982855
    11527.377500       0.983976
    11540.680900       0.985056
    11554.015000       0.986095
    11567.380000       0.987093
    11580.775900       0.988052
    11594.202900       0.988971
    11607.661100       0.989851
    11621.150500       0.990692
    11634.671300       0.991494
    11648.223600       0.992258
    11661.807600       0.992983
    11675.423200       0.993671
    11689.070700       0.994322
    11702.750100       0.994935
    11716.461600       0.995512
    11730.205300       0.996052
    11743.981200       0.996556
    11757.789500       0.997024
    11771.630400       0.997457
    11785.503800       0.997854
    11799.410000       0.998217
    11813.349100       0.998545
    11827.321100       0.998839
    11841.326200       0.999099
    11855.364600       0.999326
    11869.436200       0.999519
    11883.541300       0.999680
    11897.680000       0.999808
    11911.852300       0.999903
    11926.058400       0.999967
    11940.298500       0.999999
    11954.572600       1.000000
    11968.880900       0.999970
    11983.223500       0.999909
    11997.600500       0.999818
    12012.012000       0.999697
    12026.458200       0.999546
    12040.939200       0.999365
    12055.455100       0.999156
    12070.006000       0.998918
    12084.592100       0.998651
    12099.213600       0.998356
    12113.870400       0.998033
    12128.562800       0.997683
    12143.290800       0.997305
    12158.054700       0.996900
    12172.854500       0.996469
    12187.690400       0.996011
    12202.562500       0.995527
    12217.471000       0.995017
    12232.415900       0.994481
    12247.397400       0.993921
    12262.415700       0.993335
    12277.470800       0.992725
    12292.563000       0.992090
    12307.692300       0.991431
    12322.858900       0.990748
    12338.062900       0.990041
    12353.304500       0.989311
    12368.583800       0.988558
    12383.900900       0.987782
    12399.256000       0.986983
    12414.649300       0.986162
    12430.080800       0.985319
    12445.550700       0.984454
    12461.059200       0.983567
    12476.606400       0.982659
    12492.192400       0.981730
    12507.817400       0.980780
    12523.481500       0.979809
    12539.185000       0.978818
    12554.927800       0.977806
    12570.710200       0.976775
    12586.532400       0.975724
    12602.394500       0.974653
    12618.296500       0.973563
    12634.238800       0.972454
    12650.221400       0.971325
    12666.244500       0.970179
    12682.308200       0.969013
    12698.412700       0.967829
    12714.558200       0.966628
    12730.744700       0.965408
    12746.972600       0.964170
    12763.241900       0.962915
    12779.552700       0.961643
    12795.905300       0.960353
    12812.299800       0.959047
    12828.736400       0.957723
    12845.215200       0.956383
    12861.736300       0.955026
    12878.300100       0.953654
    12894.906500       0.952264
    12911.555800       0.950859
    12928.248200       0.949439
    12944.983800       0.948002
    12961.762800       0.946550
    12978.585300       0.945082
    12995.451600       0.943600
    13012.361700       0.942102
    13029.316000       0.940589
    13046.314400       0.939062
    13063.357300       0.937520
    13080.444700       0.935963
    13097.576900       0.934392
    13114.754100       0.932806
    13131.976400       0.931207
    13149.243900       0.929594
    13166.556900       0.927966
    13183.915600       0.926325
    13201.320100       0.924670
    13218.770700       0.923002
    13236.267400       0.921320
    13253.810500       0.919625
    13271.400100       0.917917
    13289.036500       0.916196
    13306.719900       0.914461
    13324.450400       0.912714
    13342.228200       0.910954
    13360.053400       0.909181
    13377.926400       0.907396
    13395.847300       0.905598
    13413.816200       0.903788
    13431.833400       0.901965
    13449.899100       0.900131
    13468.013500       0.898284
    13486.176700       0.896425
    13504.388900       0.894554
    13522.650400       0.892671
    13540.961400       0.890777
    13559.322000       0.888870
    13577.732500       0.886952
    13596.193100       0.885023
    13614.703900       0.883082
    13633.265200       0.881129
    13651.877100       0.879166
    13670.540000       0.877191
    13689.253900       0.875204
    13708.019200       0.873207
    13726.836000       0.871198
    13745.704500       0.869179
    13764.624900       0.867149
    13783.597500       0.865107
    13802.622500       0.863055
    13821.700100       0.860993
    13840.830400       0.858919
    13860.013900       0.856835
    13879.250500       0.854741
    13898.540700       0.852635
    13917.884500       0.850520
    13937.282200       0.848394
    13956.734100       0.846258
    13976.240400       0.844112
    13995.801300       0.841955
    14015.417000       0.839788
    14035.087700       0.837611
    14054.813800       0.835425
    14074.595400       0.833228
    14094.432700       0.831021
    14114.326000       0.828805
    14134.275600       0.826579
    14154.281700       0.824343
    14174.344400       0.822097
    14194.464200       0.819842
    14214.641100       0.817577
    14234.875400       0.815303
    14255.167500       0.813019
    14275.517500       0.810726
    14295.925700       0.808424
    14316.392300       0.806112
    14336.917600       0.803791
    14357.501800       0.801461
    14378.145200       0.799122
    14398.848100       0.796774
    14419.610700       0.794417
    14440.433200       0.792051
    14461.316000       0.789677
    14482.259200       0.787293
    14503.263200       0.784901
    14524.328200       0.782500
    14545.454500       0.780091
    14566.642400       0.777673
    14587.892000       0.775247
    14609.203800       0.772812
    14630.577900       0.770370
    14652.014700       0.767919
    14673.514300       0.765459
    14695.077100       0.762992
    14716.703500       0.760517
    14738.393500       0.758033
    14760.147600       0.755542
    14781.966000       0.753044
    14803.849000       0.750537
    14825.796900       0.748023
    14847.809900       0.745501
    14869.888500       0.742972
    14892.032800       0.740435
    14914.243100       0.737891
    14936.519800       0.735340
    14958.863100       0.732782
    14981.273400       0.730217
    15003.750900       0.727645
    15026.296000       0.725066
    15048.909000       0.722480
    15071.590100       0.719888
    15094.339600       0.717288
    15117.158000       0.714683
    15140.045400       0.712071
    15163.002300       0.709453
    15186.028900       0.706828
    15209.125500       0.704198
    15232.292500       0.701561
    15255.530100       0.698919
    15278.838800       0.696271
    15302.218800       0.693617
    15325.670500       0.690957
    15349.194200       0.688292
    15372.790200       0.685622
    15396.458800       0.682946
    15420.200500       0.680266
    15444.015400       0.677580
    15467.904100       0.674889
    15491.866800       0.672194
    15515.903800       0.669494
    15540.015500       0.666789
    15564.202300       0.664080
    15588.464500       0.661367
    15612.802500       0.658649
    15637.216600       0.655928
    15661.707100       0.653202
    15686.274500       0.650473
    15710.919100       0.647740
    15735.641200       0.645003
    15760.441300       0.642263
    15785.319700       0.639520
    15810.276700       0.636773
    15835.312700       0.634024
    15860.428200       0.631271
    15885.623500       0.628516
    15910.899000       0.625758
    15936.255000       0.622998
    15961.691900       0.620235
    15987.210200       0.617470
    16012.810200       0.614703
    16038.492400       0.611934
    16064.257000       0.609164
    16090.104600       0.606391
    16116.035500       0.603618
    16142.050000       0.600842
    16168.148700       0.598066
    16194.332000       0.595288
    16220.600200       0.592510
    16246.953700       0.589731
    16273.393000       0.586951
    16299.918500       0.584171
    16326.530600       0.581390
    16353.229800       0.578609
    16380.016400       0.575828
    16406.890900       0.573047
    16433.853700       0.570267
    16460.905300       0.567487
    16488.046200       0.564707
    16515.276600       0.561928
    16542.597200       0.559150
    16570.008300       0.556373
    16597.510400       0.553597
    16625.103900       0.550823
    16652.789300       0.548050
    16680.567100       0.545278
    16708.437800       0.542508
    16736.401700       0.539740
    16764.459300       0.536974
    16792.611300       0.534210
    16820.857900       0.531449
    16849.199700       0.528690
    16877.637100       0.525934
    16906.170800       0.523180
    16934.801000       0.520429
    16963.528400       0.517682
    16992.353400       0.514937
    17021.276600       0.512196
    17050.298400       0.509458
    17079.419300       0.506724
    17108.639900       0.503994
    17137.960600       0.501267
    17167.382000       0.498545
    17196.904600       0.495826
    17226.528900       0.493112
    17256.255400       0.490402
    17286.084700       0.487697
    17316.017300       0.484997
    17346.053800       0.482301
    17376.194600       0.479610
    17406.440400       0.476924
    17436.791600       0.474243
    17467.248900       0.471568
    17497.812800       0.468898
    17528.483800       0.466233
    17559.262500       0.463574
    17590.149500       0.460920
    17621.145400       0.458273
    17652.250700       0.455631
    17683.466000       0.452996
    17714.791900       0.450366
    17746.228900       0.447743
    17777.777800       0.445126
    17809.439000       0.442515
    17841.213200       0.439911
    17873.101000       0.437313
    17905.103000       0.434722
    17937.219700       0.432138
    17969.451900       0.429560
    18001.800200       0.426990
    18034.265100       0.424426
    18066.847300       0.421869
    18099.547500       0.419320
    18132.366300       0.416777
    18165.304300       0.414242
    18198.362100       0.411714
    18231.540600       0.409193
    18264.840200       0.406680
    18298.261700       0.404174
    18331.805700       0.401675
    18365.472900       0.399184
    18399.264000       0.396700
    18433.179700       0.394224
    18467.220700       0.391755
    18501.387600       0.389294
    18535.681200       0.386840
    18570.102100       0.384394
    18604.651200       0.381955
    18639.329000       0.379524
    18674.136300       0.377101
    18709.073900       0.374685
    18744.142500       0.372277
    18779.342700       0.369876
    18814.675400       0.367483
    18850.141400       0.365097
    18885.741300       0.362719
    18921.475900       0.360348
    18957.346000       0.357985
    18993.352300       0.355629
    19029.495700       0.353280
    19065.776900       0.350939
    19102.196800       0.348605
    19138.756000       0.346278
    19175.455400       0.343958
    19212.295900       0.341645
    19249.278200       0.339339
    19286.403100       0.337039
    19323.671500       0.334747
    19361.084200       0.332462
    19398.642100       0.330183
    19436.346000       0.327910
    19474.196700       0.325644
    19512.195100       0.323384
    19550.342100       0.321130
    19588.638600       0.318883
    19627.085400       0.316641
    19665.683400       0.314406
    19704.433500       0.312176
    19743.336600       0.309951
    19782.393700       0.307732
    19821.605600       0.305518
    19860.973200       0.303310
    19900.497500       0.301106
