6,   SBG channel 6 from srf_082024.csv
Number of data points:
871
Wavenumber (cm-1)   Filter response
      929.973000       0.000486
      930.059500       0.000493
      930.146000       0.000500
      930.232500       0.000508
      930.319200       0.000515
      930.405600       0.000523
      930.492200       0.000531
      930.578800       0.000539
      930.665400       0.000547
      930.752000       0.000555
      930.838700       0.000563
      930.925400       0.000572
      931.012000       0.000580
      931.098700       0.000589
      931.185400       0.000598
      931.272100       0.000607
      931.358800       0.000617
      931.445600       0.000626
      931.532400       0.000636
      931.619100       0.000646
      931.706000       0.000656
      931.792700       0.000666
      931.879600       0.000676
      931.966500       0.000686
      932.053300       0.000697
      932.140200       0.000708
      932.227100       0.000719
      932.314000       0.000730
      932.400900       0.000742
      932.487900       0.000754
      932.574900       0.000766
      932.661800       0.000778
      932.748800       0.000790
      932.835800       0.000802
      932.922900       0.000815
      933.009800       0.000828
      933.096900       0.000842
      933.184100       0.000855
      933.271100       0.000869
      933.358200       0.000883
      933.445300       0.000897
      933.532500       0.000912
      933.619600       0.000926
      933.706800       0.000942
      933.794100       0.000957
      933.881200       0.000973
      933.968400       0.000989
      934.055700       0.001005
      934.142900       0.001021
      934.230200       0.001038
      934.317500       0.001055
      934.404800       0.001073
      934.492100       0.001091
      934.579500       0.001109
      934.666700       0.001128
      934.754200       0.001146
      934.841600       0.001166
      934.929000       0.001185
      935.016400       0.001205
      935.103800       0.001226
      935.191300       0.001246
      935.278700       0.001268
      935.366200       0.001289
      935.453700       0.001311
      935.541200       0.001334
      935.628800       0.001357
      935.716200       0.001380
      935.803900       0.001404
      935.891400       0.001428
      935.979000       0.001453
      936.066700       0.001478
      936.154200       0.001504
      936.241900       0.001530
      936.329600       0.001557
      936.417300       0.001584
      936.504900       0.001612
      936.592700       0.001641
      936.680400       0.001670
      936.768100       0.001700
      936.856000       0.001730
      936.943700       0.001761
      937.031500       0.001792
      937.119300       0.001824
      937.207100       0.001857
      937.295000       0.001891
      937.382800       0.001925
      937.470700       0.001960
      937.558600       0.001995
      937.646500       0.002032
      937.734500       0.002069
      937.822400       0.002107
      937.910300       0.002146
      937.998300       0.002185
      938.086300       0.002226
      938.174300       0.002267
      938.262300       0.002309
      938.350400       0.002352
      938.438400       0.002396
      938.526600       0.002441
      938.614600       0.002487
      938.702700       0.002534
      938.790800       0.002582
      938.879000       0.002631
      938.967200       0.002681
      939.055300       0.002732
      939.143500       0.002784
      939.231700       0.002838
      939.319900       0.002892
      939.408100       0.002948
      939.496400       0.003005
      939.584700       0.003064
      939.673000       0.003123
      939.761300       0.003184
      939.849600       0.003247
      939.938000       0.003311
      940.026400       0.003376
      940.114700       0.003443
      940.203100       0.003511
      940.291400       0.003581
      940.379900       0.003653
      940.468300       0.003726
      940.556800       0.003801
      940.645300       0.003877
      940.733800       0.003955
      940.822300       0.004036
      940.910800       0.004118
      940.999300       0.004202
      941.087900       0.004288
      941.176500       0.004376
      941.265100       0.004466
      941.353600       0.004559
      941.442300       0.004653
      941.530900       0.004750
      941.619600       0.004850
      941.708200       0.004951
      941.796900       0.005055
      941.885700       0.005162
      941.974400       0.005271
      942.063100       0.005383
      942.151900       0.005498
      942.240700       0.005616
      942.329400       0.005736
      942.418200       0.005860
      942.507100       0.005986
      942.595900       0.006116
      942.684800       0.006249
      942.773600       0.006386
      942.862500       0.006526
      942.951500       0.006669
      943.040300       0.006816
      943.129300       0.006967
      943.218300       0.007122
      943.307300       0.007281
      943.396200       0.007444
      943.485200       0.007611
      943.574300       0.007783
      943.663300       0.007959
      943.752400       0.008139
      943.841400       0.008325
      943.930500       0.008515
      944.019600       0.008711
      944.108800       0.008912
      944.197900       0.009118
      944.287000       0.009329
      944.376300       0.009547
      944.465400       0.009770
      944.554600       0.009999
      944.643900       0.010235
      944.733100       0.010477
      944.822400       0.010725
      944.911600       0.010981
      945.001000       0.011243
      945.090200       0.011513
      945.179600       0.011791
      945.268900       0.012076
      945.358300       0.012369
      945.447700       0.012670
      945.537000       0.012980
      945.626500       0.013299
      945.715900       0.013627
      945.805400       0.013964
      945.894800       0.014311
      945.984300       0.014667
      946.073800       0.015035
      946.163300       0.015412
      946.252900       0.015801
      946.342300       0.016201
      946.431900       0.016613
      946.521500       0.017037
      946.611100       0.017473
      946.700700       0.017922
      946.790300       0.018385
      946.880100       0.018861
      946.969700       0.019352
      947.059400       0.019857
      947.149100       0.020377
      947.238800       0.020914
      947.328600       0.021466
      947.418300       0.022035
      947.508100       0.022622
      947.597800       0.023226
      947.687600       0.023849
      947.777500       0.024491
      947.867300       0.025153
      947.957200       0.025836
      948.047000       0.026539
      948.136900       0.027265
      948.226900       0.028013
      948.316700       0.028785
      948.406700       0.029581
      948.496600       0.030402
      948.586600       0.031249
      948.676600       0.032123
      948.766600       0.033025
      948.856700       0.033955
      948.946700       0.034915
      949.036700       0.035906
      949.126800       0.036929
      949.216900       0.037985
      949.306900       0.039075
      949.397200       0.040200
      949.487300       0.041361
      949.577500       0.042561
      949.667700       0.043799
      949.757800       0.045078
      949.848000       0.046399
      949.938200       0.047763
      950.028500       0.049172
      950.118800       0.050628
      950.209000       0.052131
      950.299400       0.053684
      950.389600       0.055289
      950.480000       0.056946
      950.570300       0.058659
      950.660700       0.060429
      950.751100       0.062257
      950.841500       0.064147
      950.931900       0.066099
      951.022300       0.068117
      951.112800       0.070202
      951.203300       0.072357
      951.293800       0.074583
      951.384300       0.076884
      951.474800       0.079262
      951.565400       0.081719
      951.655800       0.084258
      951.746500       0.086882
      951.837100       0.089594
      951.927700       0.092396
      952.018300       0.095291
      952.108900       0.098282
      952.199600       0.101372
      952.290200       0.104564
      952.381000       0.107862
      952.471700       0.111269
      952.562400       0.114787
      952.653100       0.118420
      952.743900       0.122172
      952.834700       0.126046
      952.925400       0.130045
      953.016300       0.134173
      953.107200       0.138433
      953.197900       0.142829
      953.288900       0.147365
      953.379700       0.152043
      953.470600       0.156868
      953.561500       0.161843
      953.652500       0.166971
      953.743500       0.172256
      953.834400       0.177701
      953.925400       0.183309
      954.016400       0.189085
      954.107400       0.195030
      954.198500       0.201148
      954.289600       0.207442
      954.380600       0.213915
      954.471700       0.220568
      954.562800       0.227405
      954.653900       0.234428
      954.745100       0.241639
      954.836300       0.249038
      954.927400       0.256628
      955.018700       0.264410
      955.109800       0.272385
      955.201100       0.280552
      955.292300       0.288912
      955.383600       0.297465
      955.474900       0.306210
      955.566200       0.315145
      955.657500       0.324269
      955.748800       0.333580
      955.840200       0.343075
      955.931500       0.352751
      956.022900       0.362604
      956.114400       0.372630
      956.205700       0.382824
      956.297200       0.393181
      956.388700       0.403694
      956.480200       0.414358
      956.571600       0.425165
      956.663100       0.436107
      956.754700       0.447177
      956.846200       0.458365
      956.937800       0.469662
      957.029400       0.481058
      957.121000       0.492543
      957.212600       0.504106
      957.304200       0.515736
      957.395900       0.527422
      957.487500       0.539150
      957.579300       0.550910
      957.670900       0.562688
      957.762700       0.574471
      957.854400       0.586248
      957.946200       0.598004
      958.038000       0.609725
      958.129700       0.621401
      958.221600       0.633016
      958.313400       0.644559
      958.405200       0.656015
      958.497100       0.667373
      958.588900       0.678620
      958.680800       0.689744
      958.772800       0.700734
      958.864700       0.711577
      958.956600       0.722264
      959.048600       0.732783
      959.140600       0.743126
      959.232600       0.753282
      959.324600       0.763244
      959.416600       0.773004
      959.508700       0.782553
      959.600800       0.791886
      959.692900       0.800997
      959.785000       0.809880
      959.877100       0.818532
      959.969300       0.826947
      960.061400       0.835123
      960.153600       0.843058
      960.245800       0.850750
      960.338000       0.858198
      960.430300       0.865402
      960.522500       0.872360
      960.614800       0.879075
      960.707000       0.885548
      960.799400       0.891780
      960.891700       0.897775
      960.984000       0.903533
      961.076400       0.909060
      961.168800       0.914358
      961.261200       0.919432
      961.353600       0.924286
      961.446000       0.928924
      961.538500       0.933352
      961.630900       0.937575
      961.723400       0.941597
      961.815900       0.945425
      961.908400       0.949063
      962.000900       0.952519
      962.093500       0.955797
      962.186100       0.958903
      962.278700       0.961843
      962.371300       0.964624
      962.463900       0.967251
      962.556600       0.969729
      962.649200       0.972065
      962.741900       0.974264
      962.834600       0.976332
      962.927300       0.978275
      963.020000       0.980097
      963.112700       0.981805
      963.205600       0.983403
      963.298400       0.984896
      963.391100       0.986289
      963.484000       0.987588
      963.576800       0.988796
      963.669700       0.989917
      963.762500       0.990958
      963.855400       0.991920
      963.948400       0.992810
      964.041300       0.993629
      964.134200       0.994383
      964.227200       0.995073
      964.320200       0.995705
      964.413100       0.996281
      964.506200       0.996804
      964.599200       0.997277
      964.692300       0.997703
      964.785300       0.998085
      964.878400       0.998425
      964.971600       0.998725
      965.064600       0.998988
      965.157800       0.999216
      965.251000       0.999411
      965.344100       0.999574
      965.437400       0.999709
      965.530500       0.999816
      965.623800       0.999897
      965.717100       0.999954
      965.810300       0.999988
      965.903600       1.000000
      965.996900       0.999992
      966.090300       0.999965
      966.183500       0.999920
      966.276900       0.999859
      966.370400       0.999781
      966.463700       0.999689
      966.557100       0.999582
      966.650500       0.999463
      966.744000       0.999331
      966.837500       0.999187
      966.931000       0.999033
      967.024500       0.998868
      967.118000       0.998693
      967.211500       0.998510
      967.305100       0.998317
      967.398700       0.998117
      967.492200       0.997909
      967.585900       0.997694
      967.679600       0.997473
      967.773100       0.997245
      967.866800       0.997011
      967.960400       0.996772
      968.054200       0.996528
      968.147900       0.996282
      968.241600       0.996031
      968.335400       0.995776
      968.429200       0.995518
      968.523000       0.995256
      968.616800       0.994991
      968.710600       0.994723
      968.804600       0.994453
      968.898400       0.994181
      968.992200       0.993906
      969.086100       0.993630
      969.180100       0.993352
      969.274000       0.993074
      969.368000       0.992794
      969.462000       0.992515
      969.555900       0.992234
      969.650000       0.991954
      969.744000       0.991674
      969.838100       0.991395
      969.932100       0.991117
      970.026200       0.990840
      970.120400       0.990564
      970.214400       0.990291
      970.308600       0.990019
      970.402700       0.989750
      970.496900       0.989483
      970.591100       0.989220
      970.685300       0.988960
      970.779500       0.988703
      970.873800       0.988451
      970.968100       0.988203
      971.062300       0.987959
      971.156700       0.987720
      971.251000       0.987487
      971.345300       0.987258
      971.439700       0.987036
      971.534100       0.986820
      971.628500       0.986610
      971.722800       0.986407
      971.817300       0.986211
      971.911800       0.986022
      972.006200       0.985841
      972.100700       0.985668
      972.195200       0.985503
      972.289700       0.985346
      972.384300       0.985198
      972.478800       0.985058
      972.573500       0.984928
      972.668000       0.984807
      972.762700       0.984696
      972.857200       0.984594
      972.952000       0.984502
      973.046600       0.984420
      973.141300       0.984348
      973.236000       0.984286
      973.330700       0.984235
      973.425500       0.984194
      973.520200       0.984163
      973.615100       0.984142
      973.709800       0.984132
      973.804600       0.984132
      973.899500       0.984142
      973.994300       0.984162
      974.089200       0.984192
      974.184100       0.984231
      974.279100       0.984280
      974.374000       0.984337
      974.468900       0.984404
      974.563900       0.984478
      974.658900       0.984560
      974.753900       0.984647
      974.848900       0.984741
      974.944000       0.984840
      975.039100       0.984945
      975.134100       0.985054
      975.229200       0.985167
      975.324300       0.985282
      975.419400       0.985399
      975.514500       0.985517
      975.609700       0.985634
      975.705000       0.985749
      975.800200       0.985861
      975.895400       0.985967
      975.990600       0.986068
      976.085900       0.986161
      976.181200       0.986243
      976.276500       0.986314
      976.371800       0.986371
      976.467100       0.986412
      976.562500       0.986434
      976.657800       0.986436
      976.753300       0.986415
      976.848600       0.986368
      976.944100       0.986293
      977.039600       0.986185
      977.135000       0.986043
      977.230500       0.985862
      977.326000       0.985640
      977.421600       0.985373
      977.517200       0.985057
      977.612700       0.984688
      977.708300       0.984262
      977.803800       0.983775
      977.899500       0.983222
      977.995100       0.982600
      978.090800       0.981902
      978.186500       0.981124
      978.282100       0.980261
      978.377900       0.979308
      978.473600       0.978260
      978.569300       0.977110
      978.665000       0.975853
      978.760900       0.974484
      978.856800       0.972996
      978.952500       0.971384
      979.048400       0.969640
      979.144200       0.967760
      979.240100       0.965736
      979.335900       0.963562
      979.431900       0.961232
      979.527900       0.958738
      979.623800       0.956076
      979.719800       0.953238
      979.815700       0.950217
      979.911800       0.947008
      980.007800       0.943604
      980.103900       0.939999
      980.200000       0.936187
      980.296000       0.932162
      980.392200       0.927919
      980.488200       0.923452
      980.584400       0.918756
      980.680700       0.913826
      980.776800       0.908658
      980.873000       0.903248
      980.969200       0.897592
      981.065400       0.891687
      981.161700       0.885531
      981.258000       0.879121
      981.354300       0.872456
      981.450600       0.865534
      981.546900       0.858356
      981.643200       0.850921
      981.739700       0.843230
      981.836000       0.835286
      981.932400       0.827089
      982.028900       0.818644
      982.125300       0.809954
      982.221800       0.801023
      982.318200       0.791857
      982.414800       0.782461
      982.511200       0.772842
      982.607800       0.763007
      982.704400       0.752964
      982.801000       0.742722
      982.897600       0.732290
      982.994100       0.721678
      983.090800       0.710896
      983.187600       0.699955
      983.284200       0.688867
      983.380900       0.677643
      983.477500       0.666297
      983.574300       0.654839
      983.671000       0.643283
      983.767800       0.631643
      983.864700       0.619932
      983.961400       0.608162
      984.058300       0.596348
      984.155100       0.584503
      984.252000       0.572640
      984.348800       0.560773
      984.445700       0.548914
      984.542700       0.537077
      984.639600       0.525274
      984.736600       0.513518
      984.833600       0.501821
      984.930600       0.490193
      985.027500       0.478648
      985.124600       0.467194
      985.221700       0.455843
      985.318700       0.444604
      985.415900       0.433486
      985.512900       0.422498
      985.610100       0.411648
      985.707200       0.400944
      985.804400       0.390392
      985.901600       0.379999
      985.998800       0.369771
      986.096100       0.359712
      986.193200       0.349828
      986.290600       0.340123
      986.387900       0.330600
      986.485200       0.321262
      986.582500       0.312111
      986.679800       0.303151
      986.777200       0.294382
      986.874500       0.285805
