98,   98, MVIRI VIS channel from srf_MET7_2009303_2009304_1801-Release_S10EE_10.dat
Number of data points:
793
Wavenumber (cm-1)   Filter response
     8442.380800       0.000000
     8449.514200       0.000000
     8456.659600       0.000004
     8463.817200       0.000056
     8470.986900       0.000166
     8478.168700       0.000332
     8485.362700       0.000552
     8492.569000       0.000825
     8499.787500       0.001150
     8507.018300       0.001524
     8514.261400       0.001947
     8521.516800       0.002417
     8528.784600       0.002932
     8536.064900       0.003492
     8543.357500       0.004095
     8550.662700       0.004741
     8557.980300       0.005427
     8565.310500       0.006152
     8572.653200       0.006917
     8580.008600       0.007719
     8587.376600       0.008557
     8594.757200       0.009432
     8602.150500       0.010341
     8609.556600       0.011284
     8616.975400       0.012260
     8624.407100       0.013269
     8631.851500       0.014309
     8639.308900       0.015380
     8646.779100       0.016481
     8654.262200       0.017611
     8661.758300       0.018771
     8669.267400       0.019959
     8676.789600       0.021174
     8684.324800       0.022417
     8691.873100       0.023686
     8699.434500       0.024981
     8707.009100       0.026302
     8714.596900       0.027649
     8722.198000       0.029020
     8729.812300       0.030416
     8737.439900       0.031835
     8745.080900       0.033279
     8752.735200       0.034746
     8760.403000       0.036236
     8768.084200       0.037749
     8775.778900       0.039285
     8783.487000       0.040843
     8791.208800       0.042423
     8798.944100       0.044025
     8806.693100       0.045649
     8814.455700       0.047295
     8822.232000       0.048962
     8830.022100       0.050650
     8837.825900       0.052359
     8845.643500       0.054090
     8853.475000       0.055842
     8861.320300       0.057614
     8869.179600       0.059408
     8877.052800       0.061222
     8884.940000       0.063057
     8892.841300       0.064912
     8900.756600       0.066789
     8908.686000       0.068686
     8916.629500       0.070603
     8924.587200       0.072541
     8932.559200       0.074500
     8940.545400       0.076480
     8948.545900       0.078480
     8956.560700       0.080501
     8964.589900       0.082543
     8972.633500       0.084605
     8980.691500       0.086689
     8988.764000       0.088793
     8996.851100       0.090919
     9004.952700       0.093065
     9013.068900       0.095233
     9021.199800       0.097421
     9029.345400       0.099632
     9037.505600       0.101863
     9045.680700       0.104116
     9053.870500       0.106390
     9062.075200       0.108686
     9070.294800       0.111003
     9078.529300       0.113342
     9086.778700       0.115703
     9095.043200       0.118087
     9103.322700       0.120491
     9111.617300       0.122919
     9119.927000       0.125368
     9128.251900       0.127840
     9136.592100       0.130334
     9144.947400       0.132850
     9153.318100       0.135389
     9161.704100       0.137951
     9170.105500       0.140536
     9178.522300       0.143143
     9186.954500       0.145773
     9195.402300       0.148426
     9203.865600       0.151102
     9212.344500       0.153801
     9220.839100       0.156524
     9229.349300       0.159269
     9237.875300       0.162038
     9246.417000       0.164831
     9254.974500       0.167646
     9263.547900       0.170486
     9272.137200       0.173348
     9280.742500       0.176235
     9289.363700       0.179144
     9298.000900       0.182078
     9306.654300       0.185035
     9315.323700       0.188016
     9324.009300       0.191020
     9332.711200       0.194048
     9341.429200       0.197100
     9350.163600       0.200176
     9358.914400       0.203275
     9367.681500       0.206398
     9376.465100       0.209545
     9385.265100       0.212715
     9394.081700       0.215910
     9402.914900       0.219127
     9411.764700       0.222369
     9420.631200       0.225634
     9429.514400       0.228922
     9438.414300       0.232234
     9447.331100       0.235569
     9456.264800       0.238928
     9465.215300       0.242310
     9474.182900       0.245715
     9483.167400       0.249143
     9492.169000       0.252594
     9501.187600       0.256068
     9510.223500       0.259566
     9519.276500       0.263085
     9528.346800       0.266627
     9537.434400       0.270192
     9546.539400       0.273779
     9555.661700       0.277388
     9564.801500       0.281019
     9573.958800       0.284673
     9583.133700       0.288348
     9592.326100       0.292044
     9601.536200       0.295763
     9610.764100       0.299502
     9620.009600       0.303262
     9629.273000       0.307044
     9638.554200       0.310845
     9647.853400       0.314668
     9657.170400       0.318510
     9666.505600       0.322373
     9675.858700       0.326256
     9685.230000       0.330158
     9694.619500       0.334080
     9704.027200       0.338021
     9713.453100       0.341981
     9722.897400       0.345959
     9732.360100       0.349956
     9741.841200       0.353971
     9751.340800       0.358004
     9760.859000       0.362055
     9770.395700       0.366123
     9779.951100       0.370208
     9789.525200       0.374310
     9799.118100       0.378428
     9808.729800       0.382562
     9818.360300       0.386713
     9828.009800       0.390878
     9837.678300       0.395059
     9847.365800       0.399255
     9857.072400       0.403466
     9866.798200       0.407691
     9876.543200       0.411929
     9886.307500       0.416181
     9896.091000       0.420447
     9905.894000       0.424725
     9915.716400       0.429016
     9925.558300       0.433318
     9935.419800       0.437633
     9945.300800       0.441959
     9955.201600       0.446296
     9965.122100       0.450643
     9975.062300       0.455001
     9985.022500       0.459369
     9995.002500       0.463746
    10005.002500       0.468132
    10015.022500       0.472527
    10025.062700       0.476930
    10035.122900       0.481341
    10045.203400       0.485759
    10055.304200       0.490185
    10065.425300       0.494616
    10075.566800       0.499054
    10085.728700       0.503498
    10095.911200       0.507947
    10106.114200       0.512401
    10116.337900       0.516860
    10126.582300       0.521322
    10136.847400       0.525788
    10147.133400       0.530257
    10157.440300       0.534729
    10167.768200       0.539202
    10178.117000       0.543678
    10188.487000       0.548155
    10198.878100       0.552633
    10209.290500       0.557111
    10219.724100       0.561589
    10230.179000       0.566067
    10240.655400       0.570543
    10251.153300       0.575018
    10261.672700       0.579492
    10272.213700       0.583962
    10282.776300       0.588430
    10293.360800       0.592895
    10303.967000       0.597356
    10314.595200       0.601812
    10325.245200       0.606264
    10335.917300       0.610711
    10346.611500       0.615152
    10357.327800       0.619586
    10368.066400       0.624015
    10378.827200       0.628436
    10389.610400       0.632849
    10400.416000       0.637255
    10411.244100       0.641651
    10422.094800       0.646039
    10432.968200       0.650418
    10443.864200       0.654786
    10454.783100       0.659144
    10465.724800       0.663492
    10476.689400       0.667827
    10487.677000       0.672152
    10498.687700       0.676463
    10509.721500       0.680762
    10520.778500       0.685048
    10531.858900       0.689320
    10542.962600       0.693578
    10554.089700       0.697821
    10565.240400       0.702050
    10576.414600       0.706262
    10587.612500       0.710459
    10598.834100       0.714639
    10610.079600       0.718803
    10621.348900       0.722949
    10632.642200       0.727077
    10643.959600       0.731187
    10655.301000       0.735279
    10666.666700       0.739351
    10678.056600       0.743404
    10689.470900       0.747436
    10700.909600       0.751449
    10712.372800       0.755440
    10723.860600       0.759410
    10735.373100       0.763359
    10746.910300       0.767285
    10758.472300       0.771189
    10770.059200       0.775070
    10781.671200       0.778928
    10793.308100       0.782761
    10804.970300       0.786571
    10816.657700       0.790356
    10828.370300       0.794116
    10840.108400       0.797851
    10851.871900       0.801560
    10863.661100       0.805243
    10875.475800       0.808900
    10887.316300       0.812529
    10899.182600       0.816131
    10911.074700       0.819706
    10922.992900       0.823253
    10934.937100       0.826772
    10946.907500       0.830261
    10958.904100       0.833722
    10970.927000       0.837154
    10982.976400       0.840556
    10995.052200       0.843927
    11007.154700       0.847269
    11019.283700       0.850579
    11031.439600       0.853859
    11043.622300       0.857108
    11055.832000       0.860325
    11068.068600       0.863510
    11080.332400       0.866663
    11092.623400       0.869783
    11104.941700       0.872870
    11117.287400       0.875925
    11129.660500       0.878946
    11142.061300       0.881933
    11154.489700       0.884887
    11166.945800       0.887807
    11179.429800       0.890692
    11191.941800       0.893543
    11204.481800       0.896358
    11217.049900       0.899139
    11229.646300       0.901884
    11242.270900       0.904594
    11254.924000       0.907268
    11267.605600       0.909907
    11280.315800       0.912509
    11293.054800       0.915074
    11305.822500       0.917604
    11318.619100       0.920096
    11331.444800       0.922552
    11344.299500       0.924970
    11357.183400       0.927351
    11370.096600       0.929696
    11383.039300       0.932002
    11396.011400       0.934271
    11409.013100       0.936502
    11422.044500       0.938695
    11435.105800       0.940850
    11448.196900       0.942966
    11461.318100       0.945045
    11474.469300       0.947085
    11487.650800       0.949086
    11500.862600       0.951049
    11514.104800       0.952974
    11527.377500       0.954859
    11540.680900       0.956706
    11554.015000       0.958514
    11567.380000       0.960283
    11580.775900       0.962013
    11594.202900       0.963704
    11607.661100       0.965355
    11621.150500       0.966968
    11634.671300       0.968542
    11648.223600       0.970076
    11661.807600       0.971572
    11675.423200       0.973028
    11689.070700       0.974445
    11702.750100       0.975823
    11716.461600       0.977162
    11730.205300       0.978461
    11743.981200       0.979722
    11757.789500       0.980943
    11771.630400       0.982126
    11785.503800       0.983270
    11799.410000       0.984374
    11813.349100       0.985441
    11827.321100       0.986468
    11841.326200       0.987456
    11855.364600       0.988406
    11869.436200       0.989318
    11883.541300       0.990191
    11897.680000       0.991026
    11911.852300       0.991823
    11926.058400       0.992581
    11940.298500       0.993302
    11954.572600       0.993985
    11968.880900       0.994630
    11983.223500       0.995238
    11997.600500       0.995808
    12012.012000       0.996341
    12026.458200       0.996837
    12040.939200       0.997297
    12055.455100       0.997719
    12070.006000       0.998105
    12084.592100       0.998455
    12099.213600       0.998768
    12113.870400       0.999046
    12128.562800       0.999288
    12143.290800       0.999494
    12158.054700       0.999665
    12172.854500       0.999801
    12187.690400       0.999902
    12202.562500       0.999968
    12217.471000       1.000000
    12232.415900       0.999998
    12247.397400       0.999962
    12262.415700       0.999892
    12277.470800       0.999789
    12292.563000       0.999653
    12307.692300       0.999484
    12322.858900       0.999283
    12338.062900       0.999049
    12353.304500       0.998783
    12368.583800       0.998486
    12383.900900       0.998157
    12399.256000       0.997797
    12414.649300       0.997406
    12430.080800       0.996985
    12445.550700       0.996534
    12461.059200       0.996053
    12476.606400       0.995542
    12492.192400       0.995003
    12507.817400       0.994434
    12523.481500       0.993837
    12539.185000       0.993212
    12554.927800       0.992560
    12570.710200       0.991879
    12586.532400       0.991172
    12602.394500       0.990438
    12618.296500       0.989678
    12634.238800       0.988892
    12650.221400       0.988080
    12666.244500       0.987243
    12682.308200       0.986381
    12698.412700       0.985495
    12714.558200       0.984585
    12730.744700       0.983651
    12746.972600       0.982693
    12763.241900       0.981713
    12779.552700       0.980711
    12795.905300       0.979686
    12812.299800       0.978640
    12828.736400       0.977573
    12845.215200       0.976485
    12861.736300       0.975376
    12878.300100       0.974248
    12894.906500       0.973100
    12911.555800       0.971932
    12928.248200       0.970747
    12944.983800       0.969542
    12961.762800       0.968320
    12978.585300       0.967081
    12995.451600       0.965825
    13012.361700       0.964552
    13029.316000       0.963263
    13046.314400       0.961958
    13063.357300       0.960638
    13080.444700       0.959304
    13097.576900       0.957955
    13114.754100       0.956592
    13131.976400       0.955216
    13149.243900       0.953826
    13166.556900       0.952425
    13183.915600       0.951011
    13201.320100       0.949585
    13218.770700       0.948149
    13236.267400       0.946701
    13253.810500       0.945243
    13271.400100       0.943776
    13289.036500       0.942299
    13306.719900       0.940813
    13324.450400       0.939319
    13342.228200       0.937817
    13360.053400       0.936307
    13377.926400       0.934790
    13395.847300       0.933266
    13413.816200       0.931736
    13431.833400       0.930200
    13449.899100       0.928660
    13468.013500       0.927114
    13486.176700       0.925564
    13504.388900       0.924009
    13522.650400       0.922451
    13540.961400       0.920891
    13559.322000       0.919327
    13577.732500       0.917762
    13596.193100       0.916194
    13614.703900       0.914625
    13633.265200       0.913056
    13651.877100       0.911485
    13670.540000       0.909915
    13689.253900       0.908346
    13708.019200       0.906777
    13726.836000       0.905209
    13745.704500       0.903643
    13764.624900       0.902079
    13783.597500       0.900518
    13802.622500       0.898959
    13821.700100       0.897404
    13840.830400       0.895853
    13860.013900       0.894306
    13879.250500       0.892763
    13898.540700       0.891225
    13917.884500       0.889693
    13937.282200       0.888166
    13956.734100       0.886646
    13976.240400       0.885132
    13995.801300       0.883625
    14015.417000       0.882125
    14035.087700       0.880632
    14054.813800       0.879148
    14074.595400       0.877672
    14094.432700       0.876205
    14114.326000       0.874747
    14134.275600       0.873299
    14154.281700       0.871860
    14174.344400       0.870431
    14194.464200       0.869013
    14214.641100       0.867605
    14234.875400       0.866209
    14255.167500       0.864824
    14275.517500       0.863450
    14295.925700       0.862089
    14316.392300       0.860740
    14336.917600       0.859404
    14357.501800       0.858081
    14378.145200       0.856771
    14398.848100       0.855474
    14419.610700       0.854192
    14440.433200       0.852923
    14461.316000       0.851669
    14482.259200       0.850429
    14503.263200       0.849204
    14524.328200       0.847994
    14545.454500       0.846799
    14566.642400       0.845620
    14587.892000       0.844457
    14609.203800       0.843309
    14630.577900       0.842178
    14652.014700       0.841064
    14673.514300       0.839965
    14695.077100       0.838884
    14716.703500       0.837820
    14738.393500       0.836772
    14760.147600       0.835742
    14781.966000       0.834730
    14803.849000       0.833735
    14825.796900       0.832758
    14847.809900       0.831798
    14869.888500       0.830857
    14892.032800       0.829934
    14914.243100       0.829029
    14936.519800       0.828143
    14958.863100       0.827275
    14981.273400       0.826425
    15003.750900       0.825595
    15026.296000       0.824783
    15048.909000       0.823989
    15071.590100       0.823215
    15094.339600       0.822460
    15117.158000       0.821723
    15140.045400       0.821005
    15163.002300       0.820307
    15186.028900       0.819627
    15209.125500       0.818967
    15232.292500       0.818325
    15255.530100       0.817703
    15278.838800       0.817099
    15302.218800       0.816515
    15325.670500       0.815949
    15349.194200       0.815402
    15372.790200       0.814874
    15396.458800       0.814365
    15420.200500       0.813875
    15444.015400       0.813403
    15467.904100       0.812950
    15491.866800       0.812515
    15515.903800       0.812098
    15540.015500       0.811700
    15564.202300       0.811320
    15588.464500       0.810957
    15612.802500       0.810613
    15637.216600       0.810286
    15661.707100       0.809977
    15686.274500       0.809685
    15710.919100       0.809410
    15735.641200       0.809152
    15760.441300       0.808911
    15785.319700       0.808686
    15810.276700       0.808478
    15835.312700       0.808286
    15860.428200       0.808109
    15885.623500       0.807949
    15910.899000       0.807803
    15936.255000       0.807673
    15961.691900       0.807558
    15987.210200       0.807457
    16012.810200       0.807370
    16038.492400       0.807297
    16064.257000       0.807238
    16090.104600       0.807193
    16116.035500       0.807160
    16142.050000       0.807140
    16168.148700       0.807132
    16194.332000       0.807136
    16220.600200       0.807152
    16246.953700       0.807179
    16273.393000       0.807217
    16299.918500       0.807265
    16326.530600       0.807324
    16353.229800       0.807392
    16380.016400       0.807469
    16406.890900       0.807555
    16433.853700       0.807649
    16460.905300       0.807752
    16488.046200       0.807861
    16515.276600       0.807978
    16542.597200       0.808102
    16570.008300       0.808231
    16597.510400       0.808366
    16625.103900       0.808506
    16652.789300       0.808651
    16680.567100       0.808799
    16708.437800       0.808951
    16736.401700       0.809107
    16764.459300       0.809264
    16792.611300       0.809424
    16820.857900       0.809585
    16849.199700       0.809747
    16877.637100       0.809909
    16906.170800       0.810071
    16934.801000       0.810232
    16963.528400       0.810392
    16992.353400       0.810549
    17021.276600       0.810704
    17050.298400       0.810855
    17079.419300       0.811003
    17108.639900       0.811146
    17137.960600       0.811284
    17167.382000       0.811416
    17196.904600       0.811542
    17226.528900       0.811660
    17256.255400       0.811771
    17286.084700       0.811874
    17316.017300       0.811967
    17346.053800       0.812051
    17376.194600       0.812125
    17406.440400       0.812187
    17436.791600       0.812237
    17467.248900       0.812276
    17497.812800       0.812300
    17528.483800       0.812311
    17559.262500       0.812308
    17590.149500       0.812289
    17621.145400       0.812254
    17652.250700       0.812203
    17683.466000       0.812134
