23,   23, MVIRI VIS channel from srf_MET4_1992123_1992124_1801-Release_S10EL_10.dat
Number of data points:
752
Wavenumber (cm-1)   Filter response
     8745.080900       0.000000
     8752.735200       0.000000
     8760.403000       0.000001
     8768.084200       0.000059
     8775.778900       0.000200
     8783.487000       0.000421
     8791.208800       0.000720
     8798.944100       0.001095
     8806.693100       0.001544
     8814.455700       0.002063
     8822.232000       0.002652
     8830.022100       0.003308
     8837.825900       0.004029
     8845.643500       0.004813
     8853.475000       0.005658
     8861.320300       0.006562
     8869.179600       0.007524
     8877.052800       0.008541
     8884.940000       0.009613
     8892.841300       0.010737
     8900.756600       0.011912
     8908.686000       0.013136
     8916.629500       0.014408
     8924.587200       0.015727
     8932.559200       0.017091
     8940.545400       0.018499
     8948.545900       0.019949
     8956.560700       0.021440
     8964.589900       0.022971
     8972.633500       0.024541
     8980.691500       0.026149
     8988.764000       0.027794
     8996.851100       0.029475
     9004.952700       0.031190
     9013.068900       0.032939
     9021.199800       0.034721
     9029.345400       0.036534
     9037.505600       0.038379
     9045.680700       0.040254
     9053.870500       0.042159
     9062.075200       0.044092
     9070.294800       0.046053
     9078.529300       0.048042
     9086.778700       0.050058
     9095.043200       0.052099
     9103.322700       0.054166
     9111.617300       0.056258
     9119.927000       0.058374
     9128.251900       0.060514
     9136.592100       0.062677
     9144.947400       0.064864
     9153.318100       0.067072
     9161.704100       0.069303
     9170.105500       0.071555
     9178.522300       0.073828
     9186.954500       0.076122
     9195.402300       0.078437
     9203.865600       0.080771
     9212.344500       0.083126
     9220.839100       0.085500
     9229.349300       0.087893
     9237.875300       0.090305
     9246.417000       0.092736
     9254.974500       0.095186
     9263.547900       0.097655
     9272.137200       0.100140
     9280.742500       0.102645
     9289.363700       0.105167
     9298.000900       0.107706
     9306.654300       0.110264
     9315.323700       0.112838
     9324.009300       0.115430
     9332.711200       0.118039
     9341.429200       0.120665
     9350.163600       0.123308
     9358.914400       0.125968
     9367.681500       0.128645
     9376.465100       0.131338
     9385.265100       0.134048
     9394.081700       0.136775
     9402.914900       0.139518
     9411.764700       0.142278
     9420.631200       0.145055
     9429.514400       0.147848
     9438.414300       0.150658
     9447.331100       0.153484
     9456.264800       0.156326
     9465.215300       0.159185
     9474.182900       0.162061
     9483.167400       0.164953
     9492.169000       0.167861
     9501.187600       0.170787
     9510.223500       0.173728
     9519.276500       0.176686
     9528.346800       0.179661
     9537.434400       0.182653
     9546.539400       0.185661
     9555.661700       0.188685
     9564.801500       0.191726
     9573.958800       0.194784
     9583.133700       0.197859
     9592.326100       0.200950
     9601.536200       0.204058
     9610.764100       0.207183
     9620.009600       0.210325
     9629.273000       0.213483
     9638.554200       0.216658
     9647.853400       0.219851
     9657.170400       0.223059
     9666.505600       0.226285
     9675.858700       0.229528
     9685.230000       0.232788
     9694.619500       0.236065
     9704.027200       0.239358
     9713.453100       0.242669
     9722.897400       0.245996
     9732.360100       0.249340
     9741.841200       0.252702
     9751.340800       0.256080
     9760.859000       0.259475
     9770.395700       0.262887
     9779.951100       0.266316
     9789.525200       0.269761
     9799.118100       0.273224
     9808.729800       0.276703
     9818.360300       0.280199
     9828.009800       0.283712
     9837.678300       0.287241
     9847.365800       0.290788
     9857.072400       0.294350
     9866.798200       0.297929
     9876.543200       0.301525
     9886.307500       0.305137
     9896.091000       0.308765
     9905.894000       0.312409
     9915.716400       0.316070
     9925.558300       0.319747
     9935.419800       0.323440
     9945.300800       0.327148
     9955.201600       0.330872
     9965.122100       0.334613
     9975.062300       0.338368
     9985.022500       0.342139
     9995.002500       0.345925
    10005.002500       0.349727
    10015.022500       0.353543
    10025.062700       0.357375
    10035.122900       0.361221
    10045.203400       0.365081
    10055.304200       0.368957
    10065.425300       0.372846
    10075.566800       0.376750
    10085.728700       0.380667
    10095.911200       0.384598
    10106.114200       0.388543
    10116.337900       0.392501
    10126.582300       0.396473
    10136.847400       0.400457
    10147.133400       0.404454
    10157.440300       0.408464
    10167.768200       0.412486
    10178.117000       0.416520
    10188.487000       0.420566
    10198.878100       0.424624
    10209.290500       0.428693
    10219.724100       0.432773
    10230.179000       0.436864
    10240.655400       0.440966
    10251.153300       0.445079
    10261.672700       0.449201
    10272.213700       0.453333
    10282.776300       0.457475
    10293.360800       0.461626
    10303.967000       0.465787
    10314.595200       0.469956
    10325.245200       0.474133
    10335.917300       0.478319
    10346.611500       0.482512
    10357.327800       0.486713
    10368.066400       0.490921
    10378.827200       0.495136
    10389.610400       0.499358
    10400.416000       0.503585
    10411.244100       0.507819
    10422.094800       0.512058
    10432.968200       0.516303
    10443.864200       0.520553
    10454.783100       0.524807
    10465.724800       0.529065
    10476.689400       0.533327
    10487.677000       0.537593
    10498.687700       0.541861
    10509.721500       0.546133
    10520.778500       0.550406
    10531.858900       0.554682
    10542.962600       0.558960
    10554.089700       0.563239
    10565.240400       0.567518
    10576.414600       0.571798
    10587.612500       0.576078
    10598.834100       0.580359
    10610.079600       0.584638
    10621.348900       0.588916
    10632.642200       0.593193
    10643.959600       0.597468
    10655.301000       0.601740
    10666.666700       0.606010
    10678.056600       0.610277
    10689.470900       0.614540
    10700.909600       0.618799
    10712.372800       0.623054
    10723.860600       0.627305
    10735.373100       0.631550
    10746.910300       0.635790
    10758.472300       0.640023
    10770.059200       0.644250
    10781.671200       0.648470
    10793.308100       0.652683
    10804.970300       0.656889
    10816.657700       0.661086
    10828.370300       0.665275
    10840.108400       0.669454
    10851.871900       0.673625
    10863.661100       0.677785
    10875.475800       0.681935
    10887.316300       0.686075
    10899.182600       0.690203
    10911.074700       0.694320
    10922.992900       0.698425
    10934.937100       0.702518
    10946.907500       0.706597
    10958.904100       0.710664
    10970.927000       0.714717
    10982.976400       0.718755
    10995.052200       0.722779
    11007.154700       0.726788
    11019.283700       0.730782
    11031.439600       0.734760
    11043.622300       0.738722
    11055.832000       0.742667
    11068.068600       0.746594
    11080.332400       0.750505
    11092.623400       0.754397
    11104.941700       0.758271
    11117.287400       0.762127
    11129.660500       0.765963
    11142.061300       0.769780
    11154.489700       0.773576
    11166.945800       0.777352
    11179.429800       0.781108
    11191.941800       0.784842
    11204.481800       0.788555
    11217.049900       0.792245
    11229.646300       0.795913
    11242.270900       0.799559
    11254.924000       0.803181
    11267.605600       0.806780
    11280.315800       0.810354
    11293.054800       0.813904
    11305.822500       0.817430
    11318.619100       0.820930
    11331.444800       0.824405
    11344.299500       0.827855
    11357.183400       0.831277
    11370.096600       0.834674
    11383.039300       0.838043
    11396.011400       0.841385
    11409.013100       0.844700
    11422.044500       0.847986
    11435.105800       0.851245
    11448.196900       0.854474
    11461.318100       0.857674
    11474.469300       0.860846
    11487.650800       0.863987
    11500.862600       0.867099
    11514.104800       0.870180
    11527.377500       0.873230
    11540.680900       0.876250
    11554.015000       0.879238
    11567.380000       0.882195
    11580.775900       0.885120
    11594.202900       0.888013
    11607.661100       0.890873
    11621.150500       0.893701
    11634.671300       0.896495
    11648.223600       0.899257
    11661.807600       0.901985
    11675.423200       0.904679
    11689.070700       0.907339
    11702.750100       0.909965
    11716.461600       0.912556
    11730.205300       0.915113
    11743.981200       0.917634
    11757.789500       0.920120
    11771.630400       0.922571
    11785.503800       0.924986
    11799.410000       0.927365
    11813.349100       0.929708
    11827.321100       0.932015
    11841.326200       0.934285
    11855.364600       0.936519
    11869.436200       0.938716
    11883.541300       0.940875
    11897.680000       0.942997
    11911.852300       0.945082
    11926.058400       0.947130
    11940.298500       0.949140
    11954.572600       0.951111
    11968.880900       0.953045
    11983.223500       0.954941
    11997.600500       0.956798
    12012.012000       0.958617
    12026.458200       0.960398
    12040.939200       0.962140
    12055.455100       0.963843
    12070.006000       0.965507
    12084.592100       0.967133
    12099.213600       0.968719
    12113.870400       0.970266
    12128.562800       0.971774
    12143.290800       0.973243
    12158.054700       0.974673
    12172.854500       0.976063
    12187.690400       0.977414
    12202.562500       0.978726
    12217.471000       0.979998
    12232.415900       0.981230
    12247.397400       0.982423
    12262.415700       0.983577
    12277.470800       0.984691
    12292.563000       0.985765
    12307.692300       0.986800
    12322.858900       0.987795
    12338.062900       0.988751
    12353.304500       0.989667
    12368.583800       0.990544
    12383.900900       0.991382
    12399.256000       0.992180
    12414.649300       0.992939
    12430.080800       0.993658
    12445.550700       0.994339
    12461.059200       0.994980
    12476.606400       0.995582
    12492.192400       0.996145
    12507.817400       0.996670
    12523.481500       0.997155
    12539.185000       0.997602
    12554.927800       0.998010
    12570.710200       0.998380
    12586.532400       0.998712
    12602.394500       0.999005
    12618.296500       0.999260
    12634.238800       0.999478
    12650.221400       0.999657
    12666.244500       0.999799
    12682.308200       0.999903
    12698.412700       0.999970
    12714.558200       1.000000
    12730.744700       0.999993
    12746.972600       0.999949
    12763.241900       0.999868
    12779.552700       0.999752
    12795.905300       0.999598
    12812.299800       0.999409
    12828.736400       0.999184
    12845.215200       0.998924
    12861.736300       0.998628
    12878.300100       0.998297
    12894.906500       0.997931
    12911.555800       0.997531
    12928.248200       0.997096
    12944.983800       0.996627
    12961.762800       0.996124
    12978.585300       0.995588
    12995.451600       0.995018
    13012.361700       0.994415
    13029.316000       0.993779
    13046.314400       0.993111
    13063.357300       0.992410
    13080.444700       0.991678
    13097.576900       0.990913
    13114.754100       0.990118
    13131.976400       0.989291
    13149.243900       0.988434
    13166.556900       0.987547
    13183.915600       0.986629
    13201.320100       0.985681
    13218.770700       0.984705
    13236.267400       0.983699
    13253.810500       0.982664
    13271.400100       0.981601
    13289.036500       0.980510
    13306.719900       0.979391
    13324.450400       0.978245
    13342.228200       0.977072
    13360.053400       0.975872
    13377.926400       0.974646
    13395.847300       0.973394
    13413.816200       0.972117
    13431.833400       0.970814
    13449.899100       0.969487
    13468.013500       0.968136
    13486.176700       0.966760
    13504.388900       0.965361
    13522.650400       0.963939
    13540.961400       0.962494
    13559.322000       0.961027
    13577.732500       0.959538
    13596.193100       0.958027
    13614.703900       0.956495
    13633.265200       0.954943
    13651.877100       0.953370
    13670.540000       0.951777
    13689.253900       0.950165
    13708.019200       0.948534
    13726.836000       0.946884
    13745.704500       0.945216
    13764.624900       0.943530
    13783.597500       0.941827
    13802.622500       0.940107
    13821.700100       0.938371
    13840.830400       0.936619
    13860.013900       0.934851
    13879.250500       0.933068
    13898.540700       0.931270
    13917.884500       0.929459
    13937.282200       0.927633
    13956.734100       0.925794
    13976.240400       0.923942
    13995.801300       0.922078
    14015.417000       0.920202
    14035.087700       0.918314
    14054.813800       0.916415
    14074.595400       0.914505
    14094.432700       0.912586
    14114.326000       0.910656
    14134.275600       0.908717
    14154.281700       0.906770
    14174.344400       0.904814
    14194.464200       0.902850
    14214.641100       0.900878
    14234.875400       0.898900
    14255.167500       0.896915
    14275.517500       0.894924
    14295.925700       0.892927
    14316.392300       0.890925
    14336.917600       0.888918
    14357.501800       0.886907
    14378.145200       0.884892
    14398.848100       0.882873
    14419.610700       0.880851
    14440.433200       0.878827
    14461.316000       0.876801
    14482.259200       0.874773
    14503.263200       0.872743
    14524.328200       0.870713
    14545.454500       0.868683
    14566.642400       0.866652
    14587.892000       0.864622
    14609.203800       0.862593
    14630.577900       0.860565
    14652.014700       0.858539
    14673.514300       0.856515
    14695.077100       0.854493
    14716.703500       0.852475
    14738.393500       0.850460
    14760.147600       0.848448
    14781.966000       0.846441
    14803.849000       0.844438
    14825.796900       0.842441
    14847.809900       0.840448
    14869.888500       0.838462
    14892.032800       0.836481
    14914.243100       0.834507
    14936.519800       0.832540
    14958.863100       0.830581
    14981.273400       0.828629
    15003.750900       0.826684
    15026.296000       0.824748
    15048.909000       0.822821
    15071.590100       0.820903
    15094.339600       0.818995
    15117.158000       0.817096
    15140.045400       0.815207
    15163.002300       0.813328
    15186.028900       0.811461
    15209.125500       0.809604
    15232.292500       0.807759
    15255.530100       0.805925
    15278.838800       0.804104
    15302.218800       0.802294
    15325.670500       0.800497
    15349.194200       0.798714
    15372.790200       0.796943
    15396.458800       0.795186
    15420.200500       0.793442
    15444.015400       0.791712
    15467.904100       0.789997
    15491.866800       0.788296
    15515.903800       0.786609
    15540.015500       0.784938
    15564.202300       0.783282
    15588.464500       0.781641
    15612.802500       0.780016
    15637.216600       0.778406
    15661.707100       0.776813
    15686.274500       0.775236
    15710.919100       0.773675
    15735.641200       0.772131
    15760.441300       0.770604
    15785.319700       0.769093
    15810.276700       0.767600
    15835.312700       0.766124
    15860.428200       0.764665
    15885.623500       0.763224
    15910.899000       0.761801
    15936.255000       0.760395
    15961.691900       0.759007
    15987.210200       0.757638
    16012.810200       0.756286
    16038.492400       0.754952
    16064.257000       0.753637
    16090.104600       0.752340
    16116.035500       0.751062
    16142.050000       0.749802
    16168.148700       0.748560
    16194.332000       0.747337
    16220.600200       0.746133
    16246.953700       0.744947
    16273.393000       0.743780
    16299.918500       0.742632
    16326.530600       0.741502
    16353.229800       0.740391
    16380.016400       0.739298
    16406.890900       0.738224
    16433.853700       0.737168
    16460.905300       0.736131
    16488.046200       0.735113
    16515.276600       0.734112
    16542.597200       0.733130
    16570.008300       0.732166
    16597.510400       0.731221
    16625.103900       0.730293
    16652.789300       0.729383
    16680.567100       0.728491
    16708.437800       0.727616
    16736.401700       0.726759
    16764.459300       0.725919
    16792.611300       0.725097
    16820.857900       0.724292
    16849.199700       0.723503
    16877.637100       0.722731
    16906.170800       0.721975
    16934.801000       0.721236
    16963.528400       0.720513
    16992.353400       0.719805
    17021.276600       0.719114
    17050.298400       0.718437
    17079.419300       0.717776
    17108.639900       0.717129
    17137.960600       0.716497
    17167.382000       0.715879
    17196.904600       0.715275
    17226.528900       0.714685
    17256.255400       0.714109
    17286.084700       0.713545
    17316.017300       0.712994
    17346.053800       0.712455
    17376.194600       0.711929
    17406.440400       0.711414
    17436.791600       0.710910
    17467.248900       0.710418
    17497.812800       0.709936
    17528.483800       0.709464
    17559.262500       0.709002
    17590.149500       0.708549
    17621.145400       0.708105
    17652.250700       0.707670
    17683.466000       0.707243
    17714.791900       0.706823
    17746.228900       0.706411
    17777.777800       0.706005
    17809.439000       0.705606
    17841.213200       0.705212
    17873.101000       0.704824
    17905.103000       0.704440
    17937.219700       0.704061
    17969.451900       0.703685
    18001.800200       0.703313
    18034.265100       0.702944
    18066.847300       0.702576
    18099.547500       0.702210
    18132.366300       0.701846
    18165.304300       0.701481
    18198.362100       0.701117
    18231.540600       0.700752
    18264.840200       0.700386
    18298.261700       0.700018
    18331.805700       0.699648
    18365.472900       0.699275
    18399.264000       0.698898
    18433.179700       0.698516
    18467.220700       0.698130
    18501.387600       0.697739
    18535.681200       0.697341
    18570.102100       0.696937
    18604.651200       0.696525
    18639.329000       0.696105
    18674.136300       0.695676
    18709.073900       0.695238
    18744.142500       0.694790
    18779.342700       0.694331
    18814.675400       0.693860
    18850.141400       0.693378
    18885.741300       0.692882
    18921.475900       0.692373
    18957.346000       0.691850
    18993.352300       0.691312
    19029.495700       0.690758
    19065.776900       0.690188
