50,   50, MVIRI VIS channel from srf_MET5_1997168_1997169_1801-Release_S10EL_10.dat
Number of data points:
806
Wavenumber (cm-1)   Filter response
     8350.730700       0.000000
     8357.710000       0.000000
     8364.701000       0.000000
     8371.703600       0.000002
     8378.718100       0.000004
     8385.744200       0.000009
     8392.782200       0.000016
     8399.832000       0.000027
     8406.893700       0.000041
     8413.967200       0.000059
     8421.052600       0.000082
     8428.150000       0.000110
     8435.259400       0.000144
     8442.380800       0.000183
     8449.514200       0.000229
     8456.659600       0.000282
     8463.817200       0.000342
     8470.986900       0.000410
     8478.168700       0.000486
     8485.362700       0.000569
     8492.569000       0.000662
     8499.787500       0.000763
     8507.018300       0.000874
     8514.261400       0.000995
     8521.516800       0.001125
     8528.784600       0.001265
     8536.064900       0.001416
     8543.357500       0.001578
     8550.662700       0.001751
     8557.980300       0.001935
     8565.310500       0.002130
     8572.653200       0.002337
     8580.008600       0.002556
     8587.376600       0.002787
     8594.757200       0.003031
     8602.150500       0.003287
     8609.556600       0.003556
     8616.975400       0.003838
     8624.407100       0.004134
     8631.851500       0.004442
     8639.308900       0.004765
     8646.779100       0.005100
     8654.262200       0.005450
     8661.758300       0.005814
     8669.267400       0.006192
     8676.789600       0.006585
     8684.324800       0.006992
     8691.873100       0.007414
     8699.434500       0.007850
     8707.009100       0.008302
     8714.596900       0.008769
     8722.198000       0.009251
     8729.812300       0.009748
     8737.439900       0.010261
     8745.080900       0.010790
     8752.735200       0.011335
     8760.403000       0.011895
     8768.084200       0.012471
     8775.778900       0.013064
     8783.487000       0.013673
     8791.208800       0.014299
     8798.944100       0.014941
     8806.693100       0.015599
     8814.455700       0.016275
     8822.232000       0.016967
     8830.022100       0.017676
     8837.825900       0.018403
     8845.643500       0.019147
     8853.475000       0.019908
     8861.320300       0.020686
     8869.179600       0.021482
     8877.052800       0.022296
     8884.940000       0.023127
     8892.841300       0.023977
     8900.756600       0.024844
     8908.686000       0.025730
     8916.629500       0.026634
     8924.587200       0.027556
     8932.559200       0.028496
     8940.545400       0.029455
     8948.545900       0.030433
     8956.560700       0.031429
     8964.589900       0.032444
     8972.633500       0.033478
     8980.691500       0.034531
     8988.764000       0.035604
     8996.851100       0.036695
     9004.952700       0.037806
     9013.068900       0.038936
     9021.199800       0.040086
     9029.345400       0.041256
     9037.505600       0.042445
     9045.680700       0.043654
     9053.870500       0.044883
     9062.075200       0.046132
     9070.294800       0.047401
     9078.529300       0.048690
     9086.778700       0.050000
     9095.043200       0.051330
     9103.322700       0.052681
     9111.617300       0.054052
     9119.927000       0.055444
     9128.251900       0.056857
     9136.592100       0.058291
     9144.947400       0.059745
     9153.318100       0.061221
     9161.704100       0.062718
     9170.105500       0.064236
     9178.522300       0.065776
     9186.954500       0.067336
     9195.402300       0.068919
     9203.865600       0.070523
     9212.344500       0.072149
     9220.839100       0.073797
     9229.349300       0.075466
     9237.875300       0.077157
     9246.417000       0.078870
     9254.974500       0.080606
     9263.547900       0.082364
     9272.137200       0.084144
     9280.742500       0.085946
     9289.363700       0.087771
     9298.000900       0.089618
     9306.654300       0.091488
     9315.323700       0.093380
     9324.009300       0.095295
     9332.711200       0.097233
     9341.429200       0.099193
     9350.163600       0.101177
     9358.914400       0.103183
     9367.681500       0.105212
     9376.465100       0.107265
     9385.265100       0.109340
     9394.081700       0.111439
     9402.914900       0.113561
     9411.764700       0.115706
     9420.631200       0.117874
     9429.514400       0.120066
     9438.414300       0.122281
     9447.331100       0.124519
     9456.264800       0.126781
     9465.215300       0.129066
     9474.182900       0.131375
     9483.167400       0.133707
     9492.169000       0.136063
     9501.187600       0.138443
     9510.223500       0.140846
     9519.276500       0.143272
     9528.346800       0.145722
     9537.434400       0.148196
     9546.539400       0.150693
     9555.661700       0.153215
     9564.801500       0.155759
     9573.958800       0.158327
     9583.133700       0.160919
     9592.326100       0.163535
     9601.536200       0.166174
     9610.764100       0.168836
     9620.009600       0.171522
     9629.273000       0.174232
     9638.554200       0.176965
     9647.853400       0.179722
     9657.170400       0.182501
     9666.505600       0.185305
     9675.858700       0.188132
     9685.230000       0.190981
     9694.619500       0.193855
     9704.027200       0.196751
     9713.453100       0.199671
     9722.897400       0.202613
     9732.360100       0.205579
     9741.841200       0.208568
     9751.340800       0.211579
     9760.859000       0.214613
     9770.395700       0.217670
     9779.951100       0.220750
     9789.525200       0.223852
     9799.118100       0.226976
     9808.729800       0.230123
     9818.360300       0.233292
     9828.009800       0.236483
     9837.678300       0.239697
     9847.365800       0.242932
     9857.072400       0.246189
     9866.798200       0.249467
     9876.543200       0.252767
     9886.307500       0.256089
     9896.091000       0.259432
     9905.894000       0.262796
     9915.716400       0.266181
     9925.558300       0.269587
     9935.419800       0.273013
     9945.300800       0.276461
     9955.201600       0.279928
     9965.122100       0.283416
     9975.062300       0.286923
     9985.022500       0.290451
     9995.002500       0.293999
    10005.002500       0.297565
    10015.022500       0.301152
    10025.062700       0.304757
    10035.122900       0.308381
    10045.203400       0.312024
    10055.304200       0.315686
    10065.425300       0.319366
    10075.566800       0.323064
    10085.728700       0.326780
    10095.911200       0.330514
    10106.114200       0.334266
    10116.337900       0.338034
    10126.582300       0.341820
    10136.847400       0.345622
    10147.133400       0.349441
    10157.440300       0.353277
    10167.768200       0.357128
    10178.117000       0.360995
    10188.487000       0.364878
    10198.878100       0.368776
    10209.290500       0.372689
    10219.724100       0.376617
    10230.179000       0.380560
    10240.655400       0.384517
    10251.153300       0.388487
    10261.672700       0.392471
    10272.213700       0.396469
    10282.776300       0.400480
    10293.360800       0.404504
    10303.967000       0.408540
    10314.595200       0.412588
    10325.245200       0.416649
    10335.917300       0.420721
    10346.611500       0.424804
    10357.327800       0.428898
    10368.066400       0.433003
    10378.827200       0.437119
    10389.610400       0.441244
    10400.416000       0.445379
    10411.244100       0.449524
    10422.094800       0.453677
    10432.968200       0.457839
    10443.864200       0.462010
    10454.783100       0.466189
    10465.724800       0.470375
    10476.689400       0.474569
    10487.677000       0.478770
    10498.687700       0.482977
    10509.721500       0.487191
    10520.778500       0.491410
    10531.858900       0.495636
    10542.962600       0.499866
    10554.089700       0.504102
    10565.240400       0.508341
    10576.414600       0.512585
    10587.612500       0.516833
    10598.834100       0.521084
    10610.079600       0.525338
    10621.348900       0.529595
    10632.642200       0.533854
    10643.959600       0.538115
    10655.301000       0.542377
    10666.666700       0.546641
    10678.056600       0.550905
    10689.470900       0.555170
    10700.909600       0.559434
    10712.372800       0.563699
    10723.860600       0.567962
    10735.373100       0.572224
    10746.910300       0.576484
    10758.472300       0.580743
    10770.059200       0.584999
    10781.671200       0.589252
    10793.308100       0.593502
    10804.970300       0.597749
    10816.657700       0.601991
    10828.370300       0.606229
    10840.108400       0.610462
    10851.871900       0.614690
    10863.661100       0.618913
    10875.475800       0.623129
    10887.316300       0.627339
    10899.182600       0.631543
    10911.074700       0.635739
    10922.992900       0.639927
    10934.937100       0.644108
    10946.907500       0.648280
    10958.904100       0.652443
    10970.927000       0.656597
    10982.976400       0.660741
    10995.052200       0.664876
    11007.154700       0.668999
    11019.283700       0.673113
    11031.439600       0.677215
    11043.622300       0.681305
    11055.832000       0.685383
    11068.068600       0.689449
    11080.332400       0.693502
    11092.623400       0.697542
    11104.941700       0.701568
    11117.287400       0.705580
    11129.660500       0.709578
    11142.061300       0.713561
    11154.489700       0.717529
    11166.945800       0.721481
    11179.429800       0.725418
    11191.941800       0.729338
    11204.481800       0.733241
    11217.049900       0.737128
    11229.646300       0.740996
    11242.270900       0.744847
    11254.924000       0.748680
    11267.605600       0.752494
    11280.315800       0.756290
    11293.054800       0.760066
    11305.822500       0.763822
    11318.619100       0.767558
    11331.444800       0.771274
    11344.299500       0.774969
    11357.183400       0.778643
    11370.096600       0.782295
    11383.039300       0.785926
    11396.011400       0.789534
    11409.013100       0.793120
    11422.044500       0.796683
    11435.105800       0.800223
    11448.196900       0.803740
    11461.318100       0.807232
    11474.469300       0.810700
    11487.650800       0.814144
    11500.862600       0.817563
    11514.104800       0.820957
    11527.377500       0.824326
    11540.680900       0.827668
    11554.015000       0.830985
    11567.380000       0.834275
    11580.775900       0.837539
    11594.202900       0.840775
    11607.661100       0.843985
    11621.150500       0.847166
    11634.671300       0.850320
    11648.223600       0.853446
    11661.807600       0.856544
    11675.423200       0.859612
    11689.070700       0.862653
    11702.750100       0.865663
    11716.461600       0.868645
    11730.205300       0.871596
    11743.981200       0.874518
    11757.789500       0.877410
    11771.630400       0.880271
    11785.503800       0.883102
    11799.410000       0.885901
    11813.349100       0.888670
    11827.321100       0.891408
    11841.326200       0.894113
    11855.364600       0.896788
    11869.436200       0.899430
    11883.541300       0.902040
    11897.680000       0.904618
    11911.852300       0.907163
    11926.058400       0.909676
    11940.298500       0.912156
    11954.572600       0.914603
    11968.880900       0.917016
    11983.223500       0.919396
    11997.600500       0.921743
    12012.012000       0.924057
    12026.458200       0.926336
    12040.939200       0.928581
    12055.455100       0.930793
    12070.006000       0.932970
    12084.592100       0.935113
    12099.213600       0.937221
    12113.870400       0.939295
    12128.562800       0.941335
    12143.290800       0.943339
    12158.054700       0.945309
    12172.854500       0.947244
    12187.690400       0.949144
    12202.562500       0.951009
    12217.471000       0.952839
    12232.415900       0.954633
    12247.397400       0.956392
    12262.415700       0.958116
    12277.470800       0.959805
    12292.563000       0.961458
    12307.692300       0.963076
    12322.858900       0.964659
    12338.062900       0.966206
    12353.304500       0.967718
    12368.583800       0.969194
    12383.900900       0.970634
    12399.256000       0.972039
    12414.649300       0.973409
    12430.080800       0.974743
    12445.550700       0.976042
    12461.059200       0.977306
    12476.606400       0.978534
    12492.192400       0.979727
    12507.817400       0.980884
    12523.481500       0.982007
    12539.185000       0.983094
    12554.927800       0.984146
    12570.710200       0.985163
    12586.532400       0.986145
    12602.394500       0.987093
    12618.296500       0.988005
    12634.238800       0.988883
    12650.221400       0.989727
    12666.244500       0.990536
    12682.308200       0.991310
    12698.412700       0.992051
    12714.558200       0.992757
    12730.744700       0.993429
    12746.972600       0.994068
    12763.241900       0.994673
    12779.552700       0.995244
    12795.905300       0.995782
    12812.299800       0.996287
    12828.736400       0.996758
    12845.215200       0.997197
    12861.736300       0.997603
    12878.300100       0.997977
    12894.906500       0.998318
    12911.555800       0.998628
    12928.248200       0.998905
    12944.983800       0.999150
    12961.762800       0.999364
    12978.585300       0.999547
    12995.451600       0.999699
    13012.361700       0.999820
    13029.316000       0.999910
    13046.314400       0.999970
    13063.357300       1.000000
    13080.444700       1.000000
    13097.576900       0.999970
    13114.754100       0.999911
    13131.976400       0.999823
    13149.243900       0.999706
    13166.556900       0.999561
    13183.915600       0.999387
    13201.320100       0.999185
    13218.770700       0.998956
    13236.267400       0.998699
    13253.810500       0.998415
    13271.400100       0.998104
    13289.036500       0.997767
    13306.719900       0.997404
    13324.450400       0.997015
    13342.228200       0.996600
    13360.053400       0.996160
    13377.926400       0.995695
    13395.847300       0.995205
    13413.816200       0.994691
    13431.833400       0.994153
    13449.899100       0.993592
    13468.013500       0.993008
    13486.176700       0.992400
    13504.388900       0.991771
    13522.650400       0.991119
    13540.961400       0.990445
    13559.322000       0.989750
    13577.732500       0.989033
    13596.193100       0.988296
    13614.703900       0.987539
    13633.265200       0.986762
    13651.877100       0.985965
    13670.540000       0.985149
    13689.253900       0.984315
    13708.019200       0.983461
    13726.836000       0.982590
    13745.704500       0.981702
    13764.624900       0.980795
    13783.597500       0.979873
    13802.622500       0.978933
    13821.700100       0.977978
    13840.830400       0.977007
    13860.013900       0.976021
    13879.250500       0.975020
    13898.540700       0.974005
    13917.884500       0.972975
    13937.282200       0.971932
    13956.734100       0.970876
    13976.240400       0.969807
    13995.801300       0.968726
    14015.417000       0.967633
    14035.087700       0.966528
    14054.813800       0.965412
    14074.595400       0.964285
    14094.432700       0.963149
    14114.326000       0.962002
    14134.275600       0.960846
    14154.281700       0.959681
    14174.344400       0.958507
    14194.464200       0.957325
    14214.641100       0.956135
    14234.875400       0.954938
    14255.167500       0.953734
    14275.517500       0.952524
    14295.925700       0.951307
    14316.392300       0.950085
    14336.917600       0.948858
    14357.501800       0.947626
    14378.145200       0.946389
    14398.848100       0.945148
    14419.610700       0.943904
    14440.433200       0.942656
    14461.316000       0.941406
    14482.259200       0.940153
    14503.263200       0.938899
    14524.328200       0.937643
    14545.454500       0.936385
    14566.642400       0.935127
    14587.892000       0.933869
    14609.203800       0.932610
    14630.577900       0.931352
    14652.014700       0.930095
    14673.514300       0.928839
    14695.077100       0.927585
    14716.703500       0.926332
    14738.393500       0.925082
    14760.147600       0.923835
    14781.966000       0.922590
    14803.849000       0.921349
    14825.796900       0.920112
    14847.809900       0.918880
    14869.888500       0.917651
    14892.032800       0.916428
    14914.243100       0.915210
    14936.519800       0.913997
    14958.863100       0.912791
    14981.273400       0.911590
    15003.750900       0.910396
    15026.296000       0.909210
    15048.909000       0.908030
    15071.590100       0.906858
    15094.339600       0.905694
    15117.158000       0.904538
    15140.045400       0.903390
    15163.002300       0.902252
    15186.028900       0.901122
    15209.125500       0.900002
    15232.292500       0.898891
    15255.530100       0.897791
    15278.838800       0.896700
    15302.218800       0.895621
    15325.670500       0.894551
    15349.194200       0.893493
    15372.790200       0.892446
    15396.458800       0.891410
    15420.200500       0.890387
    15444.015400       0.889375
    15467.904100       0.888375
    15491.866800       0.887387
    15515.903800       0.886412
    15540.015500       0.885450
    15564.202300       0.884501
    15588.464500       0.883565
    15612.802500       0.882642
    15637.216600       0.881732
    15661.707100       0.880836
    15686.274500       0.879954
    15710.919100       0.879086
    15735.641200       0.878232
    15760.441300       0.877393
    15785.319700       0.876567
    15810.276700       0.875756
    15835.312700       0.874959
    15860.428200       0.874177
    15885.623500       0.873410
    15910.899000       0.872658
    15936.255000       0.871920
    15961.691900       0.871197
    15987.210200       0.870490
    16012.810200       0.869797
    16038.492400       0.869120
    16064.257000       0.868457
    16090.104600       0.867810
    16116.035500       0.867177
    16142.050000       0.866560
    16168.148700       0.865958
    16194.332000       0.865371
    16220.600200       0.864799
    16246.953700       0.864243
    16273.393000       0.863701
    16299.918500       0.863174
    16326.530600       0.862662
    16353.229800       0.862164
    16380.016400       0.861681
    16406.890900       0.861213
    16433.853700       0.860760
    16460.905300       0.860321
    16488.046200       0.859896
    16515.276600       0.859485
    16542.597200       0.859088
    16570.008300       0.858705
    16597.510400       0.858335
    16625.103900       0.857979
    16652.789300       0.857636
    16680.567100       0.857307
    16708.437800       0.856990
    16736.401700       0.856686
    16764.459300       0.856394
    16792.611300       0.856114
    16820.857900       0.855847
    16849.199700       0.855591
    16877.637100       0.855346
    16906.170800       0.855113
    16934.801000       0.854890
    16963.528400       0.854678
    16992.353400       0.854476
    17021.276600       0.854284
    17050.298400       0.854101
    17079.419300       0.853928
    17108.639900       0.853764
    17137.960600       0.853608
    17167.382000       0.853460
    17196.904600       0.853320
    17226.528900       0.853187
    17256.255400       0.853061
    17286.084700       0.852942
