29,   29, MVIRI VIS channel from srf_MET7_2001078_2001079_1801-Release_S10EE_10.dat
Number of data points:
793
Wavenumber (cm-1)   Filter response
     8442.380800       0.000000
     8449.514200       0.000000
     8456.659600       0.000004
     8463.817200       0.000053
     8470.986900       0.000157
     8478.168700       0.000314
     8485.362700       0.000523
     8492.569000       0.000782
     8499.787500       0.001090
     8507.018300       0.001446
     8514.261400       0.001847
     8521.516800       0.002293
     8528.784600       0.002782
     8536.064900       0.003314
     8543.357500       0.003886
     8550.662700       0.004499
     8557.980300       0.005150
     8565.310500       0.005840
     8572.653200       0.006566
     8580.008600       0.007328
     8587.376600       0.008125
     8594.757200       0.008956
     8602.150500       0.009820
     8609.556600       0.010717
     8616.975400       0.011645
     8624.407100       0.012604
     8631.851500       0.013594
     8639.308900       0.014612
     8646.779100       0.015660
     8654.262200       0.016736
     8661.758300       0.017840
     8669.267400       0.018970
     8676.789600       0.020127
     8684.324800       0.021311
     8691.873100       0.022519
     8699.434500       0.023753
     8707.009100       0.025012
     8714.596900       0.026295
     8722.198000       0.027602
     8729.812300       0.028932
     8737.439900       0.030286
     8745.080900       0.031662
     8752.735200       0.033061
     8760.403000       0.034482
     8768.084200       0.035926
     8775.778900       0.037391
     8783.487000       0.038878
     8791.208800       0.040386
     8798.944100       0.041916
     8806.693100       0.043466
     8814.455700       0.045038
     8822.232000       0.046630
     8830.022100       0.048243
     8837.825900       0.049877
     8845.643500       0.051531
     8853.475000       0.053205
     8861.320300       0.054899
     8869.179600       0.056614
     8877.052800       0.058349
     8884.940000       0.060104
     8892.841300       0.061879
     8900.756600       0.063675
     8908.686000       0.065490
     8916.629500       0.067325
     8924.587200       0.069181
     8932.559200       0.071057
     8940.545400       0.072953
     8948.545900       0.074869
     8956.560700       0.076805
     8964.589900       0.078761
     8972.633500       0.080738
     8980.691500       0.082735
     8988.764000       0.084753
     8996.851100       0.086791
     9004.952700       0.088850
     9013.068900       0.090929
     9021.199800       0.093029
     9029.345400       0.095150
     9037.505600       0.097291
     9045.680700       0.099454
     9053.870500       0.101637
     9062.075200       0.103842
     9070.294800       0.106068
     9078.529300       0.108315
     9086.778700       0.110584
     9095.043200       0.112874
     9103.322700       0.115186
     9111.617300       0.117519
     9119.927000       0.119874
     9128.251900       0.122251
     9136.592100       0.124651
     9144.947400       0.127072
     9153.318100       0.129515
     9161.704100       0.131980
     9170.105500       0.134468
     9178.522300       0.136979
     9186.954500       0.139511
     9195.402300       0.142067
     9203.865600       0.144645
     9212.344500       0.147246
     9220.839100       0.149870
     9229.349300       0.152516
     9237.875300       0.155185
     9246.417000       0.157878
     9254.974500       0.160594
     9263.547900       0.163332
     9272.137200       0.166094
     9280.742500       0.168880
     9289.363700       0.171688
     9298.000900       0.174520
     9306.654300       0.177375
     9315.323700       0.180254
     9324.009300       0.183156
     9332.711200       0.186082
     9341.429200       0.189031
     9350.163600       0.192004
     9358.914400       0.195000
     9367.681500       0.198020
     9376.465100       0.201063
     9385.265100       0.204129
     9394.081700       0.207220
     9402.914900       0.210333
     9411.764700       0.213471
     9420.631200       0.216631
     9429.514400       0.219815
     9438.414300       0.223023
     9447.331100       0.226253
     9456.264800       0.229507
     9465.215300       0.232785
     9474.182900       0.236085
     9483.167400       0.239408
     9492.169000       0.242755
     9501.187600       0.246124
     9510.223500       0.249517
     9519.276500       0.252931
     9528.346800       0.256369
     9537.434400       0.259829
     9546.539400       0.263312
     9555.661700       0.266817
     9564.801500       0.270344
     9573.958800       0.273893
     9583.133700       0.277464
     9592.326100       0.281057
     9601.536200       0.284671
     9610.764100       0.288307
     9620.009600       0.291964
     9629.273000       0.295643
     9638.554200       0.299342
     9647.853400       0.303062
     9657.170400       0.306803
     9666.505600       0.310564
     9675.858700       0.314345
     9685.230000       0.318146
     9694.619500       0.321968
     9704.027200       0.325808
     9713.453100       0.329668
     9722.897400       0.333547
     9732.360100       0.337445
     9741.841200       0.341362
     9751.340800       0.345297
     9760.859000       0.349250
     9770.395700       0.353221
     9779.951100       0.357210
     9789.525200       0.361216
     9799.118100       0.365239
     9808.729800       0.369279
     9818.360300       0.373335
     9828.009800       0.377408
     9837.678300       0.381496
     9847.365800       0.385601
     9857.072400       0.389720
     9866.798200       0.393854
     9876.543200       0.398003
     9886.307500       0.402167
     9896.091000       0.406344
     9905.894000       0.410535
     9915.716400       0.414740
     9925.558300       0.418957
     9935.419800       0.423188
     9945.300800       0.427430
     9955.201600       0.431684
     9965.122100       0.435951
     9975.062300       0.440228
     9985.022500       0.444516
     9995.002500       0.448815
    10005.002500       0.453123
    10015.022500       0.457442
    10025.062700       0.461770
    10035.122900       0.466106
    10045.203400       0.470451
    10055.304200       0.474805
    10065.425300       0.479166
    10075.566800       0.483535
    10085.728700       0.487910
    10095.911200       0.492293
    10106.114200       0.496681
    10116.337900       0.501075
    10126.582300       0.505474
    10136.847400       0.509878
    10147.133400       0.514287
    10157.440300       0.518699
    10167.768200       0.523115
    10178.117000       0.527535
    10188.487000       0.531957
    10198.878100       0.536381
    10209.290500       0.540808
    10219.724100       0.545235
    10230.179000       0.549664
    10240.655400       0.554093
    10251.153300       0.558522
    10261.672700       0.562951
    10272.213700       0.567379
    10282.776300       0.571806
    10293.360800       0.576231
    10303.967000       0.580654
    10314.595200       0.585074
    10325.245200       0.589492
    10335.917300       0.593905
    10346.611500       0.598315
    10357.327800       0.602720
    10368.066400       0.607121
    10378.827200       0.611516
    10389.610400       0.615905
    10400.416000       0.620288
    10411.244100       0.624664
    10422.094800       0.629033
    10432.968200       0.633394
    10443.864200       0.637748
    10454.783100       0.642092
    10465.724800       0.646428
    10476.689400       0.650754
    10487.677000       0.655070
    10498.687700       0.659376
    10509.721500       0.663671
    10520.778500       0.667954
    10531.858900       0.672226
    10542.962600       0.676486
    10554.089700       0.680733
    10565.240400       0.684967
    10576.414600       0.689187
    10587.612500       0.693393
    10598.834100       0.697586
    10610.079600       0.701762
    10621.348900       0.705924
    10632.642200       0.710070
    10643.959600       0.714200
    10655.301000       0.718313
    10666.666700       0.722408
    10678.056600       0.726487
    10689.470900       0.730547
    10700.909600       0.734590
    10712.372800       0.738613
    10723.860600       0.742617
    10735.373100       0.746601
    10746.910300       0.750566
    10758.472300       0.754510
    10770.059200       0.758433
    10781.671200       0.762334
    10793.308100       0.766215
    10804.970300       0.770073
    10816.657700       0.773908
    10828.370300       0.777721
    10840.108400       0.781510
    10851.871900       0.785276
    10863.661100       0.789018
    10875.475800       0.792736
    10887.316300       0.796428
    10899.182600       0.800096
    10911.074700       0.803738
    10922.992900       0.807354
    10934.937100       0.810944
    10946.907500       0.814507
    10958.904100       0.818043
    10970.927000       0.821553
    10982.976400       0.825034
    10995.052200       0.828488
    11007.154700       0.831913
    11019.283700       0.835309
    11031.439600       0.838677
    11043.622300       0.842016
    11055.832000       0.845325
    11068.068600       0.848604
    11080.332400       0.851853
    11092.623400       0.855071
    11104.941700       0.858259
    11117.287400       0.861415
    11129.660500       0.864541
    11142.061300       0.867635
    11154.489700       0.870696
    11166.945800       0.873726
    11179.429800       0.876723
    11191.941800       0.879688
    11204.481800       0.882620
    11217.049900       0.885519
    11229.646300       0.888384
    11242.270900       0.891216
    11254.924000       0.894014
    11267.605600       0.896777
    11280.315800       0.899507
    11293.054800       0.902202
    11305.822500       0.904862
    11318.619100       0.907488
    11331.444800       0.910079
    11344.299500       0.912634
    11357.183400       0.915154
    11370.096600       0.917638
    11383.039300       0.920087
    11396.011400       0.922499
    11409.013100       0.924876
    11422.044500       0.927216
    11435.105800       0.929520
    11448.196900       0.931788
    11461.318100       0.934019
    11474.469300       0.936213
    11487.650800       0.938370
    11500.862600       0.940491
    11514.104800       0.942574
    11527.377500       0.944621
    11540.680900       0.946629
    11554.015000       0.948601
    11567.380000       0.950536
    11580.775900       0.952432
    11594.202900       0.954292
    11607.661100       0.956113
    11621.150500       0.957898
    11634.671300       0.959644
    11648.223600       0.961353
    11661.807600       0.963024
    11675.423200       0.964657
    11689.070700       0.966253
    11702.750100       0.967811
    11716.461600       0.969331
    11730.205300       0.970813
    11743.981200       0.972257
    11757.789500       0.973664
    11771.630400       0.975033
    11785.503800       0.976364
    11799.410000       0.977658
    11813.349100       0.978914
    11827.321100       0.980133
    11841.326200       0.981313
    11855.364600       0.982457
    11869.436200       0.983563
    11883.541300       0.984632
    11897.680000       0.985664
    11911.852300       0.986658
    11926.058400       0.987616
    11940.298500       0.988537
    11954.572600       0.989420
    11968.880900       0.990267
    11983.223500       0.991078
    11997.600500       0.991852
    12012.012000       0.992590
    12026.458200       0.993292
    12040.939200       0.993957
    12055.455100       0.994587
    12070.006000       0.995181
    12084.592100       0.995739
    12099.213600       0.996262
    12113.870400       0.996750
    12128.562800       0.997203
    12143.290800       0.997621
    12158.054700       0.998005
    12172.854500       0.998354
    12187.690400       0.998669
    12202.562500       0.998950
    12217.471000       0.999197
    12232.415900       0.999410
    12247.397400       0.999590
    12262.415700       0.999738
    12277.470800       0.999852
    12292.563000       0.999933
    12307.692300       0.999983
    12322.858900       1.000000
    12338.062900       0.999985
    12353.304500       0.999939
    12368.583800       0.999862
    12383.900900       0.999753
    12399.256000       0.999614
    12414.649300       0.999445
    12430.080800       0.999245
    12445.550700       0.999016
    12461.059200       0.998757
    12476.606400       0.998469
    12492.192400       0.998152
    12507.817400       0.997806
    12523.481500       0.997432
    12539.185000       0.997030
    12554.927800       0.996601
    12570.710200       0.996144
    12586.532400       0.995661
    12602.394500       0.995151
    12618.296500       0.994614
    12634.238800       0.994052
    12650.221400       0.993464
    12666.244500       0.992852
    12682.308200       0.992214
    12698.412700       0.991552
    12714.558200       0.990866
    12730.744700       0.990157
    12746.972600       0.989424
    12763.241900       0.988668
    12779.552700       0.987890
    12795.905300       0.987090
    12812.299800       0.986268
    12828.736400       0.985425
    12845.215200       0.984561
    12861.736300       0.983676
    12878.300100       0.982772
    12894.906500       0.981847
    12911.555800       0.980904
    12928.248200       0.979942
    12944.983800       0.978961
    12961.762800       0.977962
    12978.585300       0.976946
    12995.451600       0.975912
    13012.361700       0.974862
    13029.316000       0.973796
    13046.314400       0.972713
    13063.357300       0.971616
    13080.444700       0.970503
    13097.576900       0.969376
    13114.754100       0.968234
    13131.976400       0.967079
    13149.243900       0.965911
    13166.556900       0.964730
    13183.915600       0.963537
    13201.320100       0.962331
    13218.770700       0.961115
    13236.267400       0.959887
    13253.810500       0.958649
    13271.400100       0.957401
    13289.036500       0.956143
    13306.719900       0.954876
    13324.450400       0.953600
    13342.228200       0.952316
    13360.053400       0.951024
    13377.926400       0.949725
    13395.847300       0.948419
    13413.816200       0.947106
    13431.833400       0.945787
    13449.899100       0.944463
    13468.013500       0.943133
    13486.176700       0.941799
    13504.388900       0.940461
    13522.650400       0.939119
    13540.961400       0.937773
    13559.322000       0.936425
    13577.732500       0.935074
    13596.193100       0.933722
    13614.703900       0.932367
    13633.265200       0.931012
    13651.877100       0.929656
    13670.540000       0.928300
    13689.253900       0.926943
    13708.019200       0.925588
    13726.836000       0.924234
    13745.704500       0.922881
    13764.624900       0.921530
    13783.597500       0.920181
    13802.622500       0.918835
    13821.700100       0.917493
    13840.830400       0.916154
    13860.013900       0.914819
    13879.250500       0.913488
    13898.540700       0.912163
    13917.884500       0.910842
    13937.282200       0.909527
    13956.734100       0.908219
    13976.240400       0.906917
    13995.801300       0.905621
    14015.417000       0.904333
    14035.087700       0.903053
    14054.813800       0.901780
    14074.595400       0.900516
    14094.432700       0.899261
    14114.326000       0.898015
    14134.275600       0.896778
    14154.281700       0.895552
    14174.344400       0.894335
    14194.464200       0.893129
    14214.641100       0.891934
    14234.875400       0.890750
    14255.167500       0.889578
    14275.517500       0.888418
    14295.925700       0.887270
    14316.392300       0.886134
    14336.917600       0.885012
    14357.501800       0.883903
    14378.145200       0.882807
    14398.848100       0.881725
    14419.610700       0.880657
    14440.433200       0.879604
    14461.316000       0.878565
    14482.259200       0.877541
    14503.263200       0.876533
    14524.328200       0.875539
    14545.454500       0.874562
    14566.642400       0.873601
    14587.892000       0.872656
    14609.203800       0.871727
    14630.577900       0.870815
    14652.014700       0.869920
    14673.514300       0.869043
    14695.077100       0.868182
    14716.703500       0.867339
    14738.393500       0.866514
    14760.147600       0.865707
    14781.966000       0.864918
    14803.849000       0.864148
    14825.796900       0.863395
    14847.809900       0.862662
    14869.888500       0.861947
    14892.032800       0.861252
    14914.243100       0.860575
    14936.519800       0.859917
    14958.863100       0.859279
    14981.273400       0.858660
    15003.750900       0.858061
    15026.296000       0.857482
    15048.909000       0.856922
    15071.590100       0.856382
    15094.339600       0.855862
    15117.158000       0.855361
    15140.045400       0.854881
    15163.002300       0.854421
    15186.028900       0.853981
    15209.125500       0.853561
    15232.292500       0.853161
    15255.530100       0.852781
    15278.838800       0.852421
    15302.218800       0.852082
    15325.670500       0.851762
    15349.194200       0.851463
    15372.790200       0.851183
    15396.458800       0.850924
    15420.200500       0.850685
    15444.015400       0.850465
    15467.904100       0.850265
    15491.866800       0.850085
    15515.903800       0.849925
    15540.015500       0.849784
    15564.202300       0.849662
    15588.464500       0.849560
    15612.802500       0.849477
    15637.216600       0.849413
    15661.707100       0.849367
    15686.274500       0.849341
    15710.919100       0.849333
    15735.641200       0.849343
    15760.441300       0.849372
    15785.319700       0.849418
    15810.276700       0.849482
    15835.312700       0.849564
    15860.428200       0.849663
    15885.623500       0.849779
    15910.899000       0.849912
    15936.255000       0.850062
    15961.691900       0.850228
    15987.210200       0.850410
    16012.810200       0.850607
    16038.492400       0.850820
    16064.257000       0.851048
    16090.104600       0.851291
    16116.035500       0.851548
    16142.050000       0.851820
    16168.148700       0.852105
    16194.332000       0.852404
    16220.600200       0.852715
    16246.953700       0.853040
    16273.393000       0.853376
    16299.918500       0.853725
    16326.530600       0.854085
    16353.229800       0.854456
    16380.016400       0.854838
    16406.890900       0.855229
    16433.853700       0.855631
    16460.905300       0.856042
    16488.046200       0.856462
    16515.276600       0.856890
    16542.597200       0.857325
    16570.008300       0.857769
    16597.510400       0.858219
    16625.103900       0.858675
    16652.789300       0.859137
    16680.567100       0.859605
    16708.437800       0.860077
    16736.401700       0.860553
    16764.459300       0.861033
    16792.611300       0.861516
    16820.857900       0.862001
    16849.199700       0.862489
    16877.637100       0.862977
    16906.170800       0.863467
    16934.801000       0.863956
    16963.528400       0.864445
    16992.353400       0.864932
    17021.276600       0.865418
    17050.298400       0.865901
    17079.419300       0.866381
    17108.639900       0.866857
    17137.960600       0.867329
    17167.382000       0.867795
    17196.904600       0.868256
    17226.528900       0.868710
    17256.255400       0.869156
    17286.084700       0.869595
    17316.017300       0.870025
    17346.053800       0.870446
    17376.194600       0.870856
    17406.440400       0.871255
    17436.791600       0.871643
    17467.248900       0.872019
    17497.812800       0.872381
    17528.483800       0.872729
    17559.262500       0.873062
    17590.149500       0.873380
    17621.145400       0.873682
    17652.250700       0.873967
    17683.466000       0.874233
