19,   19, MVIRI VIS channel from srf_MET3_1991078_1991079_1801-Release_S10EE_10.dat
Number of data points:
743
Wavenumber (cm-1)   Filter response
     8814.455700       0.000000
     8822.232000       0.000000
     8830.022100       0.000712
     8837.825900       0.002987
     8845.643500       0.005283
     8853.475000       0.007596
     8861.320300       0.009927
     8869.179600       0.012274
     8877.052800       0.014637
     8884.940000       0.017013
     8892.841300       0.019403
     8900.756600       0.021805
     8908.686000       0.024218
     8916.629500       0.026641
     8924.587200       0.029075
     8932.559200       0.031517
     8940.545400       0.033968
     8948.545900       0.036426
     8956.560700       0.038892
     8964.589900       0.041364
     8972.633500       0.043842
     8980.691500       0.046327
     8988.764000       0.048816
     8996.851100       0.051310
     9004.952700       0.053809
     9013.068900       0.056312
     9021.199800       0.058819
     9029.345400       0.061330
     9037.505600       0.063843
     9045.680700       0.066361
     9053.870500       0.068881
     9062.075200       0.071405
     9070.294800       0.073932
     9078.529300       0.076461
     9086.778700       0.078993
     9095.043200       0.081528
     9103.322700       0.084066
     9111.617300       0.086606
     9119.927000       0.089149
     9128.251900       0.091696
     9136.592100       0.094245
     9144.947400       0.096797
     9153.318100       0.099353
     9161.704100       0.101911
     9170.105500       0.104474
     9178.522300       0.107040
     9186.954500       0.109609
     9195.402300       0.112183
     9203.865600       0.114760
     9212.344500       0.117343
     9220.839100       0.119930
     9229.349300       0.122521
     9237.875300       0.125118
     9246.417000       0.127720
     9254.974500       0.130327
     9263.547900       0.132941
     9272.137200       0.135560
     9280.742500       0.138186
     9289.363700       0.140819
     9298.000900       0.143458
     9306.654300       0.146105
     9315.323700       0.148759
     9324.009300       0.151421
     9332.711200       0.154092
     9341.429200       0.156770
     9350.163600       0.159458
     9358.914400       0.162154
     9367.681500       0.164860
     9376.465100       0.167575
     9385.265100       0.170300
     9394.081700       0.173036
     9402.914900       0.175782
     9411.764700       0.178539
     9420.631200       0.181307
     9429.514400       0.184086
     9438.414300       0.186878
     9447.331100       0.189681
     9456.264800       0.192497
     9465.215300       0.195325
     9474.182900       0.198166
     9483.167400       0.201021
     9492.169000       0.203888
     9501.187600       0.206770
     9510.223500       0.209665
     9519.276500       0.212575
     9528.346800       0.215499
     9537.434400       0.218438
     9546.539400       0.221391
     9555.661700       0.224360
     9564.801500       0.227344
     9573.958800       0.230344
     9583.133700       0.233360
     9592.326100       0.236392
     9601.536200       0.239440
     9610.764100       0.242504
     9620.009600       0.245586
     9629.273000       0.248684
     9638.554200       0.251798
     9647.853400       0.254930
     9657.170400       0.258079
     9666.505600       0.261246
     9675.858700       0.264430
     9685.230000       0.267632
     9694.619500       0.270851
     9704.027200       0.274089
     9713.453100       0.277344
     9722.897400       0.280618
     9732.360100       0.283909
     9741.841200       0.287219
     9751.340800       0.290547
     9760.859000       0.293894
     9770.395700       0.297259
     9779.951100       0.300642
     9789.525200       0.304043
     9799.118100       0.307464
     9808.729800       0.310902
     9818.360300       0.314359
     9828.009800       0.317835
     9837.678300       0.321329
     9847.365800       0.324841
     9857.072400       0.328372
     9866.798200       0.331921
     9876.543200       0.335488
     9886.307500       0.339074
     9896.091000       0.342678
     9905.894000       0.346299
     9915.716400       0.349939
     9925.558300       0.353596
     9935.419800       0.357272
     9945.300800       0.360965
     9955.201600       0.364675
     9965.122100       0.368403
     9975.062300       0.372147
     9985.022500       0.375910
     9995.002500       0.379689
    10005.002500       0.383484
    10015.022500       0.387296
    10025.062700       0.391124
    10035.122900       0.394969
    10045.203400       0.398829
    10055.304200       0.402706
    10065.425300       0.406597
    10075.566800       0.410504
    10085.728700       0.414426
    10095.911200       0.418363
    10106.114200       0.422315
    10116.337900       0.426280
    10126.582300       0.430260
    10136.847400       0.434253
    10147.133400       0.438261
    10157.440300       0.442281
    10167.768200       0.446313
    10178.117000       0.450359
    10188.487000       0.454417
    10198.878100       0.458487
    10209.290500       0.462568
    10219.724100       0.466661
    10230.179000       0.470764
    10240.655400       0.474879
    10251.153300       0.479003
    10261.672700       0.483138
    10272.213700       0.487282
    10282.776300       0.491435
    10293.360800       0.495597
    10303.967000       0.499768
    10314.595200       0.503947
    10325.245200       0.508133
    10335.917300       0.512327
    10346.611500       0.516527
    10357.327800       0.520735
    10368.066400       0.524948
    10378.827200       0.529167
    10389.610400       0.533392
    10400.416000       0.537621
    10411.244100       0.541855
    10422.094800       0.546092
    10432.968200       0.550334
    10443.864200       0.554579
    10454.783100       0.558826
    10465.724800       0.563076
    10476.689400       0.567328
    10487.677000       0.571581
    10498.687700       0.575836
    10509.721500       0.580090
    10520.778500       0.584345
    10531.858900       0.588600
    10542.962600       0.592854
    10554.089700       0.597107
    10565.240400       0.601358
    10576.414600       0.605607
    10587.612500       0.609853
    10598.834100       0.614097
    10610.079600       0.618337
    10621.348900       0.622572
    10632.642200       0.626804
    10643.959600       0.631031
    10655.301000       0.635252
    10666.666700       0.639467
    10678.056600       0.643676
    10689.470900       0.647878
    10700.909600       0.652074
    10712.372800       0.656261
    10723.860600       0.660441
    10735.373100       0.664611
    10746.910300       0.668773
    10758.472300       0.672925
    10770.059200       0.677067
    10781.671200       0.681199
    10793.308100       0.685320
    10804.970300       0.689429
    10816.657700       0.693527
    10828.370300       0.697612
    10840.108400       0.701685
    10851.871900       0.705744
    10863.661100       0.709790
    10875.475800       0.713821
    10887.316300       0.717838
    10899.182600       0.721840
    10911.074700       0.725827
    10922.992900       0.729798
    10934.937100       0.733752
    10946.907500       0.737690
    10958.904100       0.741610
    10970.927000       0.745513
    10982.976400       0.749398
    10995.052200       0.753264
    11007.154700       0.757112
    11019.283700       0.760940
    11031.439600       0.764748
    11043.622300       0.768536
    11055.832000       0.772304
    11068.068600       0.776050
    11080.332400       0.779776
    11092.623400       0.783479
    11104.941700       0.787161
    11117.287400       0.790820
    11129.660500       0.794456
    11142.061300       0.798068
    11154.489700       0.801657
    11166.945800       0.805222
    11179.429800       0.808762
    11191.941800       0.812278
    11204.481800       0.815768
    11217.049900       0.819233
    11229.646300       0.822672
    11242.270900       0.826085
    11254.924000       0.829471
    11267.605600       0.832831
    11280.315800       0.836163
    11293.054800       0.839467
    11305.822500       0.842744
    11318.619100       0.845993
    11331.444800       0.849213
    11344.299500       0.852404
    11357.183400       0.855566
    11370.096600       0.858699
    11383.039300       0.861802
    11396.011400       0.864874
    11409.013100       0.867917
    11422.044500       0.870929
    11435.105800       0.873911
    11448.196900       0.876861
    11461.318100       0.879780
    11474.469300       0.882667
    11487.650800       0.885523
    11500.862600       0.888346
    11514.104800       0.891137
    11527.377500       0.893896
    11540.680900       0.896622
    11554.015000       0.899315
    11567.380000       0.901974
    11580.775900       0.904601
    11594.202900       0.907193
    11607.661100       0.909752
    11621.150500       0.912277
    11634.671300       0.914768
    11648.223600       0.917225
    11661.807600       0.919647
    11675.423200       0.922034
    11689.070700       0.924386
    11702.750100       0.926704
    11716.461600       0.928987
    11730.205300       0.931234
    11743.981200       0.933446
    11757.789500       0.935622
    11771.630400       0.937763
    11785.503800       0.939868
    11799.410000       0.941937
    11813.349100       0.943970
    11827.321100       0.945967
    11841.326200       0.947928
    11855.364600       0.949853
    11869.436200       0.951742
    11883.541300       0.953594
    11897.680000       0.955410
    11911.852300       0.957189
    11926.058400       0.958932
    11940.298500       0.960638
    11954.572600       0.962307
    11968.880900       0.963940
    11983.223500       0.965536
    11997.600500       0.967096
    12012.012000       0.968618
    12026.458200       0.970104
    12040.939200       0.971553
    12055.455100       0.972966
    12070.006000       0.974342
    12084.592100       0.975681
    12099.213600       0.976983
    12113.870400       0.978248
    12128.562800       0.979477
    12143.290800       0.980670
    12158.054700       0.981825
    12172.854500       0.982944
    12187.690400       0.984027
    12202.562500       0.985073
    12217.471000       0.986083
    12232.415900       0.987056
    12247.397400       0.987994
    12262.415700       0.988895
    12277.470800       0.989760
    12292.563000       0.990589
    12307.692300       0.991382
    12322.858900       0.992139
    12338.062900       0.992861
    12353.304500       0.993547
    12368.583800       0.994197
    12383.900900       0.994812
    12399.256000       0.995392
    12414.649300       0.995937
    12430.080800       0.996447
    12445.550700       0.996922
    12461.059200       0.997362
    12476.606400       0.997768
    12492.192400       0.998139
    12507.817400       0.998476
    12523.481500       0.998779
    12539.185000       0.999048
    12554.927800       0.999284
    12570.710200       0.999485
    12586.532400       0.999654
    12602.394500       0.999789
    12618.296500       0.999891
    12634.238800       0.999960
    12650.221400       0.999996
    12666.244500       1.000000
    12682.308200       0.999972
    12698.412700       0.999911
    12714.558200       0.999819
    12730.744700       0.999695
    12746.972600       0.999539
    12763.241900       0.999353
    12779.552700       0.999135
    12795.905300       0.998886
    12812.299800       0.998607
    12828.736400       0.998298
    12845.215200       0.997958
    12861.736300       0.997588
    12878.300100       0.997189
    12894.906500       0.996760
    12911.555800       0.996303
    12928.248200       0.995816
    12944.983800       0.995300
    12961.762800       0.994756
    12978.585300       0.994184
    12995.451600       0.993584
    13012.361700       0.992956
    13029.316000       0.992301
    13046.314400       0.991619
    13063.357300       0.990910
    13080.444700       0.990174
    13097.576900       0.989411
    13114.754100       0.988623
    13131.976400       0.987808
    13149.243900       0.986969
    13166.556900       0.986103
    13183.915600       0.985213
    13201.320100       0.984298
    13218.770700       0.983358
    13236.267400       0.982394
    13253.810500       0.981407
    13271.400100       0.980395
    13289.036500       0.979360
    13306.719900       0.978302
    13324.450400       0.977221
    13342.228200       0.976118
    13360.053400       0.974992
    13377.926400       0.973845
    13395.847300       0.972675
    13413.816200       0.971484
    13431.833400       0.970272
    13449.899100       0.969039
    13468.013500       0.967786
    13486.176700       0.966512
    13504.388900       0.965218
    13522.650400       0.963904
    13540.961400       0.962571
    13559.322000       0.961219
    13577.732500       0.959847
    13596.193100       0.958457
    13614.703900       0.957049
    13633.265200       0.955623
    13651.877100       0.954179
    13670.540000       0.952717
    13689.253900       0.951238
    13708.019200       0.949742
    13726.836000       0.948229
    13745.704500       0.946700
    13764.624900       0.945155
    13783.597500       0.943594
    13802.622500       0.942017
    13821.700100       0.940425
    13840.830400       0.938818
    13860.013900       0.937196
    13879.250500       0.935559
    13898.540700       0.933908
    13917.884500       0.932244
    13937.282200       0.930565
    13956.734100       0.928873
    13976.240400       0.927167
    13995.801300       0.925449
    14015.417000       0.923718
    14035.087700       0.921974
    14054.813800       0.920218
    14074.595400       0.918450
    14094.432700       0.916670
    14114.326000       0.914879
    14134.275600       0.913077
    14154.281700       0.911263
    14174.344400       0.909439
    14194.464200       0.907604
    14214.641100       0.905758
    14234.875400       0.903903
    14255.167500       0.902037
    14275.517500       0.900162
    14295.925700       0.898278
    14316.392300       0.896384
    14336.917600       0.894481
    14357.501800       0.892570
    14378.145200       0.890649
    14398.848100       0.888721
    14419.610700       0.886784
    14440.433200       0.884839
    14461.316000       0.882886
    14482.259200       0.880926
    14503.263200       0.878958
    14524.328200       0.876983
    14545.454500       0.875001
    14566.642400       0.873013
    14587.892000       0.871017
    14609.203800       0.869015
    14630.577900       0.867006
    14652.014700       0.864992
    14673.514300       0.862971
    14695.077100       0.860945
    14716.703500       0.858912
    14738.393500       0.856875
    14760.147600       0.854832
    14781.966000       0.852783
    14803.849000       0.850730
    14825.796900       0.848671
    14847.809900       0.846608
    14869.888500       0.844540
    14892.032800       0.842467
    14914.243100       0.840390
    14936.519800       0.838309
    14958.863100       0.836224
    14981.273400       0.834134
    15003.750900       0.832041
    15026.296000       0.829944
    15048.909000       0.827842
    15071.590100       0.825738
    15094.339600       0.823630
    15117.158000       0.821518
    15140.045400       0.819403
    15163.002300       0.817285
    15186.028900       0.815163
    15209.125500       0.813039
    15232.292500       0.810911
    15255.530100       0.808780
    15278.838800       0.806647
    15302.218800       0.804511
    15325.670500       0.802372
    15349.194200       0.800230
    15372.790200       0.798086
    15396.458800       0.795939
    15420.200500       0.793789
    15444.015400       0.791637
    15467.904100       0.789483
    15491.866800       0.787326
    15515.903800       0.785167
    15540.015500       0.783006
    15564.202300       0.780842
    15588.464500       0.778676
    15612.802500       0.776507
    15637.216600       0.774337
    15661.707100       0.772164
    15686.274500       0.769989
    15710.919100       0.767812
    15735.641200       0.765632
    15760.441300       0.763451
    15785.319700       0.761267
    15810.276700       0.759081
    15835.312700       0.756893
    15860.428200       0.754702
    15885.623500       0.752510
    15910.899000       0.750315
    15936.255000       0.748118
    15961.691900       0.745918
    15987.210200       0.743717
    16012.810200       0.741512
    16038.492400       0.739306
    16064.257000       0.737097
    16090.104600       0.734886
    16116.035500       0.732672
    16142.050000       0.730456
    16168.148700       0.728237
    16194.332000       0.726016
    16220.600200       0.723792
    16246.953700       0.721565
    16273.393000       0.719335
    16299.918500       0.717103
    16326.530600       0.714868
    16353.229800       0.712630
    16380.016400       0.710389
    16406.890900       0.708145
    16433.853700       0.705898
    16460.905300       0.703648
    16488.046200       0.701394
    16515.276600       0.699138
    16542.597200       0.696877
    16570.008300       0.694614
    16597.510400       0.692347
    16625.103900       0.690076
    16652.789300       0.687802
    16680.567100       0.685524
    16708.437800       0.683242
    16736.401700       0.680956
    16764.459300       0.678666
    16792.611300       0.676372
    16820.857900       0.674074
    16849.199700       0.671772
    16877.637100       0.669465
    16906.170800       0.667154
    16934.801000       0.664838
    16963.528400       0.662518
    16992.353400       0.660193
    17021.276600       0.657863
    17050.298400       0.655529
    17079.419300       0.653189
    17108.639900       0.650845
    17137.960600       0.648495
    17167.382000       0.646140
    17196.904600       0.643780
    17226.528900       0.641414
    17256.255400       0.639043
    17286.084700       0.636666
    17316.017300       0.634284
    17346.053800       0.631896
    17376.194600       0.629501
    17406.440400       0.627101
    17436.791600       0.624695
    17467.248900       0.622283
    17497.812800       0.619864
    17528.483800       0.617440
    17559.262500       0.615008
    17590.149500       0.612570
    17621.145400       0.610126
    17652.250700       0.607675
    17683.466000       0.605218
    17714.791900       0.602753
    17746.228900       0.600282
    17777.777800       0.597803
    17809.439000       0.595318
    17841.213200       0.592825
    17873.101000       0.590325
    17905.103000       0.587818
    17937.219700       0.585304
    17969.451900       0.582782
    18001.800200       0.580252
    18034.265100       0.577715
    18066.847300       0.575171
    18099.547500       0.572619
    18132.366300       0.570059
    18165.304300       0.567491
    18198.362100       0.564915
    18231.540600       0.562332
    18264.840200       0.559740
    18298.261700       0.557141
    18331.805700       0.554533
    18365.472900       0.551918
    18399.264000       0.549294
    18433.179700       0.546662
    18467.220700       0.544022
    18501.387600       0.541374
    18535.681200       0.538717
    18570.102100       0.536053
    18604.651200       0.533380
    18639.329000       0.530698
    18674.136300       0.528008
    18709.073900       0.525310
    18744.142500       0.522604
    18779.342700       0.519889
    18814.675400       0.517166
    18850.141400       0.514435
    18885.741300       0.511695
    18921.475900       0.508947
    18957.346000       0.506191
    18993.352300       0.503426
    19029.495700       0.500653
    19065.776900       0.497872
    19102.196800       0.495083
    19138.756000       0.492286
    19175.455400       0.489480
    19212.295900       0.486666
    19249.278200       0.483845
    19286.403100       0.481015
    19323.671500       0.478177
    19361.084200       0.475332
    19398.642100       0.472478
