84,   84, MVIRI VIS channel from srf_MET7_2008033_2008034_1801-Release_S10EE_10.dat
Number of data points:
793
Wavenumber (cm-1)   Filter response
     8442.380800       0.000000
     8449.514200       0.000000
     8456.659600       0.000004
     8463.817200       0.000056
     8470.986900       0.000165
     8478.168700       0.000329
     8485.362700       0.000548
     8492.569000       0.000819
     8499.787500       0.001141
     8507.018300       0.001513
     8514.261400       0.001933
     8521.516800       0.002399
     8528.784600       0.002911
     8536.064900       0.003467
     8543.357500       0.004065
     8550.662700       0.004706
     8557.980300       0.005387
     8565.310500       0.006107
     8572.653200       0.006866
     8580.008600       0.007663
     8587.376600       0.008495
     8594.757200       0.009364
     8602.150500       0.010266
     8609.556600       0.011203
     8616.975400       0.012172
     8624.407100       0.013173
     8631.851500       0.014206
     8639.308900       0.015270
     8646.779100       0.016363
     8654.262200       0.017486
     8661.758300       0.018638
     8669.267400       0.019817
     8676.789600       0.021024
     8684.324800       0.022258
     8691.873100       0.023519
     8699.434500       0.024805
     8707.009100       0.026118
     8714.596900       0.027455
     8722.198000       0.028817
     8729.812300       0.030203
     8737.439900       0.031613
     8745.080900       0.033047
     8752.735200       0.034505
     8760.403000       0.035985
     8768.084200       0.037488
     8775.778900       0.039013
     8783.487000       0.040561
     8791.208800       0.042131
     8798.944100       0.043723
     8806.693100       0.045337
     8814.455700       0.046971
     8822.232000       0.048628
     8830.022100       0.050305
     8837.825900       0.052004
     8845.643500       0.053724
     8853.475000       0.055464
     8861.320300       0.057226
     8869.179600       0.059008
     8877.052800       0.060811
     8884.940000       0.062634
     8892.841300       0.064478
     8900.756600       0.066343
     8908.686000       0.068229
     8916.629500       0.070134
     8924.587200       0.072061
     8932.559200       0.074008
     8940.545400       0.075976
     8948.545900       0.077964
     8956.560700       0.079973
     8964.589900       0.082003
     8972.633500       0.084053
     8980.691500       0.086124
     8988.764000       0.088216
     8996.851100       0.090329
     9004.952700       0.092463
     9013.068900       0.094618
     9021.199800       0.096794
     9029.345400       0.098991
     9037.505600       0.101210
     9045.680700       0.103450
     9053.870500       0.105711
     9062.075200       0.107994
     9070.294800       0.110299
     9078.529300       0.112625
     9086.778700       0.114973
     9095.043200       0.117343
     9103.322700       0.119734
     9111.617300       0.122148
     9119.927000       0.124584
     9128.251900       0.127042
     9136.592100       0.129523
     9144.947400       0.132026
     9153.318100       0.134551
     9161.704100       0.137099
     9170.105500       0.139670
     9178.522300       0.142264
     9186.954500       0.144880
     9195.402300       0.147519
     9203.865600       0.150181
     9212.344500       0.152867
     9220.839100       0.155575
     9229.349300       0.158307
     9237.875300       0.161062
     9246.417000       0.163840
     9254.974500       0.166641
     9263.547900       0.169466
     9272.137200       0.172315
     9280.742500       0.175187
     9289.363700       0.178082
     9298.000900       0.181001
     9306.654300       0.183944
     9315.323700       0.186910
     9324.009300       0.189900
     9332.711200       0.192914
     9341.429200       0.195951
     9350.163600       0.199012
     9358.914400       0.202097
     9367.681500       0.205206
     9376.465100       0.208338
     9385.265100       0.211494
     9394.081700       0.214673
     9402.914900       0.217876
     9411.764700       0.221103
     9420.631200       0.224353
     9429.514400       0.227627
     9438.414300       0.230924
     9447.331100       0.234244
     9456.264800       0.237588
     9465.215300       0.240956
     9474.182900       0.244346
     9483.167400       0.247759
     9492.169000       0.251195
     9501.187600       0.254655
     9510.223500       0.258137
     9519.276500       0.261642
     9528.346800       0.265170
     9537.434400       0.268720
     9546.539400       0.272292
     9555.661700       0.275887
     9564.801500       0.279503
     9573.958800       0.283142
     9583.133700       0.286802
     9592.326100       0.290484
     9601.536200       0.294188
     9610.764100       0.297912
     9620.009600       0.301658
     9629.273000       0.305425
     9638.554200       0.309213
     9647.853400       0.313021
     9657.170400       0.316849
     9666.505600       0.320698
     9675.858700       0.324567
     9685.230000       0.328455
     9694.619500       0.332362
     9704.027200       0.336289
     9713.453100       0.340235
     9722.897400       0.344200
     9732.360100       0.348183
     9741.841200       0.352184
     9751.340800       0.356203
     9760.859000       0.360240
     9770.395700       0.364295
     9779.951100       0.368366
     9789.525200       0.372455
     9799.118100       0.376560
     9808.729800       0.380681
     9818.360300       0.384818
     9828.009800       0.388971
     9837.678300       0.393139
     9847.365800       0.397323
     9857.072400       0.401520
     9866.798200       0.405733
     9876.543200       0.409958
     9886.307500       0.414199
     9896.091000       0.418452
     9905.894000       0.422718
     9915.716400       0.426997
     9925.558300       0.431287
     9935.419800       0.435591
     9945.300800       0.439905
     9955.201600       0.444231
     9965.122100       0.448567
     9975.062300       0.452913
     9985.022500       0.457270
     9995.002500       0.461637
    10005.002500       0.466012
    10015.022500       0.470397
    10025.062700       0.474789
    10035.122900       0.479190
    10045.203400       0.483598
    10055.304200       0.488014
    10065.425300       0.492436
    10075.566800       0.496865
    10085.728700       0.501299
    10095.911200       0.505739
    10106.114200       0.510184
    10116.337900       0.514634
    10126.582300       0.519088
    10136.847400       0.523545
    10147.133400       0.528006
    10157.440300       0.532470
    10167.768200       0.536936
    10178.117000       0.541404
    10188.487000       0.545873
    10198.878100       0.550344
    10209.290500       0.554815
    10219.724100       0.559287
    10230.179000       0.563758
    10240.655400       0.568228
    10251.153300       0.572697
    10261.672700       0.577164
    10272.213700       0.581630
    10282.776300       0.586092
    10293.360800       0.590552
    10303.967000       0.595008
    10314.595200       0.599460
    10325.245200       0.603907
    10335.917300       0.608349
    10346.611500       0.612786
    10357.327800       0.617217
    10368.066400       0.621642
    10378.827200       0.626060
    10389.610400       0.630471
    10400.416000       0.634873
    10411.244100       0.639268
    10422.094800       0.643653
    10432.968200       0.648030
    10443.864200       0.652397
    10454.783100       0.656754
    10465.724800       0.661100
    10476.689400       0.665434
    10487.677000       0.669758
    10498.687700       0.674070
    10509.721500       0.678368
    10520.778500       0.682654
    10531.858900       0.686927
    10542.962600       0.691186
    10554.089700       0.695430
    10565.240400       0.699660
    10576.414600       0.703874
    10587.612500       0.708073
    10598.834100       0.712255
    10610.079600       0.716421
    10621.348900       0.720570
    10632.642200       0.724701
    10643.959600       0.728815
    10655.301000       0.732910
    10666.666700       0.736986
    10678.056600       0.741043
    10689.470900       0.745080
    10700.909600       0.749097
    10712.372800       0.753094
    10723.860600       0.757069
    10735.373100       0.761023
    10746.910300       0.764956
    10758.472300       0.768866
    10770.059200       0.772753
    10781.671200       0.776618
    10793.308100       0.780458
    10804.970300       0.784276
    10816.657700       0.788068
    10828.370300       0.791837
    10840.108400       0.795580
    10851.871900       0.799297
    10863.661100       0.802989
    10875.475800       0.806655
    10887.316300       0.810294
    10899.182600       0.813906
    10911.074700       0.817491
    10922.992900       0.821048
    10934.937100       0.824577
    10946.907500       0.828078
    10958.904100       0.831550
    10970.927000       0.834993
    10982.976400       0.838407
    10995.052200       0.841791
    11007.154700       0.845145
    11019.283700       0.848468
    11031.439600       0.851761
    11043.622300       0.855023
    11055.832000       0.858253
    11068.068600       0.861452
    11080.332400       0.864619
    11092.623400       0.867754
    11104.941700       0.870856
    11117.287400       0.873926
    11129.660500       0.876962
    11142.061300       0.879965
    11154.489700       0.882935
    11166.945800       0.885871
    11179.429800       0.888772
    11191.941800       0.891640
    11204.481800       0.894472
    11217.049900       0.897270
    11229.646300       0.900033
    11242.270900       0.902761
    11254.924000       0.905453
    11267.605600       0.908110
    11280.315800       0.910730
    11293.054800       0.913315
    11305.822500       0.915863
    11318.619100       0.918375
    11331.444800       0.920850
    11344.299500       0.923288
    11357.183400       0.925690
    11370.096600       0.928054
    11383.039300       0.930381
    11396.011400       0.932671
    11409.013100       0.934923
    11422.044500       0.937137
    11435.105800       0.939314
    11448.196900       0.941452
    11461.318100       0.943553
    11474.469300       0.945615
    11487.650800       0.947639
    11500.862600       0.949625
    11514.104800       0.951572
    11527.377500       0.953481
    11540.680900       0.955351
    11554.015000       0.957183
    11567.380000       0.958976
    11580.775900       0.960730
    11594.202900       0.962445
    11607.661100       0.964121
    11621.150500       0.965759
    11634.671300       0.967357
    11648.223600       0.968917
    11661.807600       0.970437
    11675.423200       0.971919
    11689.070700       0.973361
    11702.750100       0.974765
    11716.461600       0.976130
    11730.205300       0.977456
    11743.981200       0.978743
    11757.789500       0.979991
    11771.630400       0.981200
    11785.503800       0.982371
    11799.410000       0.983503
    11813.349100       0.984596
    11827.321100       0.985651
    11841.326200       0.986667
    11855.364600       0.987644
    11869.436200       0.988584
    11883.541300       0.989485
    11897.680000       0.990348
    11911.852300       0.991173
    11926.058400       0.991960
    11940.298500       0.992709
    11954.572600       0.993421
    11968.880900       0.994095
    11983.223500       0.994732
    11997.600500       0.995331
    12012.012000       0.995893
    12026.458200       0.996419
    12040.939200       0.996907
    12055.455100       0.997359
    12070.006000       0.997775
    12084.592100       0.998154
    12099.213600       0.998498
    12113.870400       0.998805
    12128.562800       0.999077
    12143.290800       0.999313
    12158.054700       0.999515
    12172.854500       0.999681
    12187.690400       0.999812
    12202.562500       0.999909
    12217.471000       0.999972
    12232.415900       1.000000
    12247.397400       0.999995
    12262.415700       0.999956
    12277.470800       0.999884
    12292.563000       0.999778
    12307.692300       0.999640
    12322.858900       0.999470
    12338.062900       0.999267
    12353.304500       0.999032
    12368.583800       0.998766
    12383.900900       0.998469
    12399.256000       0.998140
    12414.649300       0.997781
    12430.080800       0.997391
    12445.550700       0.996971
    12461.059200       0.996521
    12476.606400       0.996042
    12492.192400       0.995534
    12507.817400       0.994997
    12523.481500       0.994432
    12539.185000       0.993838
    12554.927800       0.993217
    12570.710200       0.992568
    12586.532400       0.991893
    12602.394500       0.991190
    12618.296500       0.990462
    12634.238800       0.989707
    12650.221400       0.988927
    12666.244500       0.988121
    12682.308200       0.987291
    12698.412700       0.986437
    12714.558200       0.985558
    12730.744700       0.984656
    12746.972600       0.983730
    12763.241900       0.982782
    12779.552700       0.981811
    12795.905300       0.980818
    12812.299800       0.979803
    12828.736400       0.978767
    12845.215200       0.977710
    12861.736300       0.976633
    12878.300100       0.975536
    12894.906500       0.974420
    12911.555800       0.973284
    12928.248200       0.972129
    12944.983800       0.970956
    12961.762800       0.969766
    12978.585300       0.968558
    12995.451600       0.967333
    13012.361700       0.966091
    13029.316000       0.964833
    13046.314400       0.963560
    13063.357300       0.962271
    13080.444700       0.960967
    13097.576900       0.959649
    13114.754100       0.958317
    13131.976400       0.956972
    13149.243900       0.955614
    13166.556900       0.954243
    13183.915600       0.952860
    13201.320100       0.951465
    13218.770700       0.950059
    13236.267400       0.948642
    13253.810500       0.947215
    13271.400100       0.945778
    13289.036500       0.944332
    13306.719900       0.942877
    13324.450400       0.941413
    13342.228200       0.939941
    13360.053400       0.938462
    13377.926400       0.936975
    13395.847300       0.935482
    13413.816200       0.933982
    13431.833400       0.932476
    13449.899100       0.930966
    13468.013500       0.929450
    13486.176700       0.927930
    13504.388900       0.926405
    13522.650400       0.924878
    13540.961400       0.923347
    13559.322000       0.921813
    13577.732500       0.920277
    13596.193100       0.918740
    13614.703900       0.917201
    13633.265200       0.915661
    13651.877100       0.914120
    13670.540000       0.912580
    13689.253900       0.911040
    13708.019200       0.909500
    13726.836000       0.907962
    13745.704500       0.906426
    13764.624900       0.904891
    13783.597500       0.903360
    13802.622500       0.901831
    13821.700100       0.900305
    13840.830400       0.898783
    13860.013900       0.897265
    13879.250500       0.895752
    13898.540700       0.894243
    13917.884500       0.892740
    13937.282200       0.891243
    13956.734100       0.889752
    13976.240400       0.888267
    13995.801300       0.886789
    14015.417000       0.885318
    14035.087700       0.883855
    14054.813800       0.882400
    14074.595400       0.880954
    14094.432700       0.879516
    14114.326000       0.878087
    14134.275600       0.876668
    14154.281700       0.875258
    14174.344400       0.873859
    14194.464200       0.872470
    14214.641100       0.871091
    14234.875400       0.869724
    14255.167500       0.868368
    14275.517500       0.867024
    14295.925700       0.865693
    14316.392300       0.864373
    14336.917600       0.863066
    14357.501800       0.861772
    14378.145200       0.860492
    14398.848100       0.859225
    14419.610700       0.857972
    14440.433200       0.856733
    14461.316000       0.855508
    14482.259200       0.854298
    14503.263200       0.853102
    14524.328200       0.851922
    14545.454500       0.850757
    14566.642400       0.849608
    14587.892000       0.848475
    14609.203800       0.847357
    14630.577900       0.846256
    14652.014700       0.845172
    14673.514300       0.844104
    14695.077100       0.843053
    14716.703500       0.842019
    14738.393500       0.841002
    14760.147600       0.840002
    14781.966000       0.839020
    14803.849000       0.838056
    14825.796900       0.837110
    14847.809900       0.836181
    14869.888500       0.835271
    14892.032800       0.834379
    14914.243100       0.833506
    14936.519800       0.832651
    14958.863100       0.831814
    14981.273400       0.830996
    15003.750900       0.830197
    15026.296000       0.829417
    15048.909000       0.828655
    15071.590100       0.827913
    15094.339600       0.827190
    15117.158000       0.826485
    15140.045400       0.825800
    15163.002300       0.825134
    15186.028900       0.824487
    15209.125500       0.823860
    15232.292500       0.823251
    15255.530100       0.822662
    15278.838800       0.822091
    15302.218800       0.821540
    15325.670500       0.821008
    15349.194200       0.820495
    15372.790200       0.820001
    15396.458800       0.819526
    15420.200500       0.819070
    15444.015400       0.818632
    15467.904100       0.818214
    15491.866800       0.817813
    15515.903800       0.817432
    15540.015500       0.817068
    15564.202300       0.816723
    15588.464500       0.816397
    15612.802500       0.816088
    15637.216600       0.815797
    15661.707100       0.815523
    15686.274500       0.815267
    15710.919100       0.815029
    15735.641200       0.814807
    15760.441300       0.814603
    15785.319700       0.814415
    15810.276700       0.814244
    15835.312700       0.814089
    15860.428200       0.813950
    15885.623500       0.813827
    15910.899000       0.813719
    15936.255000       0.813627
    15961.691900       0.813549
    15987.210200       0.813487
    16012.810200       0.813439
    16038.492400       0.813405
    16064.257000       0.813385
    16090.104600       0.813378
    16116.035500       0.813385
    16142.050000       0.813404
    16168.148700       0.813436
    16194.332000       0.813480
    16220.600200       0.813536
    16246.953700       0.813603
    16273.393000       0.813682
    16299.918500       0.813771
    16326.530600       0.813870
    16353.229800       0.813979
    16380.016400       0.814097
    16406.890900       0.814225
    16433.853700       0.814361
    16460.905300       0.814505
    16488.046200       0.814656
    16515.276600       0.814815
    16542.597200       0.814981
    16570.008300       0.815152
    16597.510400       0.815330
    16625.103900       0.815512
    16652.789300       0.815700
    16680.567100       0.815892
    16708.437800       0.816087
    16736.401700       0.816285
    16764.459300       0.816487
    16792.611300       0.816690
    16820.857900       0.816895
    16849.199700       0.817100
    16877.637100       0.817306
    16906.170800       0.817512
    16934.801000       0.817717
    16963.528400       0.817921
    16992.353400       0.818123
    17021.276600       0.818322
    17050.298400       0.818518
    17079.419300       0.818710
    17108.639900       0.818898
    17137.960600       0.819081
    17167.382000       0.819258
    17196.904600       0.819429
    17226.528900       0.819592
    17256.255400       0.819748
    17286.084700       0.819896
    17316.017300       0.820034
    17346.053800       0.820163
    17376.194600       0.820282
    17406.440400       0.820389
    17436.791600       0.820485
    17467.248900       0.820568
    17497.812800       0.820638
    17528.483800       0.820694
    17559.262500       0.820735
    17590.149500       0.820761
    17621.145400       0.820771
    17652.250700       0.820765
    17683.466000       0.820740
