13,   13, MVIRI VIS channel from srf_MET7_1999078_1999079_1801-Release_S10EE_10.dat
Number of data points:
793
Wavenumber (cm-1)   Filter response
     8442.380800       0.000000
     8449.514200       0.000000
     8456.659600       0.000004
     8463.817200       0.000052
     8470.986900       0.000154
     8478.168700       0.000308
     8485.362700       0.000513
     8492.569000       0.000767
     8499.787500       0.001069
     8507.018300       0.001417
     8514.261400       0.001810
     8521.516800       0.002247
     8528.784600       0.002727
     8536.064900       0.003248
     8543.357500       0.003809
     8550.662700       0.004410
     8557.980300       0.005049
     8565.310500       0.005724
     8572.653200       0.006437
     8580.008600       0.007184
     8587.376600       0.007965
     8594.757200       0.008780
     8602.150500       0.009628
     8609.556600       0.010508
     8616.975400       0.011418
     8624.407100       0.012359
     8631.851500       0.013330
     8639.308900       0.014329
     8646.779100       0.015357
     8654.262200       0.016413
     8661.758300       0.017496
     8669.267400       0.018606
     8676.789600       0.019741
     8684.324800       0.020902
     8691.873100       0.022089
     8699.434500       0.023300
     8707.009100       0.024536
     8714.596900       0.025795
     8722.198000       0.027078
     8729.812300       0.028384
     8737.439900       0.029713
     8745.080900       0.031065
     8752.735200       0.032439
     8760.403000       0.033835
     8768.084200       0.035252
     8775.778900       0.036691
     8783.487000       0.038152
     8791.208800       0.039633
     8798.944100       0.041136
     8806.693100       0.042660
     8814.455700       0.044203
     8822.232000       0.045768
     8830.022100       0.047353
     8837.825900       0.048958
     8845.643500       0.050584
     8853.475000       0.052229
     8861.320300       0.053895
     8869.179600       0.055580
     8877.052800       0.057286
     8884.940000       0.059011
     8892.841300       0.060756
     8900.756600       0.062522
     8908.686000       0.064307
     8916.629500       0.066112
     8924.587200       0.067936
     8932.559200       0.069781
     8940.545400       0.071646
     8948.545900       0.073531
     8956.560700       0.075435
     8964.589900       0.077360
     8972.633500       0.079304
     8980.691500       0.081270
     8988.764000       0.083255
     8996.851100       0.085260
     9004.952700       0.087286
     9013.068900       0.089332
     9021.199800       0.091399
     9029.345400       0.093487
     9037.505600       0.095595
     9045.680700       0.097724
     9053.870500       0.099873
     9062.075200       0.102044
     9070.294800       0.104236
     9078.529300       0.106448
     9086.778700       0.108683
     9095.043200       0.110938
     9103.322700       0.113215
     9111.617300       0.115513
     9119.927000       0.117833
     9128.251900       0.120175
     9136.592100       0.122538
     9144.947400       0.124924
     9153.318100       0.127331
     9161.704100       0.129760
     9170.105500       0.132212
     9178.522300       0.134686
     9186.954500       0.137182
     9195.402300       0.139701
     9203.865600       0.142242
     9212.344500       0.144806
     9220.839100       0.147393
     9229.349300       0.150002
     9237.875300       0.152634
     9246.417000       0.155289
     9254.974500       0.157967
     9263.547900       0.160668
     9272.137200       0.163392
     9280.742500       0.166140
     9289.363700       0.168910
     9298.000900       0.171704
     9306.654300       0.174521
     9315.323700       0.177361
     9324.009300       0.180224
     9332.711200       0.183112
     9341.429200       0.186022
     9350.163600       0.188956
     9358.914400       0.191913
     9367.681500       0.194893
     9376.465100       0.197898
     9385.265100       0.200925
     9394.081700       0.203976
     9402.914900       0.207050
     9411.764700       0.210148
     9420.631200       0.213269
     9429.514400       0.216414
     9438.414300       0.219582
     9447.331100       0.222773
     9456.264800       0.225987
     9465.215300       0.229225
     9474.182900       0.232485
     9483.167400       0.235769
     9492.169000       0.239076
     9501.187600       0.242405
     9510.223500       0.245758
     9519.276500       0.249133
     9528.346800       0.252531
     9537.434400       0.255951
     9546.539400       0.259394
     9555.661700       0.262859
     9564.801500       0.266346
     9573.958800       0.269856
     9583.133700       0.273388
     9592.326100       0.276941
     9601.536200       0.280516
     9610.764100       0.284112
     9620.009600       0.287730
     9629.273000       0.291369
     9638.554200       0.295029
     9647.853400       0.298710
     9657.170400       0.302411
     9666.505600       0.306134
     9675.858700       0.309876
     9685.230000       0.313638
     9694.619500       0.317421
     9704.027200       0.321223
     9713.453100       0.325045
     9722.897400       0.328886
     9732.360100       0.332746
     9741.841200       0.336625
     9751.340800       0.340522
     9760.859000       0.344437
     9770.395700       0.348371
     9779.951100       0.352323
     9789.525200       0.356292
     9799.118100       0.360278
     9808.729800       0.364281
     9818.360300       0.368302
     9828.009800       0.372338
     9837.678300       0.376391
     9847.365800       0.380459
     9857.072400       0.384543
     9866.798200       0.388643
     9876.543200       0.392757
     9886.307500       0.396886
     9896.091000       0.401029
     9905.894000       0.405186
     9915.716400       0.409357
     9925.558300       0.413541
     9935.419800       0.417739
     9945.300800       0.421949
     9955.201600       0.426170
     9965.122100       0.430405
     9975.062300       0.434650
     9985.022500       0.438907
     9995.002500       0.443175
    10005.002500       0.447453
    10015.022500       0.451741
    10025.062700       0.456039
    10035.122900       0.460346
    10045.203400       0.464663
    10055.304200       0.468988
    10065.425300       0.473321
    10075.566800       0.477662
    10085.728700       0.482010
    10095.911200       0.486366
    10106.114200       0.490727
    10116.337900       0.495095
    10126.582300       0.499469
    10136.847400       0.503848
    10147.133400       0.508233
    10157.440300       0.512621
    10167.768200       0.517014
    10178.117000       0.521410
    10188.487000       0.525810
    10198.878100       0.530213
    10209.290500       0.534618
    10219.724100       0.539024
    10230.179000       0.543433
    10240.655400       0.547842
    10251.153300       0.552253
    10261.672700       0.556663
    10272.213700       0.561073
    10282.776300       0.565482
    10293.360800       0.569891
    10303.967000       0.574297
    10314.595200       0.578702
    10325.245200       0.583104
    10335.917300       0.587504
    10346.611500       0.591899
    10357.327800       0.596292
    10368.066400       0.600679
    10378.827200       0.605062
    10389.610400       0.609441
    10400.416000       0.613813
    10411.244100       0.618179
    10422.094800       0.622539
    10432.968200       0.626891
    10443.864200       0.631237
    10454.783100       0.635574
    10465.724800       0.639903
    10476.689400       0.644223
    10487.677000       0.648534
    10498.687700       0.652836
    10509.721500       0.657127
    10520.778500       0.661407
    10531.858900       0.665677
    10542.962600       0.669935
    10554.089700       0.674181
    10565.240400       0.678415
    10576.414600       0.682635
    10587.612500       0.686843
    10598.834100       0.691037
    10610.079600       0.695217
    10621.348900       0.699382
    10632.642200       0.703532
    10643.959600       0.707666
    10655.301000       0.711785
    10666.666700       0.715887
    10678.056600       0.719973
    10689.470900       0.724041
    10700.909600       0.728092
    10712.372800       0.732125
    10723.860600       0.736139
    10735.373100       0.740135
    10746.910300       0.744111
    10758.472300       0.748068
    10770.059200       0.752004
    10781.671200       0.755920
    10793.308100       0.759815
    10804.970300       0.763689
    10816.657700       0.767541
    10828.370300       0.771371
    10840.108400       0.775179
    10851.871900       0.778963
    10863.661100       0.782725
    10875.475800       0.786463
    10887.316300       0.790176
    10899.182600       0.793866
    10911.074700       0.797531
    10922.992900       0.801170
    10934.937100       0.804785
    10946.907500       0.808373
    10958.904100       0.811935
    10970.927000       0.815471
    10982.976400       0.818980
    10995.052200       0.822462
    11007.154700       0.825916
    11019.283700       0.829343
    11031.439600       0.832741
    11043.622300       0.836111
    11055.832000       0.839452
    11068.068600       0.842764
    11080.332400       0.846047
    11092.623400       0.849300
    11104.941700       0.852522
    11117.287400       0.855715
    11129.660500       0.858877
    11142.061300       0.862009
    11154.489700       0.865109
    11166.945800       0.868177
    11179.429800       0.871214
    11191.941800       0.874220
    11204.481800       0.877193
    11217.049900       0.880134
    11229.646300       0.883042
    11242.270900       0.885917
    11254.924000       0.888759
    11267.605600       0.891568
    11280.315800       0.894343
    11293.054800       0.897084
    11305.822500       0.899792
    11318.619100       0.902465
    11331.444800       0.905104
    11344.299500       0.907709
    11357.183400       0.910279
    11370.096600       0.912814
    11383.039300       0.915313
    11396.011400       0.917778
    11409.013100       0.920207
    11422.044500       0.922601
    11435.105800       0.924959
    11448.196900       0.927281
    11461.318100       0.929567
    11474.469300       0.931818
    11487.650800       0.934031
    11500.862600       0.936209
    11514.104800       0.938350
    11527.377500       0.940455
    11540.680900       0.942523
    11554.015000       0.944555
    11567.380000       0.946549
    11580.775900       0.948507
    11594.202900       0.950428
    11607.661100       0.952312
    11621.150500       0.954159
    11634.671300       0.955968
    11648.223600       0.957741
    11661.807600       0.959476
    11675.423200       0.961175
    11689.070700       0.962836
    11702.750100       0.964459
    11716.461600       0.966046
    11730.205300       0.967595
    11743.981200       0.969107
    11757.789500       0.970582
    11771.630400       0.972020
    11785.503800       0.973420
    11799.410000       0.974783
    11813.349100       0.976109
    11827.321100       0.977398
    11841.326200       0.978650
    11855.364600       0.979865
    11869.436200       0.981044
    11883.541300       0.982185
    11897.680000       0.983289
    11911.852300       0.984357
    11926.058400       0.985388
    11940.298500       0.986383
    11954.572600       0.987341
    11968.880900       0.988263
    11983.223500       0.989149
    11997.600500       0.989999
    12012.012000       0.990813
    12026.458200       0.991590
    12040.939200       0.992333
    12055.455100       0.993040
    12070.006000       0.993711
    12084.592100       0.994347
    12099.213600       0.994948
    12113.870400       0.995515
    12128.562800       0.996046
    12143.290800       0.996544
    12158.054700       0.997006
    12172.854500       0.997435
    12187.690400       0.997830
    12202.562500       0.998191
    12217.471000       0.998518
    12232.415900       0.998812
    12247.397400       0.999073
    12262.415700       0.999302
    12277.470800       0.999497
    12292.563000       0.999660
    12307.692300       0.999792
    12322.858900       0.999891
    12338.062900       0.999958
    12353.304500       0.999995
    12368.583800       1.000000
    12383.900900       0.999974
    12399.256000       0.999918
    12414.649300       0.999832
    12430.080800       0.999716
    12445.550700       0.999570
    12461.059200       0.999394
    12476.606400       0.999190
    12492.192400       0.998956
    12507.817400       0.998695
    12523.481500       0.998405
    12539.185000       0.998087
    12554.927800       0.997742
    12570.710200       0.997370
    12586.532400       0.996971
    12602.394500       0.996546
    12618.296500       0.996094
    12634.238800       0.995617
    12650.221400       0.995114
    12666.244500       0.994586
    12682.308200       0.994034
    12698.412700       0.993457
    12714.558200       0.992856
    12730.744700       0.992231
    12746.972600       0.991584
    12763.241900       0.990913
    12779.552700       0.990220
    12795.905300       0.989505
    12812.299800       0.988769
    12828.736400       0.988011
    12845.215200       0.987232
    12861.736300       0.986433
    12878.300100       0.985613
    12894.906500       0.984774
    12911.555800       0.983916
    12928.248200       0.983039
    12944.983800       0.982143
    12961.762800       0.981230
    12978.585300       0.980298
    12995.451600       0.979350
    13012.361700       0.978385
    13029.316000       0.977404
    13046.314400       0.976406
    13063.357300       0.975394
    13080.444700       0.974366
    13097.576900       0.973323
    13114.754100       0.972267
    13131.976400       0.971197
    13149.243900       0.970113
    13166.556900       0.969017
    13183.915600       0.967908
    13201.320100       0.966788
    13218.770700       0.965656
    13236.267400       0.964512
    13253.810500       0.963359
    13271.400100       0.962195
    13289.036500       0.961021
    13306.719900       0.959838
    13324.450400       0.958647
    13342.228200       0.957446
    13360.053400       0.956239
    13377.926400       0.955023
    13395.847300       0.953801
    13413.816200       0.952572
    13431.833400       0.951337
    13449.899100       0.950096
    13468.013500       0.948851
    13486.176700       0.947600
    13504.388900       0.946345
    13522.650400       0.945086
    13540.961400       0.943824
    13559.322000       0.942559
    13577.732500       0.941292
    13596.193100       0.940022
    13614.703900       0.938751
    13633.265200       0.937479
    13651.877100       0.936206
    13670.540000       0.934933
    13689.253900       0.933659
    13708.019200       0.932387
    13726.836000       0.931115
    13745.704500       0.929845
    13764.624900       0.928577
    13783.597500       0.927311
    13802.622500       0.926048
    13821.700100       0.924788
    13840.830400       0.923532
    13860.013900       0.922280
    13879.250500       0.921032
    13898.540700       0.919789
    13917.884500       0.918551
    13937.282200       0.917319
    13956.734100       0.916094
    13976.240400       0.914874
    13995.801300       0.913662
    14015.417000       0.912456
    14035.087700       0.911259
    14054.813800       0.910069
    14074.595400       0.908888
    14094.432700       0.907716
    14114.326000       0.906553
    14134.275600       0.905399
    14154.281700       0.904255
    14174.344400       0.903122
    14194.464200       0.901999
    14214.641100       0.900888
    14234.875400       0.899787
    14255.167500       0.898699
    14275.517500       0.897622
    14295.925700       0.896558
    14316.392300       0.895507
    14336.917600       0.894468
    14357.501800       0.893443
    14378.145200       0.892432
    14398.848100       0.891434
    14419.610700       0.890451
    14440.433200       0.889482
    14461.316000       0.888528
    14482.259200       0.887590
    14503.263200       0.886666
    14524.328200       0.885759
    14545.454500       0.884867
    14566.642400       0.883992
    14587.892000       0.883133
    14609.203800       0.882291
    14630.577900       0.881466
    14652.014700       0.880658
    14673.514300       0.879867
    14695.077100       0.879094
    14716.703500       0.878339
    14738.393500       0.877602
    14760.147600       0.876883
    14781.966000       0.876182
    14803.849000       0.875500
    14825.796900       0.874837
    14847.809900       0.874193
    14869.888500       0.873568
    14892.032800       0.872963
    14914.243100       0.872377
    14936.519800       0.871810
    14958.863100       0.871263
    14981.273400       0.870736
    15003.750900       0.870228
    15026.296000       0.869741
    15048.909000       0.869274
    15071.590100       0.868827
    15094.339600       0.868401
    15117.158000       0.867994
    15140.045400       0.867608
    15163.002300       0.867243
    15186.028900       0.866898
    15209.125500       0.866574
    15232.292500       0.866270
    15255.530100       0.865987
    15278.838800       0.865724
    15302.218800       0.865482
    15325.670500       0.865261
    15349.194200       0.865060
    15372.790200       0.864880
    15396.458800       0.864720
    15420.200500       0.864581
    15444.015400       0.864462
    15467.904100       0.864363
    15491.866800       0.864285
    15515.903800       0.864227
    15540.015500       0.864188
    15564.202300       0.864170
    15588.464500       0.864172
    15612.802500       0.864193
    15637.216600       0.864234
    15661.707100       0.864295
    15686.274500       0.864374
    15710.919100       0.864473
    15735.641200       0.864591
    15760.441300       0.864728
    15785.319700       0.864883
    15810.276700       0.865056
    15835.312700       0.865248
    15860.428200       0.865457
    15885.623500       0.865684
    15910.899000       0.865929
    15936.255000       0.866191
    15961.691900       0.866470
    15987.210200       0.866765
    16012.810200       0.867077
    16038.492400       0.867404
    16064.257000       0.867748
    16090.104600       0.868107
    16116.035500       0.868481
    16142.050000       0.868870
    16168.148700       0.869273
    16194.332000       0.869690
    16220.600200       0.870121
    16246.953700       0.870565
    16273.393000       0.871022
    16299.918500       0.871491
    16326.530600       0.871973
    16353.229800       0.872466
    16380.016400       0.872971
    16406.890900       0.873486
    16433.853700       0.874012
    16460.905300       0.874547
    16488.046200       0.875092
    16515.276600       0.875646
    16542.597200       0.876208
    16570.008300       0.876779
    16597.510400       0.877356
    16625.103900       0.877941
    16652.789300       0.878532
    16680.567100       0.879128
    16708.437800       0.879730
    16736.401700       0.880337
    16764.459300       0.880948
    16792.611300       0.881562
    16820.857900       0.882179
    16849.199700       0.882799
    16877.637100       0.883420
    16906.170800       0.884042
    16934.801000       0.884665
    16963.528400       0.885288
    16992.353400       0.885910
    17021.276600       0.886530
    17050.298400       0.887149
    17079.419300       0.887764
    17108.639900       0.888376
    17137.960600       0.888984
    17167.382000       0.889587
    17196.904600       0.890185
    17226.528900       0.890776
    17256.255400       0.891360
    17286.084700       0.891937
    17316.017300       0.892504
    17346.053800       0.893063
    17376.194600       0.893612
    17406.440400       0.894150
    17436.791600       0.894676
    17467.248900       0.895190
    17497.812800       0.895691
    17528.483800       0.896178
    17559.262500       0.896650
    17590.149500       0.897107
    17621.145400       0.897548
    17652.250700       0.897971
    17683.466000       0.898376
