5,   from EPIC Filters Original Data.xlsx (col 13) Deep Space Climate Observatory (December 2019)
Number of data points:
201
Wavenumber (cm-1)   Filter response
    22321.428600       0.179940
    22323.920100       0.186600
    22326.412100       0.184850
    22328.904800       0.189010
    22331.397900       0.185490
    22333.891700       0.197550
    22336.386000       0.191570
    22338.880800       0.192650
    22341.376200       0.202850
    22343.872200       0.202880
    22346.368700       0.201130
    22348.865800       0.208660
    22351.363400       0.209410
    22353.861600       0.209380
    22356.360400       0.218430
    22358.859700       0.216080
    22361.359600       0.224800
    22363.860000       0.222960
    22366.361000       0.230610
    22368.862500       0.222920
    22371.364700       0.230990
    22373.867300       0.235870
    22376.370600       0.236670
    22378.874300       0.241480
    22381.378700       0.254400
    22383.883600       0.255660
    22386.389100       0.261650
    22388.895100       0.257940
    22391.401700       0.263330
    22393.908900       0.276480
    22396.416600       0.278820
    22398.924900       0.279630
    22401.433700       0.288680
    22403.943100       0.295420
    22406.453100       0.306090
    22408.963600       0.302970
    22411.474700       0.317360
    22413.986300       0.319580
    22416.498500       0.334910
    22419.011300       0.341460
    22421.524700       0.354300
    22424.038600       0.363330
    22426.553000       0.371520
    22429.068100       0.384920
    22431.583700       0.399100
    22434.099800       0.401870
    22436.616600       0.417620
    22439.133800       0.439440
    22441.651700       0.445980
    22444.170100       0.463250
    22446.689100       0.483210
    22449.208700       0.501310
    22451.728800       0.519940
    22454.249500       0.529230
    22456.770700       0.555030
    22459.292500       0.575810
    22461.814900       0.599500
    22464.337900       0.622500
    22466.861400       0.666060
    22469.385500       0.677720
    22471.910100       0.717350
    22474.435300       0.758700
    22476.961100       0.794650
    22479.487500       0.852160
    22482.014400       0.889220
    22484.541900       0.960840
    22487.069900       1.035350
    22489.598600       1.114880
    22492.127800       1.196510
    22494.657500       1.324570
    22497.187900       1.444760
    22499.718800       1.590170
    22502.250200       1.769750
    22504.782300       2.009270
    22507.314900       2.356080
    22509.848100       2.696980
    22512.381800       3.194190
    22514.916100       3.790520
    22517.451000       4.603120
    22519.986500       5.571200
    22522.522500       6.892540
    22525.059100       8.564430
    22527.596300      10.833030
    22530.134100      13.783540
    22532.672400      17.682290
    22535.211300      22.515270
    22537.750700      28.206910
    22540.290800      34.355050
    22542.831400      40.760310
    22545.372600      47.618840
    22547.914300      54.002270
    22550.456600      59.117060
    22552.999500      62.929620
    22555.543000      65.487980
    22558.087100      67.021300
    22560.631700      68.021950
    22563.176900      68.516410
    22565.722700      68.811150
    22568.269000      68.828180
    22570.815900      69.278620
    22573.363400      69.509920
    22575.911500      70.076370
    22578.460100      70.435840
    22581.009400      70.833040
    22583.559200      71.360440
    22586.109500      71.999810
    22588.660500      72.406150
    22591.212000      72.968150
    22593.764100      73.202930
    22596.316800      73.487710
    22598.870100      73.702290
    22601.423900      73.979280
    22603.978300      74.074150
    22606.533300      74.325050
    22609.088900      74.143200
    22611.645000      74.325020
    22614.201700      74.481260
    22616.759000      74.533090
    22619.316900      74.454670
    22621.875400      74.229950
    22624.434400      74.272740
    22626.994000      74.504680
    22629.554200      74.239580
    22632.115000      74.276310
    22634.676300      74.410070
    22637.238300      74.088330
    22639.800800      74.187110
    22642.363900      74.342620
    22644.927500      74.358190
    22647.491800      74.482120
    22650.056600      74.534490
    22652.622000      74.437310
    22655.188000      74.143630
    22657.754600      73.683610
    22660.321800      72.147140
    22662.889500      70.148220
    22665.457800      67.347470
    22668.026700      63.336700
    22670.596200      57.529190
    22673.166300      51.027290
    22675.737000      43.904470
    22678.308200      36.525670
    22680.880000      29.818660
    22683.452400      23.790260
    22686.025400      18.975910
    22688.599000      14.498390
    22691.173100      11.221760
    22693.747900       8.346410
    22696.323200       6.661670
    22698.899100       5.325040
    22701.475600       4.397010
    22704.052700       3.539710
    22706.630300       2.964080
    22709.208600       2.515360
    22711.787400       2.225540
    22714.366800       1.953610
    22716.946800       1.788690
    22719.527400       1.613720
    22722.108600       1.450460
    22724.690400       1.353080
    22727.272700       1.265570
    22729.855700       1.189950
    22732.439200       1.130450
    22735.023300       1.053630
    22737.608000       1.006350
    22740.193300       0.951590
    22742.779200       0.900800
    22745.365600       0.871430
    22747.952700       0.830170
    22750.540300       0.793300
    22753.128600       0.765100
    22755.717400       0.736010
    22758.306800       0.715270
    22760.896800       0.672680
    22763.487400       0.657800
    22766.078500       0.632790
    22768.670300       0.615490
    22771.262700       0.602300
    22773.855600       0.575510
    22776.449200       0.558110
    22779.043300       0.543500
    22781.638000       0.527160
    22784.233300       0.513020
    22786.829200       0.499600
    22789.425700       0.497420
    22792.022800       0.475570
    22794.620500       0.460790
    22797.218700       0.454480
    22799.817600       0.440270
    22802.417100       0.431850
    22805.017100       0.422440
    22807.617700       0.407730
    22810.219000       0.394230
    22812.820800       0.396480
    22815.423200       0.386400
    22818.026200       0.385240
    22820.629800       0.371710
    22823.234100       0.371630
    22825.838800       0.360780
    22828.444200       0.351450
    22831.050200       0.343660
