10,   10, MVIRI VIS channel from srf_MET4_1990258_1990259_1801-Release_S10EL_10.dat
Number of data points:
752
Wavenumber (cm-1)   Filter response
     8745.080900       0.000000
     8752.735200       0.000000
     8760.403000       0.000001
     8768.084200       0.000058
     8775.778900       0.000198
     8783.487000       0.000416
     8791.208800       0.000712
     8798.944100       0.001083
     8806.693100       0.001527
     8814.455700       0.002041
     8822.232000       0.002623
     8830.022100       0.003272
     8837.825900       0.003985
     8845.643500       0.004760
     8853.475000       0.005596
     8861.320300       0.006491
     8869.179600       0.007442
     8877.052800       0.008449
     8884.940000       0.009509
     8892.841300       0.010621
     8900.756600       0.011784
     8908.686000       0.012995
     8916.629500       0.014254
     8924.587200       0.015559
     8932.559200       0.016908
     8940.545400       0.018301
     8948.545900       0.019737
     8956.560700       0.021213
     8964.589900       0.022728
     8972.633500       0.024283
     8980.691500       0.025875
     8988.764000       0.027503
     8996.851100       0.029166
     9004.952700       0.030864
     9013.068900       0.032596
     9021.199800       0.034360
     9029.345400       0.036156
     9037.505600       0.037983
     9045.680700       0.039840
     9053.870500       0.041725
     9062.075200       0.043640
     9070.294800       0.045583
     9078.529300       0.047552
     9086.778700       0.049549
     9095.043200       0.051571
     9103.322700       0.053618
     9111.617300       0.055691
     9119.927000       0.057787
     9128.251900       0.059907
     9136.592100       0.062051
     9144.947400       0.064216
     9153.318100       0.066405
     9161.704100       0.068615
     9170.105500       0.070847
     9178.522300       0.073100
     9186.954500       0.075373
     9195.402300       0.077667
     9203.865600       0.079981
     9212.344500       0.082315
     9220.839100       0.084668
     9229.349300       0.087041
     9237.875300       0.089432
     9246.417000       0.091842
     9254.974500       0.094271
     9263.547900       0.096718
     9272.137200       0.099183
     9280.742500       0.101666
     9289.363700       0.104167
     9298.000900       0.106686
     9306.654300       0.109222
     9315.323700       0.111775
     9324.009300       0.114346
     9332.711200       0.116933
     9341.429200       0.119538
     9350.163600       0.122160
     9358.914400       0.124798
     9367.681500       0.127454
     9376.465100       0.130126
     9385.265100       0.132815
     9394.081700       0.135521
     9402.914900       0.138243
     9411.764700       0.140982
     9420.631200       0.143737
     9429.514400       0.146509
     9438.414300       0.149297
     9447.331100       0.152102
     9456.264800       0.154924
     9465.215300       0.157762
     9474.182900       0.160616
     9483.167400       0.163487
     9492.169000       0.166375
     9501.187600       0.169279
     9510.223500       0.172199
     9519.276500       0.175136
     9528.346800       0.178090
     9537.434400       0.181061
     9546.539400       0.184048
     9555.661700       0.187052
     9564.801500       0.190072
     9573.958800       0.193109
     9583.133700       0.196163
     9592.326100       0.199234
     9601.536200       0.202321
     9610.764100       0.205425
     9620.009600       0.208546
     9629.273000       0.211684
     9638.554200       0.214839
     9647.853400       0.218011
     9657.170400       0.221199
     9666.505600       0.224405
     9675.858700       0.227628
     9685.230000       0.230867
     9694.619500       0.234123
     9704.027200       0.237397
     9713.453100       0.240687
     9722.897400       0.243995
     9732.360100       0.247319
     9741.841200       0.250661
     9751.340800       0.254019
     9760.859000       0.257394
     9770.395700       0.260787
     9779.951100       0.264196
     9789.525200       0.267622
     9799.118100       0.271066
     9808.729800       0.274525
     9818.360300       0.278002
     9828.009800       0.281496
     9837.678300       0.285006
     9847.365800       0.288533
     9857.072400       0.292077
     9866.798200       0.295637
     9876.543200       0.299214
     9886.307500       0.302808
     9896.091000       0.306418
     9905.894000       0.310044
     9915.716400       0.313686
     9925.558300       0.317344
     9935.419800       0.321019
     9945.300800       0.324710
     9955.201600       0.328416
     9965.122100       0.332139
     9975.062300       0.335876
     9985.022500       0.339630
     9995.002500       0.343399
    10005.002500       0.347183
    10015.022500       0.350983
    10025.062700       0.354797
    10035.122900       0.358626
    10045.203400       0.362470
    10055.304200       0.366329
    10065.425300       0.370202
    10075.566800       0.374090
    10085.728700       0.377991
    10095.911200       0.381907
    10106.114200       0.385836
    10116.337900       0.389778
    10126.582300       0.393734
    10136.847400       0.397703
    10147.133400       0.401685
    10157.440300       0.405680
    10167.768200       0.409687
    10178.117000       0.413707
    10188.487000       0.417738
    10198.878100       0.421782
    10209.290500       0.425837
    10219.724100       0.429904
    10230.179000       0.433981
    10240.655400       0.438070
    10251.153300       0.442169
    10261.672700       0.446278
    10272.213700       0.450398
    10282.776300       0.454527
    10293.360800       0.458666
    10303.967000       0.462814
    10314.595200       0.466971
    10325.245200       0.471136
    10335.917300       0.475311
    10346.611500       0.479493
    10357.327800       0.483683
    10368.066400       0.487880
    10378.827200       0.492084
    10389.610400       0.496296
    10400.416000       0.500513
    10411.244100       0.504737
    10422.094800       0.508967
    10432.968200       0.513202
    10443.864200       0.517443
    10454.783100       0.521688
    10465.724800       0.525938
    10476.689400       0.530191
    10487.677000       0.534449
    10498.687700       0.538710
    10509.721500       0.542974
    10520.778500       0.547241
    10531.858900       0.551509
    10542.962600       0.555781
    10554.089700       0.560053
    10565.240400       0.564326
    10576.414600       0.568601
    10587.612500       0.572875
    10598.834100       0.577150
    10610.079600       0.581425
    10621.348900       0.585698
    10632.642200       0.589971
    10643.959600       0.594242
    10655.301000       0.598511
    10666.666700       0.602777
    10678.056600       0.607041
    10689.470900       0.611301
    10700.909600       0.615559
    10712.372800       0.619812
    10723.860600       0.624060
    10735.373100       0.628304
    10746.910300       0.632542
    10758.472300       0.636775
    10770.059200       0.641002
    10781.671200       0.645222
    10793.308100       0.649435
    10804.970300       0.653641
    10816.657700       0.657839
    10828.370300       0.662029
    10840.108400       0.666210
    10851.871900       0.670383
    10863.661100       0.674546
    10875.475800       0.678698
    10887.316300       0.682841
    10899.182600       0.686973
    10911.074700       0.691093
    10922.992900       0.695202
    10934.937100       0.699299
    10946.907500       0.703383
    10958.904100       0.707455
    10970.927000       0.711513
    10982.976400       0.715558
    10995.052200       0.719588
    11007.154700       0.723603
    11019.283700       0.727604
    11031.439600       0.731589
    11043.622300       0.735558
    11055.832000       0.739511
    11068.068600       0.743447
    11080.332400       0.747367
    11092.623400       0.751268
    11104.941700       0.755152
    11117.287400       0.759017
    11129.660500       0.762863
    11142.061300       0.766690
    11154.489700       0.770498
    11166.945800       0.774285
    11179.429800       0.778052
    11191.941800       0.781799
    11204.481800       0.785524
    11217.049900       0.789227
    11229.646300       0.792908
    11242.270900       0.796567
    11254.924000       0.800203
    11267.605600       0.803816
    11280.315800       0.807405
    11293.054800       0.810970
    11305.822500       0.814511
    11318.619100       0.818027
    11331.444800       0.821518
    11344.299500       0.824983
    11357.183400       0.828423
    11370.096600       0.831836
    11383.039300       0.835223
    11396.011400       0.838583
    11409.013100       0.841916
    11422.044500       0.845221
    11435.105800       0.848498
    11448.196900       0.851746
    11461.318100       0.854966
    11474.469300       0.858157
    11487.650800       0.861319
    11500.862600       0.864451
    11514.104800       0.867553
    11527.377500       0.870625
    11540.680900       0.873666
    11554.015000       0.876676
    11567.380000       0.879655
    11580.775900       0.882603
    11594.202900       0.885518
    11607.661100       0.888402
    11621.150500       0.891253
    11634.671300       0.894072
    11648.223600       0.896857
    11661.807600       0.899610
    11675.423200       0.902329
    11689.070700       0.905014
    11702.750100       0.907665
    11716.461600       0.910282
    11730.205300       0.912865
    11743.981200       0.915413
    11757.789500       0.917925
    11771.630400       0.920403
    11785.503800       0.922845
    11799.410000       0.925252
    11813.349100       0.927623
    11827.321100       0.929958
    11841.326200       0.932256
    11855.364600       0.934519
    11869.436200       0.936744
    11883.541300       0.938933
    11897.680000       0.941085
    11911.852300       0.943200
    11926.058400       0.945277
    11940.298500       0.947317
    11954.572600       0.949319
    11968.880900       0.951284
    11983.223500       0.953210
    11997.600500       0.955099
    12012.012000       0.956950
    12026.458200       0.958762
    12040.939200       0.960536
    12055.455100       0.962271
    12070.006000       0.963968
    12084.592100       0.965626
    12099.213600       0.967245
    12113.870400       0.968825
    12128.562800       0.970367
    12143.290800       0.971869
    12158.054700       0.973332
    12172.854500       0.974756
    12187.690400       0.976141
    12202.562500       0.977487
    12217.471000       0.978794
    12232.415900       0.980061
    12247.397400       0.981288
    12262.415700       0.982477
    12277.470800       0.983626
    12292.563000       0.984736
    12307.692300       0.985806
    12322.858900       0.986837
    12338.062900       0.987828
    12353.304500       0.988781
    12368.583800       0.989694
    12383.900900       0.990567
    12399.256000       0.991402
    12414.649300       0.992197
    12430.080800       0.992953
    12445.550700       0.993670
    12461.059200       0.994348
    12476.606400       0.994987
    12492.192400       0.995587
    12507.817400       0.996149
    12523.481500       0.996672
    12539.185000       0.997156
    12554.927800       0.997602
    12570.710200       0.998009
    12586.532400       0.998378
    12602.394500       0.998709
    12618.296500       0.999002
    12634.238800       0.999257
    12650.221400       0.999474
    12666.244500       0.999654
    12682.308200       0.999796
    12698.412700       0.999901
    12714.558200       0.999969
    12730.744700       1.000000
    12746.972600       0.999994
    12763.241900       0.999952
    12779.552700       0.999873
    12795.905300       0.999758
    12812.299800       0.999607
    12828.736400       0.999421
    12845.215200       0.999199
    12861.736300       0.998941
    12878.300100       0.998648
    12894.906500       0.998321
    12911.555800       0.997959
    12928.248200       0.997562
    12944.983800       0.997131
    12961.762800       0.996667
    12978.585300       0.996169
    12995.451600       0.995637
    13012.361700       0.995072
    13029.316000       0.994475
    13046.314400       0.993844
    13063.357300       0.993182
    13080.444700       0.992488
    13097.576900       0.991762
    13114.754100       0.991004
    13131.976400       0.990216
    13149.243900       0.989396
    13166.556900       0.988547
    13183.915600       0.987667
    13201.320100       0.986757
    13218.770700       0.985818
    13236.267400       0.984849
    13253.810500       0.983852
    13271.400100       0.982827
    13289.036500       0.981773
    13306.719900       0.980691
    13324.450400       0.979582
    13342.228200       0.978446
    13360.053400       0.977284
    13377.926400       0.976095
    13395.847300       0.974880
    13413.816200       0.973639
    13431.833400       0.972373
    13449.899100       0.971083
    13468.013500       0.969768
    13486.176700       0.968428
    13504.388900       0.967066
    13522.650400       0.965680
    13540.961400       0.964271
    13559.322000       0.962839
    13577.732500       0.961386
    13596.193100       0.959911
    13614.703900       0.958414
    13633.265200       0.956897
    13651.877100       0.955360
    13670.540000       0.953802
    13689.253900       0.952225
    13708.019200       0.950629
    13726.836000       0.949014
    13745.704500       0.947380
    13764.624900       0.945729
    13783.597500       0.944060
    13802.622500       0.942375
    13821.700100       0.940673
    13840.830400       0.938954
    13860.013900       0.937220
    13879.250500       0.935471
    13898.540700       0.933707
    13917.884500       0.931928
    13937.282200       0.930136
    13956.734100       0.928330
    13976.240400       0.926511
    13995.801300       0.924679
    14015.417000       0.922836
    14035.087700       0.920980
    14054.813800       0.919114
    14074.595400       0.917237
    14094.432700       0.915349
    14114.326000       0.913451
    14134.275600       0.911544
    14154.281700       0.909628
    14174.344400       0.907704
    14194.464200       0.905771
    14214.641100       0.903831
    14234.875400       0.901883
    14255.167500       0.899929
    14275.517500       0.897969
    14295.925700       0.896003
    14316.392300       0.894031
    14336.917600       0.892054
    14357.501800       0.890073
    14378.145200       0.888088
    14398.848100       0.886099
    14419.610700       0.884107
    14440.433200       0.882113
    14461.316000       0.880116
    14482.259200       0.878117
    14503.263200       0.876117
    14524.328200       0.874116
    14545.454500       0.872114
    14566.642400       0.870113
    14587.892000       0.868111
    14609.203800       0.866110
    14630.577900       0.864111
    14652.014700       0.862113
    14673.514300       0.860117
    14695.077100       0.858124
    14716.703500       0.856133
    14738.393500       0.854146
    14760.147600       0.852162
    14781.966000       0.850182
    14803.849000       0.848207
    14825.796900       0.846237
    14847.809900       0.844272
    14869.888500       0.842312
    14892.032800       0.840359
    14914.243100       0.838412
    14936.519800       0.836471
    14958.863100       0.834538
    14981.273400       0.832613
    15003.750900       0.830695
    15026.296000       0.828786
    15048.909000       0.826885
    15071.590100       0.824993
    15094.339600       0.823111
    15117.158000       0.821238
    15140.045400       0.819375
    15163.002300       0.817523
    15186.028900       0.815681
    15209.125500       0.813850
    15232.292500       0.812030
    15255.530100       0.810222
    15278.838800       0.808427
    15302.218800       0.806643
    15325.670500       0.804871
    15349.194200       0.803113
    15372.790200       0.801368
    15396.458800       0.799636
    15420.200500       0.797918
    15444.015400       0.796213
    15467.904100       0.794523
    15491.866800       0.792847
    15515.903800       0.791186
    15540.015500       0.789540
    15564.202300       0.787909
    15588.464500       0.786293
    15612.802500       0.784693
    15637.216600       0.783109
    15661.707100       0.781541
    15686.274500       0.779989
    15710.919100       0.778453
    15735.641200       0.776934
    15760.441300       0.775432
    15785.319700       0.773947
    15810.276700       0.772479
    15835.312700       0.771028
    15860.428200       0.769594
    15885.623500       0.768178
    15910.899000       0.766780
    15936.255000       0.765400
    15961.691900       0.764037
    15987.210200       0.762693
    16012.810200       0.761366
    16038.492400       0.760058
    16064.257000       0.758768
    16090.104600       0.757497
    16116.035500       0.756244
    16142.050000       0.755010
    16168.148700       0.753794
    16194.332000       0.752596
    16220.600200       0.751418
    16246.953700       0.750258
    16273.393000       0.749117
    16299.918500       0.747994
    16326.530600       0.746890
    16353.229800       0.745805
    16380.016400       0.744738
    16406.890900       0.743691
    16433.853700       0.742661
    16460.905300       0.741650
    16488.046200       0.740658
    16515.276600       0.739684
    16542.597200       0.738729
    16570.008300       0.737792
    16597.510400       0.736873
    16625.103900       0.735972
    16652.789300       0.735089
    16680.567100       0.734224
    16708.437800       0.733376
    16736.401700       0.732547
    16764.459300       0.731734
    16792.611300       0.730939
    16820.857900       0.730161
    16849.199700       0.729400
    16877.637100       0.728656
    16906.170800       0.727928
    16934.801000       0.727217
    16963.528400       0.726522
    16992.353400       0.725842
    17021.276600       0.725179
    17050.298400       0.724531
    17079.419300       0.723898
    17108.639900       0.723279
    17137.960600       0.722676
    17167.382000       0.722087
    17196.904600       0.721512
    17226.528900       0.720951
    17256.255400       0.720403
    17286.084700       0.719868
    17316.017300       0.719347
    17346.053800       0.718837
    17376.194600       0.718340
    17406.440400       0.717855
    17436.791600       0.717381
    17467.248900       0.716918
    17497.812800       0.716466
    17528.483800       0.716024
    17559.262500       0.715592
    17590.149500       0.715169
    17621.145400       0.714755
    17652.250700       0.714350
    17683.466000       0.713953
    17714.791900       0.713564
    17746.228900       0.713182
    17777.777800       0.712807
    17809.439000       0.712438
    17841.213200       0.712075
    17873.101000       0.711717
    17905.103000       0.711364
    17937.219700       0.711016
    17969.451900       0.710671
    18001.800200       0.710329
    18034.265100       0.709991
    18066.847300       0.709654
    18099.547500       0.709319
    18132.366300       0.708985
    18165.304300       0.708652
    18198.362100       0.708318
    18231.540600       0.707984
    18264.840200       0.707649
    18298.261700       0.707312
    18331.805700       0.706973
    18365.472900       0.706630
    18399.264000       0.706284
    18433.179700       0.705933
    18467.220700       0.705578
    18501.387600       0.705217
    18535.681200       0.704850
    18570.102100       0.704476
    18604.651200       0.704094
    18639.329000       0.703704
    18674.136300       0.703306
    18709.073900       0.702898
    18744.142500       0.702480
    18779.342700       0.702050
    18814.675400       0.701610
    18850.141400       0.701156
    18885.741300       0.700690
    18921.475900       0.700211
    18957.346000       0.699716
    18993.352300       0.699207
    19029.495700       0.698682
    19065.776900       0.698140
