96,   96, MVIRI VIS channel from srf_MET5_2003078_2003079_1801-Release_S10EL_10.dat
Number of data points:
806
Wavenumber (cm-1)   Filter response
     8350.730700       0.000000
     8357.710000       0.000000
     8364.701000       0.000000
     8371.703600       0.000002
     8378.718100       0.000004
     8385.744200       0.000009
     8392.782200       0.000017
     8399.832000       0.000028
     8406.893700       0.000042
     8413.967200       0.000061
     8421.052600       0.000085
     8428.150000       0.000113
     8435.259400       0.000148
     8442.380800       0.000189
     8449.514200       0.000236
     8456.659600       0.000291
     8463.817200       0.000352
     8470.986900       0.000422
     8478.168700       0.000500
     8485.362700       0.000586
     8492.569000       0.000681
     8499.787500       0.000786
     8507.018300       0.000900
     8514.261400       0.001024
     8521.516800       0.001158
     8528.784600       0.001302
     8536.064900       0.001457
     8543.357500       0.001624
     8550.662700       0.001801
     8557.980300       0.001990
     8565.310500       0.002191
     8572.653200       0.002404
     8580.008600       0.002629
     8587.376600       0.002867
     8594.757200       0.003118
     8602.150500       0.003381
     8609.556600       0.003657
     8616.975400       0.003947
     8624.407100       0.004251
     8631.851500       0.004568
     8639.308900       0.004899
     8646.779100       0.005244
     8654.262200       0.005603
     8661.758300       0.005977
     8669.267400       0.006366
     8676.789600       0.006769
     8684.324800       0.007187
     8691.873100       0.007620
     8699.434500       0.008069
     8707.009100       0.008533
     8714.596900       0.009012
     8722.198000       0.009507
     8729.812300       0.010018
     8737.439900       0.010544
     8745.080900       0.011087
     8752.735200       0.011646
     8760.403000       0.012221
     8768.084200       0.012813
     8775.778900       0.013421
     8783.487000       0.014046
     8791.208800       0.014688
     8798.944100       0.015347
     8806.693100       0.016022
     8814.455700       0.016715
     8822.232000       0.017425
     8830.022100       0.018153
     8837.825900       0.018898
     8845.643500       0.019661
     8853.475000       0.020441
     8861.320300       0.021240
     8869.179600       0.022056
     8877.052800       0.022890
     8884.940000       0.023743
     8892.841300       0.024613
     8900.756600       0.025503
     8908.686000       0.026410
     8916.629500       0.027337
     8924.587200       0.028282
     8932.559200       0.029245
     8940.545400       0.030228
     8948.545900       0.031230
     8956.560700       0.032250
     8964.589900       0.033290
     8972.633500       0.034349
     8980.691500       0.035428
     8988.764000       0.036527
     8996.851100       0.037644
     9004.952700       0.038782
     9013.068900       0.039939
     9021.199800       0.041117
     9029.345400       0.042314
     9037.505600       0.043531
     9045.680700       0.044769
     9053.870500       0.046027
     9062.075200       0.047305
     9070.294800       0.048604
     9078.529300       0.049923
     9086.778700       0.051264
     9095.043200       0.052625
     9103.322700       0.054006
     9111.617300       0.055409
     9119.927000       0.056833
     9128.251900       0.058278
     9136.592100       0.059744
     9144.947400       0.061232
     9153.318100       0.062741
     9161.704100       0.064272
     9170.105500       0.065824
     9178.522300       0.067398
     9186.954500       0.068994
     9195.402300       0.070611
     9203.865600       0.072251
     9212.344500       0.073912
     9220.839100       0.075596
     9229.349300       0.077302
     9237.875300       0.079030
     9246.417000       0.080781
     9254.974500       0.082554
     9263.547900       0.084349
     9272.137200       0.086167
     9280.742500       0.088008
     9289.363700       0.089871
     9298.000900       0.091758
     9306.654300       0.093667
     9315.323700       0.095599
     9324.009300       0.097554
     9332.711200       0.099532
     9341.429200       0.101533
     9350.163600       0.103558
     9358.914400       0.105605
     9367.681500       0.107676
     9376.465100       0.109770
     9385.265100       0.111888
     9394.081700       0.114029
     9402.914900       0.116193
     9411.764700       0.118381
     9420.631200       0.120593
     9429.514400       0.122828
     9438.414300       0.125087
     9447.331100       0.127369
     9456.264800       0.129675
     9465.215300       0.132005
     9474.182900       0.134359
     9483.167400       0.136736
     9492.169000       0.139137
     9501.187600       0.141562
     9510.223500       0.144011
     9519.276500       0.146483
     9528.346800       0.148980
     9537.434400       0.151500
     9546.539400       0.154044
     9555.661700       0.156612
     9564.801500       0.159203
     9573.958800       0.161819
     9583.133700       0.164458
     9592.326100       0.167121
     9601.536200       0.169808
     9610.764100       0.172518
     9620.009600       0.175252
     9629.273000       0.178010
     9638.554200       0.180792
     9647.853400       0.183597
     9657.170400       0.186426
     9666.505600       0.189278
     9675.858700       0.192154
     9685.230000       0.195053
     9694.619500       0.197975
     9704.027200       0.200921
     9713.453100       0.203890
     9722.897400       0.206882
     9732.360100       0.209897
     9741.841200       0.212936
     9751.340800       0.215997
     9760.859000       0.219081
     9770.395700       0.222188
     9779.951100       0.225317
     9789.525200       0.228469
     9799.118100       0.231644
     9808.729800       0.234841
     9818.360300       0.238060
     9828.009800       0.241301
     9837.678300       0.244565
     9847.365800       0.247850
     9857.072400       0.251157
     9866.798200       0.254486
     9876.543200       0.257836
     9886.307500       0.261208
     9896.091000       0.264601
     9905.894000       0.268015
     9915.716400       0.271450
     9925.558300       0.274906
     9935.419800       0.278382
     9945.300800       0.281879
     9955.201600       0.285396
     9965.122100       0.288934
     9975.062300       0.292491
     9985.022500       0.296068
     9995.002500       0.299665
    10005.002500       0.303281
    10015.022500       0.306916
    10025.062700       0.310570
    10035.122900       0.314243
    10045.203400       0.317935
    10055.304200       0.321645
    10065.425300       0.325374
    10075.566800       0.329120
    10085.728700       0.332884
    10095.911200       0.336665
    10106.114200       0.340464
    10116.337900       0.344280
    10126.582300       0.348112
    10136.847400       0.351961
    10147.133400       0.355827
    10157.440300       0.359708
    10167.768200       0.363605
    10178.117000       0.367518
    10188.487000       0.371446
    10198.878100       0.375390
    10209.290500       0.379347
    10219.724100       0.383320
    10230.179000       0.387306
    10240.655400       0.391307
    10251.153300       0.395321
    10261.672700       0.399348
    10272.213700       0.403388
    10282.776300       0.407441
    10293.360800       0.411507
    10303.967000       0.415585
    10314.595200       0.419674
    10325.245200       0.423775
    10335.917300       0.427887
    10346.611500       0.432011
    10357.327800       0.436144
    10368.066400       0.440288
    10378.827200       0.444442
    10389.610400       0.448605
    10400.416000       0.452778
    10411.244100       0.456959
    10422.094800       0.461149
    10432.968200       0.465347
    10443.864200       0.469554
    10454.783100       0.473767
    10465.724800       0.477988
    10476.689400       0.482216
    10487.677000       0.486450
    10498.687700       0.490690
    10509.721500       0.494936
    10520.778500       0.499187
    10531.858900       0.503443
    10542.962600       0.507704
    10554.089700       0.511970
    10565.240400       0.516239
    10576.414600       0.520511
    10587.612500       0.524787
    10598.834100       0.529065
    10610.079600       0.533346
    10621.348900       0.537629
    10632.642200       0.541913
    10643.959600       0.546199
    10655.301000       0.550485
    10666.666700       0.554772
    10678.056600       0.559059
    10689.470900       0.563345
    10700.909600       0.567631
    10712.372800       0.571916
    10723.860600       0.576199
    10735.373100       0.580480
    10746.910300       0.584759
    10758.472300       0.589035
    10770.059200       0.593307
    10781.671200       0.597577
    10793.308100       0.601842
    10804.970300       0.606103
    10816.657700       0.610359
    10828.370300       0.614610
    10840.108400       0.618855
    10851.871900       0.623095
    10863.661100       0.627328
    10875.475800       0.631554
    10887.316300       0.635773
    10899.182600       0.639984
    10911.074700       0.644188
    10922.992900       0.648382
    10934.937100       0.652568
    10946.907500       0.656745
    10958.904100       0.660912
    10970.927000       0.665069
    10982.976400       0.669215
    10995.052200       0.673351
    11007.154700       0.677475
    11019.283700       0.681588
    11031.439600       0.685688
    11043.622300       0.689776
    11055.832000       0.693851
    11068.068600       0.697913
    11080.332400       0.701961
    11092.623400       0.705995
    11104.941700       0.710014
    11117.287400       0.714019
    11129.660500       0.718008
    11142.061300       0.721982
    11154.489700       0.725939
    11166.945800       0.729880
    11179.429800       0.733804
    11191.941800       0.737711
    11204.481800       0.741600
    11217.049900       0.745472
    11229.646300       0.749324
    11242.270900       0.753158
    11254.924000       0.756974
    11267.605600       0.760769
    11280.315800       0.764544
    11293.054800       0.768300
    11305.822500       0.772034
    11318.619100       0.775748
    11331.444800       0.779440
    11344.299500       0.783111
    11357.183400       0.786759
    11370.096600       0.790385
    11383.039300       0.793988
    11396.011400       0.797569
    11409.013100       0.801125
    11422.044500       0.804658
    11435.105800       0.808167
    11448.196900       0.811651
    11461.318100       0.815111
    11474.469300       0.818545
    11487.650800       0.821954
    11500.862600       0.825338
    11514.104800       0.828695
    11527.377500       0.832025
    11540.680900       0.835329
    11554.015000       0.838606
    11567.380000       0.841856
    11580.775900       0.845078
    11594.202900       0.848272
    11607.661100       0.851438
    11621.150500       0.854576
    11634.671300       0.857685
    11648.223600       0.860765
    11661.807600       0.863815
    11675.423200       0.866836
    11689.070700       0.869828
    11702.750100       0.872789
    11716.461600       0.875720
    11730.205300       0.878620
    11743.981200       0.881489
    11757.789500       0.884328
    11771.630400       0.887135
    11785.503800       0.889910
    11799.410000       0.892654
    11813.349100       0.895366
    11827.321100       0.898046
    11841.326200       0.900693
    11855.364600       0.903308
    11869.436200       0.905891
    11883.541300       0.908440
    11897.680000       0.910956
    11911.852300       0.913438
    11926.058400       0.915888
    11940.298500       0.918303
    11954.572600       0.920685
    11968.880900       0.923033
    11983.223500       0.925346
    11997.600500       0.927625
    12012.012000       0.929870
    12026.458200       0.932081
    12040.939200       0.934256
    12055.455100       0.936397
    12070.006000       0.938503
    12084.592100       0.940574
    12099.213600       0.942609
    12113.870400       0.944610
    12128.562800       0.946575
    12143.290800       0.948504
    12158.054700       0.950398
    12172.854500       0.952257
    12187.690400       0.954079
    12202.562500       0.955866
    12217.471000       0.957618
    12232.415900       0.959333
    12247.397400       0.961012
    12262.415700       0.962656
    12277.470800       0.964264
    12292.563000       0.965835
    12307.692300       0.967370
    12322.858900       0.968870
    12338.062900       0.970333
    12353.304500       0.971761
    12368.583800       0.973152
    12383.900900       0.974507
    12399.256000       0.975826
    12414.649300       0.977109
    12430.080800       0.978356
    12445.550700       0.979567
    12461.059200       0.980743
    12476.606400       0.981882
    12492.192400       0.982985
    12507.817400       0.984053
    12523.481500       0.985085
    12539.185000       0.986081
    12554.927800       0.987042
    12570.710200       0.987968
    12586.532400       0.988858
    12602.394500       0.989712
    12618.296500       0.990532
    12634.238800       0.991316
    12650.221400       0.992065
    12666.244500       0.992780
    12682.308200       0.993459
    12698.412700       0.994104
    12714.558200       0.994715
    12730.744700       0.995291
    12746.972600       0.995833
    12763.241900       0.996342
    12779.552700       0.996816
    12795.905300       0.997256
    12812.299800       0.997663
    12828.736400       0.998037
    12845.215200       0.998377
    12861.736300       0.998684
    12878.300100       0.998959
    12894.906500       0.999201
    12911.555800       0.999411
    12928.248200       0.999588
    12944.983800       0.999733
    12961.762800       0.999847
    12978.585300       0.999929
    12995.451600       0.999980
    13012.361700       1.000000
    13029.316000       0.999989
    13046.314400       0.999947
    13063.357300       0.999876
    13080.444700       0.999774
    13097.576900       0.999642
    13114.754100       0.999481
    13131.976400       0.999290
    13149.243900       0.999071
    13166.556900       0.998823
    13183.915600       0.998546
    13201.320100       0.998241
    13218.770700       0.997909
    13236.267400       0.997549
    13253.810500       0.997162
    13271.400100       0.996748
    13289.036500       0.996307
    13306.719900       0.995840
    13324.450400       0.995347
    13342.228200       0.994828
    13360.053400       0.994285
    13377.926400       0.993716
    13395.847300       0.993122
    13413.816200       0.992505
    13431.833400       0.991863
    13449.899100       0.991198
    13468.013500       0.990510
    13486.176700       0.989798
    13504.388900       0.989064
    13522.650400       0.988309
    13540.961400       0.987531
    13559.322000       0.986732
    13577.732500       0.985912
    13596.193100       0.985071
    13614.703900       0.984210
    13633.265200       0.983329
    13651.877100       0.982428
    13670.540000       0.981509
    13689.253900       0.980570
    13708.019200       0.979613
    13726.836000       0.978639
    13745.704500       0.977647
    13764.624900       0.976637
    13783.597500       0.975611
    13802.622500       0.974568
    13821.700100       0.973510
    13840.830400       0.972436
    13860.013900       0.971347
    13879.250500       0.970243
    13898.540700       0.969125
    13917.884500       0.967993
    13937.282200       0.966847
    13956.734100       0.965688
    13976.240400       0.964517
    13995.801300       0.963334
    14015.417000       0.962138
    14035.087700       0.960931
    14054.813800       0.959714
    14074.595400       0.958485
    14094.432700       0.957247
    14114.326000       0.955998
    14134.275600       0.954741
    14154.281700       0.953474
    14174.344400       0.952199
    14194.464200       0.950916
    14214.641100       0.949626
    14234.875400       0.948328
    14255.167500       0.947023
    14275.517500       0.945712
    14295.925700       0.944395
    14316.392300       0.943073
    14336.917600       0.941745
    14357.501800       0.940413
    14378.145200       0.939076
    14398.848100       0.937736
    14419.610700       0.936391
    14440.433200       0.935044
    14461.316000       0.933694
    14482.259200       0.932342
    14503.263200       0.930988
    14524.328200       0.929633
    14545.454500       0.928277
    14566.642400       0.926920
    14587.892000       0.925562
    14609.203800       0.924205
    14630.577900       0.922848
    14652.014700       0.921492
    14673.514300       0.920138
    14695.077100       0.918785
    14716.703500       0.917434
    14738.393500       0.916086
    14760.147600       0.914740
    14781.966000       0.913398
    14803.849000       0.912059
    14825.796900       0.910724
    14847.809900       0.909393
    14869.888500       0.908067
    14892.032800       0.906745
    14914.243100       0.905429
    14936.519800       0.904119
    14958.863100       0.902814
    14981.273400       0.901516
    15003.750900       0.900225
    15026.296000       0.898940
    15048.909000       0.897663
    15071.590100       0.896393
    15094.339600       0.895131
    15117.158000       0.893878
    15140.045400       0.892632
    15163.002300       0.891396
    15186.028900       0.890169
    15209.125500       0.888951
    15232.292500       0.887742
    15255.530100       0.886543
    15278.838800       0.885355
    15302.218800       0.884177
    15325.670500       0.883010
    15349.194200       0.881853
    15372.790200       0.880708
    15396.458800       0.879574
    15420.200500       0.878451
    15444.015400       0.877341
    15467.904100       0.876242
    15491.866800       0.875156
    15515.903800       0.874082
    15540.015500       0.873021
    15564.202300       0.871972
    15588.464500       0.870936
    15612.802500       0.869914
    15637.216600       0.868905
    15661.707100       0.867909
    15686.274500       0.866927
    15710.919100       0.865959
    15735.641200       0.865004
    15760.441300       0.864064
    15785.319700       0.863137
    15810.276700       0.862225
    15835.312700       0.861327
    15860.428200       0.860444
    15885.623500       0.859575
    15910.899000       0.858720
    15936.255000       0.857881
    15961.691900       0.857055
    15987.210200       0.856245
    16012.810200       0.855449
    16038.492400       0.854668
    16064.257000       0.853902
    16090.104600       0.853151
    16116.035500       0.852415
    16142.050000       0.851693
    16168.148700       0.850986
    16194.332000       0.850294
    16220.600200       0.849617
    16246.953700       0.848954
    16273.393000       0.848306
    16299.918500       0.847673
    16326.530600       0.847054
    16353.229800       0.846450
    16380.016400       0.845860
    16406.890900       0.845284
    16433.853700       0.844722
    16460.905300       0.844174
    16488.046200       0.843641
    16515.276600       0.843121
    16542.597200       0.842614
    16570.008300       0.842121
    16597.510400       0.841641
    16625.103900       0.841175
    16652.789300       0.840721
    16680.567100       0.840280
    16708.437800       0.839851
    16736.401700       0.839435
    16764.459300       0.839030
    16792.611300       0.838638
    16820.857900       0.838257
    16849.199700       0.837887
    16877.637100       0.837528
    16906.170800       0.837181
    16934.801000       0.836843
    16963.528400       0.836516
    16992.353400       0.836198
    17021.276600       0.835890
    17050.298400       0.835591
    17079.419300       0.835301
    17108.639900       0.835020
    17137.960600       0.834747
    17167.382000       0.834481
    17196.904600       0.834223
    17226.528900       0.833971
    17256.255400       0.833727
    17286.084700       0.833488
