   5  ,noaa_11_hirs_05.flt
Number of data points:
101
Wavenumber (cm-1)   Filter response
      690.020000       0.000000
      690.510000       0.000000
      691.010000       0.000000
      691.510000       0.000000
      692.000000       0.000000
      692.500000       0.000000
      693.000000       0.000000
      693.500000       0.002546
      693.990000       0.003600
      694.490000       0.003900
      694.990000       0.004843
      695.490000       0.002679
      695.980000       0.006234
      696.480000       0.006293
      696.980000       0.008068
      697.470000       0.010262
      697.970000       0.010345
      698.470000       0.010429
      698.970000       0.012813
      699.460000       0.018221
      699.960000       0.021367
      700.470000       0.023791
      700.970000       0.025075
      701.460000       0.030128
      701.960000       0.038041
      702.460000       0.047157
      702.950000       0.057431
      703.440000       0.073261
      703.930000       0.096106
      704.420000       0.114510
      704.970000       0.143470
      705.460000       0.176800
      705.940000       0.215440
      706.470000       0.263650
      706.940000       0.325320
      707.470000       0.380760
      707.950000       0.448360
      708.480000       0.515200
      708.960000       0.590400
      709.450000       0.644670
      709.930000       0.703310
      710.440000       0.752520
      710.940000       0.796760
      711.430000       0.839510
      711.920000       0.864530
      712.410000       0.886230
      712.920000       0.915220
      713.410000       0.932940
      713.900000       0.955990
      714.400000       0.965380
      714.890000       0.973740
      715.380000       0.986180
      715.880000       0.994300
      716.370000       0.997730
      716.870000       1.000000
      717.370000       0.996590
      717.870000       0.984060
      718.370000       0.978070
      718.870000       0.960360
      719.360000       0.944620
      719.860000       0.930520
      720.380000       0.906570
      720.890000       0.882960
      721.410000       0.855470
      721.900000       0.822540
      722.410000       0.784830
      722.920000       0.741570
      723.440000       0.697710
      723.960000       0.638340
      724.470000       0.586530
      724.980000       0.521240
      725.480000       0.463610
      725.980000       0.398670
      726.490000       0.343070
      726.990000       0.290030
      727.510000       0.245790
      728.030000       0.201790
      728.550000       0.171840
      729.060000       0.139580
      729.570000       0.112760
      730.100000       0.093730
      730.590000       0.077802
      731.070000       0.064467
      731.560000       0.055875
      732.060000       0.048551
      732.550000       0.038277
      733.040000       0.034725
      733.540000       0.031590
      734.040000       0.026803
      734.530000       0.024316
      735.030000       0.018663
      735.520000       0.018752
      736.020000       0.017826
      736.520000       0.012994
      737.020000       0.015095
      737.520000       0.013681
      738.010000       0.013726
      738.510000       0.013771
      739.010000       0.012042
      739.510000       0.010530
      740.000000       0.000000
