18,   18, MVIRI VIS channel from srf_MET2_1984123_1984124_1801-Release_S10EL_10.dat
Number of data points:
730
Wavenumber (cm-1)   Filter response
     8916.629500       0.000000
     8924.587200       0.000000
     8932.559200       0.000002
     8940.545400       0.000011
     8948.545900       0.000032
     8956.560700       0.000068
     8964.589900       0.000125
     8972.633500       0.000206
     8980.691500       0.000315
     8988.764000       0.000457
     8996.851100       0.000634
     9004.952700       0.000850
     9013.068900       0.001109
     9021.199800       0.001414
     9029.345400       0.001767
     9037.505600       0.002172
     9045.680700       0.002631
     9053.870500       0.003148
     9062.075200       0.003723
     9070.294800       0.004360
     9078.529300       0.005062
     9086.778700       0.005829
     9095.043200       0.006664
     9103.322700       0.007569
     9111.617300       0.008546
     9119.927000       0.009596
     9128.251900       0.010721
     9136.592100       0.011921
     9144.947400       0.013199
     9153.318100       0.014556
     9161.704100       0.015993
     9170.105500       0.017510
     9178.522300       0.019109
     9186.954500       0.020790
     9195.402300       0.022554
     9203.865600       0.024402
     9212.344500       0.026335
     9220.839100       0.028352
     9229.349300       0.030454
     9237.875300       0.032642
     9246.417000       0.034916
     9254.974500       0.037276
     9263.547900       0.039722
     9272.137200       0.042253
     9280.742500       0.044871
     9289.363700       0.047574
     9298.000900       0.050364
     9306.654300       0.053239
     9315.323700       0.056199
     9324.009300       0.059244
     9332.711200       0.062373
     9341.429200       0.065587
     9350.163600       0.068884
     9358.914400       0.072264
     9367.681500       0.075726
     9376.465100       0.079271
     9385.265100       0.082895
     9394.081700       0.086601
     9402.914900       0.090386
     9411.764700       0.094250
     9420.631200       0.098192
     9429.514400       0.102210
     9438.414300       0.106305
     9447.331100       0.110474
     9456.264800       0.114718
     9465.215300       0.119036
     9474.182900       0.123424
     9483.167400       0.127885
     9492.169000       0.132414
     9501.187600       0.137013
     9510.223500       0.141680
     9519.276500       0.146412
     9528.346800       0.151210
     9537.434400       0.156072
     9546.539400       0.160997
     9555.661700       0.165983
     9564.801500       0.171029
     9573.958800       0.176135
     9583.133700       0.181298
     9592.326100       0.186517
     9601.536200       0.191792
     9610.764100       0.197120
     9620.009600       0.202500
     9629.273000       0.207932
     9638.554200       0.213413
     9647.853400       0.218942
     9657.170400       0.224517
     9666.505600       0.230139
     9675.858700       0.235805
     9685.230000       0.241512
     9694.619500       0.247262
     9704.027200       0.253050
     9713.453100       0.258878
     9722.897400       0.264743
     9732.360100       0.270642
     9741.841200       0.276576
     9751.340800       0.282543
     9760.859000       0.288541
     9770.395700       0.294569
     9779.951100       0.300626
     9789.525200       0.306709
     9799.118100       0.312819
     9808.729800       0.318952
     9818.360300       0.325109
     9828.009800       0.331286
     9837.678300       0.337485
     9847.365800       0.343702
     9857.072400       0.349935
     9866.798200       0.356186
     9876.543200       0.362450
     9886.307500       0.368729
     9896.091000       0.375019
     9905.894000       0.381319
     9915.716400       0.387630
     9925.558300       0.393948
     9935.419800       0.400273
     9945.300800       0.406603
     9955.201600       0.412937
     9965.122100       0.419275
     9975.062300       0.425613
     9985.022500       0.431953
     9995.002500       0.438292
    10005.002500       0.444628
    10015.022500       0.450961
    10025.062700       0.457290
    10035.122900       0.463613
    10045.203400       0.469929
    10055.304200       0.476238
    10065.425300       0.482537
    10075.566800       0.488826
    10085.728700       0.495104
    10095.911200       0.501370
    10106.114200       0.507622
    10116.337900       0.513859
    10126.582300       0.520081
    10136.847400       0.526286
    10147.133400       0.532474
    10157.440300       0.538643
    10167.768200       0.544792
    10178.117000       0.550921
    10188.487000       0.557028
    10198.878100       0.563113
    10209.290500       0.569174
    10219.724100       0.575211
    10230.179000       0.581223
    10240.655400       0.587209
    10251.153300       0.593167
    10261.672700       0.599098
    10272.213700       0.605001
    10282.776300       0.610873
    10293.360800       0.616716
    10303.967000       0.622528
    10314.595200       0.628308
    10325.245200       0.634056
    10335.917300       0.639770
    10346.611500       0.645451
    10357.327800       0.651097
    10368.066400       0.656707
    10378.827200       0.662282
    10389.610400       0.667820
    10400.416000       0.673321
    10411.244100       0.678784
    10422.094800       0.684208
    10432.968200       0.689593
    10443.864200       0.694940
    10454.783100       0.700246
    10465.724800       0.705511
    10476.689400       0.710735
    10487.677000       0.715917
    10498.687700       0.721057
    10509.721500       0.726155
    10520.778500       0.731209
    10531.858900       0.736220
    10542.962600       0.741188
    10554.089700       0.746110
    10565.240400       0.750988
    10576.414600       0.755821
    10587.612500       0.760609
    10598.834100       0.765350
    10610.079600       0.770046
    10621.348900       0.774695
    10632.642200       0.779297
    10643.959600       0.783852
    10655.301000       0.788360
    10666.666700       0.792820
    10678.056600       0.797232
    10689.470900       0.801596
    10700.909600       0.805912
    10712.372800       0.810180
    10723.860600       0.814398
    10735.373100       0.818568
    10746.910300       0.822689
    10758.472300       0.826760
    10770.059200       0.830782
    10781.671200       0.834755
    10793.308100       0.838678
    10804.970300       0.842551
    10816.657700       0.846374
    10828.370300       0.850148
    10840.108400       0.853871
    10851.871900       0.857545
    10863.661100       0.861168
    10875.475800       0.864742
    10887.316300       0.868265
    10899.182600       0.871737
    10911.074700       0.875160
    10922.992900       0.878533
    10934.937100       0.881855
    10946.907500       0.885127
    10958.904100       0.888350
    10970.927000       0.891522
    10982.976400       0.894644
    10995.052200       0.897716
    11007.154700       0.900738
    11019.283700       0.903711
    11031.439600       0.906634
    11043.622300       0.909507
    11055.832000       0.912331
    11068.068600       0.915105
    11080.332400       0.917831
    11092.623400       0.920507
    11104.941700       0.923134
    11117.287400       0.925712
    11129.660500       0.928241
    11142.061300       0.930723
    11154.489700       0.933155
    11166.945800       0.935540
    11179.429800       0.937876
    11191.941800       0.940165
    11204.481800       0.942406
    11217.049900       0.944600
    11229.646300       0.946747
    11242.270900       0.948846
    11254.924000       0.950899
    11267.605600       0.952905
    11280.315800       0.954865
    11293.054800       0.956779
    11305.822500       0.958647
    11318.619100       0.960470
    11331.444800       0.962247
    11344.299500       0.963979
    11357.183400       0.965667
    11370.096600       0.967309
    11383.039300       0.968908
    11396.011400       0.970462
    11409.013100       0.971973
    11422.044500       0.973440
    11435.105800       0.974864
    11448.196900       0.976246
    11461.318100       0.977584
    11474.469300       0.978880
    11487.650800       0.980135
    11500.862600       0.981347
    11514.104800       0.982518
    11527.377500       0.983648
    11540.680900       0.984737
    11554.015000       0.985786
    11567.380000       0.986794
    11580.775900       0.987763
    11594.202900       0.988692
    11607.661100       0.989582
    11621.150500       0.990432
    11634.671300       0.991245
    11648.223600       0.992018
    11661.807600       0.992754
    11675.423200       0.993452
    11689.070700       0.994113
    11702.750100       0.994737
    11716.461600       0.995324
    11730.205300       0.995875
    11743.981200       0.996389
    11757.789500       0.996868
    11771.630400       0.997311
    11785.503800       0.997720
    11799.410000       0.998093
    11813.349100       0.998432
    11827.321100       0.998737
    11841.326200       0.999009
    11855.364600       0.999246
    11869.436200       0.999451
    11883.541300       0.999623
    11897.680000       0.999762
    11911.852300       0.999869
    11926.058400       0.999944
    11940.298500       0.999988
    11954.572600       1.000000
    11968.880900       0.999981
    11983.223500       0.999932
    11997.600500       0.999853
    12012.012000       0.999743
    12026.458200       0.999604
    12040.939200       0.999436
    12055.455100       0.999238
    12070.006000       0.999012
    12084.592100       0.998757
    12099.213600       0.998474
    12113.870400       0.998163
    12128.562800       0.997825
    12143.290800       0.997459
    12158.054700       0.997067
    12172.854500       0.996648
    12187.690400       0.996202
    12202.562500       0.995730
    12217.471000       0.995233
    12232.415900       0.994710
    12247.397400       0.994162
    12262.415700       0.993589
    12277.470800       0.992991
    12292.563000       0.992368
    12307.692300       0.991722
    12322.858900       0.991051
    12338.062900       0.990358
    12353.304500       0.989640
    12368.583800       0.988900
    12383.900900       0.988137
    12399.256000       0.987351
    12414.649300       0.986542
    12430.080800       0.985712
    12445.550700       0.984860
    12461.059200       0.983987
    12476.606400       0.983091
    12492.192400       0.982175
    12507.817400       0.981238
    12523.481500       0.980281
    12539.185000       0.979303
    12554.927800       0.978304
    12570.710200       0.977286
    12586.532400       0.976248
    12602.394500       0.975190
    12618.296500       0.974114
    12634.238800       0.973018
    12650.221400       0.971903
    12666.244500       0.970769
    12682.308200       0.969617
    12698.412700       0.968447
    12714.558200       0.967258
    12730.744700       0.966052
    12746.972600       0.964828
    12763.241900       0.963586
    12779.552700       0.962327
    12795.905300       0.961051
    12812.299800       0.959758
    12828.736400       0.958448
    12845.215200       0.957121
    12861.736300       0.955778
    12878.300100       0.954419
    12894.906500       0.953043
    12911.555800       0.951652
    12928.248200       0.950245
    12944.983800       0.948822
    12961.762800       0.947383
    12978.585300       0.945929
    12995.451600       0.944460
    13012.361700       0.942976
    13029.316000       0.941477
    13046.314400       0.939963
    13063.357300       0.938435
    13080.444700       0.936892
    13097.576900       0.935335
    13114.754100       0.933763
    13131.976400       0.932177
    13149.243900       0.930577
    13166.556900       0.928964
    13183.915600       0.927336
    13201.320100       0.925695
    13218.770700       0.924041
    13236.267400       0.922373
    13253.810500       0.920691
    13271.400100       0.918997
    13289.036500       0.917289
    13306.719900       0.915569
    13324.450400       0.913835
    13342.228200       0.912089
    13360.053400       0.910330
    13377.926400       0.908558
    13395.847300       0.906774
    13413.816200       0.904978
    13431.833400       0.903169
    13449.899100       0.901348
    13468.013500       0.899515
    13486.176700       0.897670
    13504.388900       0.895812
    13522.650400       0.893943
    13540.961400       0.892062
    13559.322000       0.890170
    13577.732500       0.888266
    13596.193100       0.886350
    13614.703900       0.884422
    13633.265200       0.882483
    13651.877100       0.880533
    13670.540000       0.878572
    13689.253900       0.876599
    13708.019200       0.874615
    13726.836000       0.872621
    13745.704500       0.870615
    13764.624900       0.868598
    13783.597500       0.866570
    13802.622500       0.864532
    13821.700100       0.862482
    13840.830400       0.860422
    13860.013900       0.858352
    13879.250500       0.856271
    13898.540700       0.854179
    13917.884500       0.852077
    13937.282200       0.849964
    13956.734100       0.847841
    13976.240400       0.845708
    13995.801300       0.843565
    14015.417000       0.841412
    14035.087700       0.839248
    14054.813800       0.837075
    14074.595400       0.834891
    14094.432700       0.832698
    14114.326000       0.830494
    14134.275600       0.828281
    14154.281700       0.826058
    14174.344400       0.823826
    14194.464200       0.821583
    14214.641100       0.819331
    14234.875400       0.817070
    14255.167500       0.814799
    14275.517500       0.812519
    14295.925700       0.810230
    14316.392300       0.807931
    14336.917600       0.805623
    14357.501800       0.803305
    14378.145200       0.800979
    14398.848100       0.798644
    14419.610700       0.796299
    14440.433200       0.793946
    14461.316000       0.791584
    14482.259200       0.789213
    14503.263200       0.786833
    14524.328200       0.784445
    14545.454500       0.782048
    14566.642400       0.779642
    14587.892000       0.777228
    14609.203800       0.774806
    14630.577900       0.772375
    14652.014700       0.769936
    14673.514300       0.767489
    14695.077100       0.765034
    14716.703500       0.762570
    14738.393500       0.760099
    14760.147600       0.757620
    14781.966000       0.755133
    14803.849000       0.752638
    14825.796900       0.750135
    14847.809900       0.747625
    14869.888500       0.745107
    14892.032800       0.742582
    14914.243100       0.740050
    14936.519800       0.737510
    14958.863100       0.734963
    14981.273400       0.732409
    15003.750900       0.729848
    15026.296000       0.727280
    15048.909000       0.724705
    15071.590100       0.722124
    15094.339600       0.719536
    15117.158000       0.716941
    15140.045400       0.714340
    15163.002300       0.711732
    15186.028900       0.709119
    15209.125500       0.706499
    15232.292500       0.703872
    15255.530100       0.701240
    15278.838800       0.698603
    15302.218800       0.695959
    15325.670500       0.693310
    15349.194200       0.690655
    15372.790200       0.687995
    15396.458800       0.685329
    15420.200500       0.682658
    15444.015400       0.679982
    15467.904100       0.677301
    15491.866800       0.674616
    15515.903800       0.671925
    15540.015500       0.669230
    15564.202300       0.666530
    15588.464500       0.663826
    15612.802500       0.661118
    15637.216600       0.658406
    15661.707100       0.655689
    15686.274500       0.652969
    15710.919100       0.650245
    15735.641200       0.647517
    15760.441300       0.644786
    15785.319700       0.642051
    15810.276700       0.639313
    15835.312700       0.636572
    15860.428200       0.633828
    15885.623500       0.631081
    15910.899000       0.628331
    15936.255000       0.625579
    15961.691900       0.622825
    15987.210200       0.620068
    16012.810200       0.617308
    16038.492400       0.614547
    16064.257000       0.611784
    16090.104600       0.609020
    16116.035500       0.606253
    16142.050000       0.603485
    16168.148700       0.600716
    16194.332000       0.597946
    16220.600200       0.595175
    16246.953700       0.592403
    16273.393000       0.589630
    16299.918500       0.586856
    16326.530600       0.584082
    16353.229800       0.581308
    16380.016400       0.578534
    16406.890900       0.575760
    16433.853700       0.572985
    16460.905300       0.570212
    16488.046200       0.567438
    16515.276600       0.564665
    16542.597200       0.561893
    16570.008300       0.559122
    16597.510400       0.556352
    16625.103900       0.553583
    16652.789300       0.550815
    16680.567100       0.548049
    16708.437800       0.545285
    16736.401700       0.542522
    16764.459300       0.539762
    16792.611300       0.537003
    16820.857900       0.534247
    16849.199700       0.531493
    16877.637100       0.528741
    16906.170800       0.525992
    16934.801000       0.523246
    16963.528400       0.520503
    16992.353400       0.517763
    17021.276600       0.515026
    17050.298400       0.512293
    17079.419300       0.509563
    17108.639900       0.506836
    17137.960600       0.504114
    17167.382000       0.501395
    17196.904600       0.498681
    17226.528900       0.495970
    17256.255400       0.493264
    17286.084700       0.490562
    17316.017300       0.487865
    17346.053800       0.485173
    17376.194600       0.482485
    17406.440400       0.479802
    17436.791600       0.477124
    17467.248900       0.474452
    17497.812800       0.471785
    17528.483800       0.469123
    17559.262500       0.466466
    17590.149500       0.463815
    17621.145400       0.461170
    17652.250700       0.458531
    17683.466000       0.455898
    17714.791900       0.453270
    17746.228900       0.450649
    17777.777800       0.448034
    17809.439000       0.445425
    17841.213200       0.442823
    17873.101000       0.440227
    17905.103000       0.437638
    17937.219700       0.435055
    17969.451900       0.432479
    18001.800200       0.429910
    18034.265100       0.427347
    18066.847300       0.424792
    18099.547500       0.422244
    18132.366300       0.419702
    18165.304300       0.417168
    18198.362100       0.414640
    18231.540600       0.412120
    18264.840200       0.409608
    18298.261700       0.407102
    18331.805700       0.404604
    18365.472900       0.402113
    18399.264000       0.399630
    18433.179700       0.397154
    18467.220700       0.394685
    18501.387600       0.392224
    18535.681200       0.389770
    18570.102100       0.387324
    18604.651200       0.384885
    18639.329000       0.382454
    18674.136300       0.380030
    18709.073900       0.377614
    18744.142500       0.375205
    18779.342700       0.372804
    18814.675400       0.370410
    18850.141400       0.368023
    18885.741300       0.365644
    18921.475900       0.363273
    18957.346000       0.360908
    18993.352300       0.358551
    19029.495700       0.356201
    19065.776900       0.353858
    19102.196800       0.351523
    19138.756000       0.349194
    19175.455400       0.346872
    19212.295900       0.344558
    19249.278200       0.342250
    19286.403100       0.339949
    19323.671500       0.337654
    19361.084200       0.335366
    19398.642100       0.333085
    19436.346000       0.330810
    19474.196700       0.328542
    19512.195100       0.326279
    19550.342100       0.324023
    19588.638600       0.321773
    19627.085400       0.319528
    19665.683400       0.317290
    19704.433500       0.315056
    19743.336600       0.312829
    19782.393700       0.310607
    19821.605600       0.308389
    19860.973200       0.306177
    19900.497500       0.303970
