26,   26, MVIRI VIS channel from srf_MET4_1992258_1992259_1801-Release_S10EL_10.dat
Number of data points:
752
Wavenumber (cm-1)   Filter response
     8745.080900       0.000000
     8752.735200       0.000000
     8760.403000       0.000001
     8768.084200       0.000059
     8775.778900       0.000200
     8783.487000       0.000422
     8791.208800       0.000722
     8798.944100       0.001098
     8806.693100       0.001548
     8814.455700       0.002069
     8822.232000       0.002659
     8830.022100       0.003316
     8837.825900       0.004039
     8845.643500       0.004825
     8853.475000       0.005672
     8861.320300       0.006578
     8869.179600       0.007542
     8877.052800       0.008563
     8884.940000       0.009637
     8892.841300       0.010763
     8900.756600       0.011941
     8908.686000       0.013168
     8916.629500       0.014444
     8924.587200       0.015766
     8932.559200       0.017132
     8940.545400       0.018543
     8948.545900       0.019997
     8956.560700       0.021492
     8964.589900       0.023026
     8972.633500       0.024600
     8980.691500       0.026212
     8988.764000       0.027861
     8996.851100       0.029545
     9004.952700       0.031264
     9013.068900       0.033017
     9021.199800       0.034803
     9029.345400       0.036620
     9037.505600       0.038469
     9045.680700       0.040349
     9053.870500       0.042257
     9062.075200       0.044195
     9070.294800       0.046161
     9078.529300       0.048154
     9086.778700       0.050174
     9095.043200       0.052219
     9103.322700       0.054291
     9111.617300       0.056387
     9119.927000       0.058508
     9128.251900       0.060652
     9136.592100       0.062820
     9144.947400       0.065011
     9153.318100       0.067224
     9161.704100       0.069459
     9170.105500       0.071716
     9178.522300       0.073994
     9186.954500       0.076292
     9195.402300       0.078612
     9203.865600       0.080951
     9212.344500       0.083310
     9220.839100       0.085689
     9229.349300       0.088087
     9237.875300       0.090504
     9246.417000       0.092940
     9254.974500       0.095394
     9263.547900       0.097867
     9272.137200       0.100358
     9280.742500       0.102867
     9289.363700       0.105394
     9298.000900       0.107939
     9306.654300       0.110501
     9315.323700       0.113080
     9324.009300       0.115677
     9332.711200       0.118291
     9341.429200       0.120921
     9350.163600       0.123569
     9358.914400       0.126234
     9367.681500       0.128915
     9376.465100       0.131614
     9385.265100       0.134328
     9394.081700       0.137060
     9402.914900       0.139808
     9411.764700       0.142573
     9420.631200       0.145355
     9429.514400       0.148152
     9438.414300       0.150967
     9447.331100       0.153798
     9456.264800       0.156645
     9465.215300       0.159509
     9474.182900       0.162389
     9483.167400       0.165286
     9492.169000       0.168199
     9501.187600       0.171130
     9510.223500       0.174076
     9519.276500       0.177039
     9528.346800       0.180018
     9537.434400       0.183015
     9546.539400       0.186027
     9555.661700       0.189057
     9564.801500       0.192102
     9573.958800       0.195165
     9583.133700       0.198244
     9592.326100       0.201340
     9601.536200       0.204453
     9610.764100       0.207582
     9620.009600       0.210729
     9629.273000       0.213892
     9638.554200       0.217072
     9647.853400       0.220269
     9657.170400       0.223482
     9666.505600       0.226713
     9675.858700       0.229960
     9685.230000       0.233224
     9694.619500       0.236506
     9704.027200       0.239803
     9713.453100       0.243119
     9722.897400       0.246451
     9732.360100       0.249799
     9741.841200       0.253165
     9751.340800       0.256548
     9760.859000       0.259947
     9770.395700       0.263364
     9779.951100       0.266797
     9789.525200       0.270247
     9799.118100       0.273714
     9808.729800       0.277198
     9818.360300       0.280698
     9828.009800       0.284215
     9837.678300       0.287749
     9847.365800       0.291300
     9857.072400       0.294866
     9866.798200       0.298450
     9876.543200       0.302049
     9886.307500       0.305666
     9896.091000       0.309298
     9905.894000       0.312947
     9915.716400       0.316612
     9925.558300       0.320292
     9935.419800       0.323989
     9945.300800       0.327702
     9955.201600       0.331430
     9965.122100       0.335174
     9975.062300       0.338933
     9985.022500       0.342708
     9995.002500       0.346499
    10005.002500       0.350304
    10015.022500       0.354124
    10025.062700       0.357960
    10035.122900       0.361809
    10045.203400       0.365674
    10055.304200       0.369553
    10065.425300       0.373446
    10075.566800       0.377353
    10085.728700       0.381274
    10095.911200       0.385209
    10106.114200       0.389157
    10116.337900       0.393119
    10126.582300       0.397094
    10136.847400       0.401082
    10147.133400       0.405082
    10157.440300       0.409095
    10167.768200       0.413121
    10178.117000       0.417158
    10188.487000       0.421207
    10198.878100       0.425268
    10209.290500       0.429341
    10219.724100       0.433424
    10230.179000       0.437518
    10240.655400       0.441623
    10251.153300       0.445738
    10261.672700       0.449864
    10272.213700       0.453999
    10282.776300       0.458143
    10293.360800       0.462298
    10303.967000       0.466460
    10314.595200       0.470632
    10325.245200       0.474812
    10335.917300       0.479000
    10346.611500       0.483196
    10357.327800       0.487400
    10368.066400       0.491610
    10378.827200       0.495827
    10389.610400       0.500051
    10400.416000       0.504281
    10411.244100       0.508517
    10422.094800       0.512759
    10432.968200       0.517005
    10443.864200       0.521257
    10454.783100       0.525513
    10465.724800       0.529773
    10476.689400       0.534037
    10487.677000       0.538305
    10498.687700       0.542575
    10509.721500       0.546848
    10520.778500       0.551123
    10531.858900       0.555401
    10542.962600       0.559680
    10554.089700       0.563960
    10565.240400       0.568241
    10576.414600       0.572522
    10587.612500       0.576804
    10598.834100       0.581085
    10610.079600       0.585365
    10621.348900       0.589644
    10632.642200       0.593922
    10643.959600       0.598198
    10655.301000       0.602471
    10666.666700       0.606742
    10678.056600       0.611009
    10689.470900       0.615273
    10700.909600       0.619533
    10712.372800       0.623788
    10723.860600       0.628039
    10735.373100       0.632284
    10746.910300       0.636524
    10758.472300       0.640758
    10770.059200       0.644985
    10781.671200       0.649205
    10793.308100       0.653418
    10804.970300       0.657623
    10816.657700       0.661820
    10828.370300       0.666009
    10840.108400       0.670188
    10851.871900       0.674358
    10863.661100       0.678518
    10875.475800       0.682667
    10887.316300       0.686806
    10899.182600       0.690934
    10911.074700       0.695050
    10922.992900       0.699154
    10934.937100       0.703245
    10946.907500       0.707324
    10958.904100       0.711389
    10970.927000       0.715440
    10982.976400       0.719478
    10995.052200       0.723500
    11007.154700       0.727508
    11019.283700       0.731500
    11031.439600       0.735476
    11043.622300       0.739436
    11055.832000       0.743379
    11068.068600       0.747305
    11080.332400       0.751214
    11092.623400       0.755104
    11104.941700       0.758976
    11117.287400       0.762829
    11129.660500       0.766663
    11142.061300       0.770477
    11154.489700       0.774271
    11166.945800       0.778044
    11179.429800       0.781797
    11191.941800       0.785529
    11204.481800       0.789238
    11217.049900       0.792926
    11229.646300       0.796591
    11242.270900       0.800233
    11254.924000       0.803853
    11267.605600       0.807448
    11280.315800       0.811019
    11293.054800       0.814566
    11305.822500       0.818088
    11318.619100       0.821585
    11331.444800       0.825056
    11344.299500       0.828502
    11357.183400       0.831921
    11370.096600       0.835313
    11383.039300       0.838679
    11396.011400       0.842017
    11409.013100       0.845327
    11422.044500       0.848609
    11435.105800       0.851863
    11448.196900       0.855088
    11461.318100       0.858284
    11474.469300       0.861451
    11487.650800       0.864587
    11500.862600       0.867694
    11514.104800       0.870771
    11527.377500       0.873816
    11540.680900       0.876831
    11554.015000       0.879814
    11567.380000       0.882766
    11580.775900       0.885686
    11594.202900       0.888573
    11607.661100       0.891428
    11621.150500       0.894251
    11634.671300       0.897040
    11648.223600       0.899796
    11661.807600       0.902518
    11675.423200       0.905207
    11689.070700       0.907861
    11702.750100       0.910481
    11716.461600       0.913066
    11730.205300       0.915617
    11743.981200       0.918132
    11757.789500       0.920613
    11771.630400       0.923057
    11785.503800       0.925466
    11799.410000       0.927839
    11813.349100       0.930176
    11827.321100       0.932476
    11841.326200       0.934740
    11855.364600       0.936967
    11869.436200       0.939157
    11883.541300       0.941310
    11897.680000       0.943425
    11911.852300       0.945504
    11926.058400       0.947544
    11940.298500       0.949547
    11954.572600       0.951512
    11968.880900       0.953439
    11983.223500       0.955327
    11997.600500       0.957177
    12012.012000       0.958989
    12026.458200       0.960763
    12040.939200       0.962497
    12055.455100       0.964193
    12070.006000       0.965850
    12084.592100       0.967468
    12099.213600       0.969047
    12113.870400       0.970587
    12128.562800       0.972087
    12143.290800       0.973549
    12158.054700       0.974971
    12172.854500       0.976353
    12187.690400       0.977696
    12202.562500       0.979000
    12217.471000       0.980264
    12232.415900       0.981489
    12247.397400       0.982674
    12262.415700       0.983819
    12277.470800       0.984925
    12292.563000       0.985992
    12307.692300       0.987019
    12322.858900       0.988006
    12338.062900       0.988954
    12353.304500       0.989862
    12368.583800       0.990731
    12383.900900       0.991560
    12399.256000       0.992350
    12414.649300       0.993100
    12430.080800       0.993812
    12445.550700       0.994484
    12461.059200       0.995116
    12476.606400       0.995710
    12492.192400       0.996265
    12507.817400       0.996781
    12523.481500       0.997258
    12539.185000       0.997696
    12554.927800       0.998096
    12570.710200       0.998458
    12586.532400       0.998781
    12602.394500       0.999065
    12618.296500       0.999312
    12634.238800       0.999521
    12650.221400       0.999691
    12666.244500       0.999825
    12682.308200       0.999920
    12698.412700       0.999979
    12714.558200       1.000000
    12730.744700       0.999984
    12746.972600       0.999932
    12763.241900       0.999843
    12779.552700       0.999717
    12795.905300       0.999555
    12812.299800       0.999357
    12828.736400       0.999124
    12845.215200       0.998855
    12861.736300       0.998550
    12878.300100       0.998210
    12894.906500       0.997836
    12911.555800       0.997427
    12928.248200       0.996983
    12944.983800       0.996505
    12961.762800       0.995994
    12978.585300       0.995449
    12995.451600       0.994870
    13012.361700       0.994258
    13029.316000       0.993614
    13046.314400       0.992937
    13063.357300       0.992228
    13080.444700       0.991487
    13097.576900       0.990714
    13114.754100       0.989910
    13131.976400       0.989075
    13149.243900       0.988209
    13166.556900       0.987313
    13183.915600       0.986387
    13201.320100       0.985431
    13218.770700       0.984445
    13236.267400       0.983431
    13253.810500       0.982388
    13271.400100       0.981316
    13289.036500       0.980217
    13306.719900       0.979089
    13324.450400       0.977935
    13342.228200       0.976753
    13360.053400       0.975545
    13377.926400       0.974311
    13395.847300       0.973051
    13413.816200       0.971765
    13431.833400       0.970454
    13449.899100       0.969119
    13468.013500       0.967759
    13486.176700       0.966375
    13504.388900       0.964968
    13522.650400       0.963538
    13540.961400       0.962085
    13559.322000       0.960610
    13577.732500       0.959112
    13596.193100       0.957593
    13614.703900       0.956054
    13633.265200       0.954493
    13651.877100       0.952912
    13670.540000       0.951312
    13689.253900       0.949691
    13708.019200       0.948052
    13726.836000       0.946395
    13745.704500       0.944719
    13764.624900       0.943025
    13783.597500       0.941315
    13802.622500       0.939587
    13821.700100       0.937843
    13840.830400       0.936083
    13860.013900       0.934308
    13879.250500       0.932517
    13898.540700       0.930712
    13917.884500       0.928893
    13937.282200       0.927059
    13956.734100       0.925213
    13976.240400       0.923354
    13995.801300       0.921482
    14015.417000       0.919598
    14035.087700       0.917703
    14054.813800       0.915797
    14074.595400       0.913880
    14094.432700       0.911953
    14114.326000       0.910017
    14134.275600       0.908071
    14154.281700       0.906116
    14174.344400       0.904153
    14194.464200       0.902182
    14214.641100       0.900203
    14234.875400       0.898218
    14255.167500       0.896226
    14275.517500       0.894228
    14295.925700       0.892224
    14316.392300       0.890215
    14336.917600       0.888202
    14357.501800       0.886184
    14378.145200       0.884162
    14398.848100       0.882136
    14419.610700       0.880108
    14440.433200       0.878077
    14461.316000       0.876044
    14482.259200       0.874010
    14503.263200       0.871974
    14524.328200       0.869937
    14545.454500       0.867900
    14566.642400       0.865863
    14587.892000       0.863826
    14609.203800       0.861791
    14630.577900       0.859757
    14652.014700       0.857724
    14673.514300       0.855694
    14695.077100       0.853666
    14716.703500       0.851641
    14738.393500       0.849620
    14760.147600       0.847602
    14781.966000       0.845589
    14803.849000       0.843580
    14825.796900       0.841576
    14847.809900       0.839577
    14869.888500       0.837585
    14892.032800       0.835598
    14914.243100       0.833618
    14936.519800       0.831645
    14958.863100       0.829679
    14981.273400       0.827721
    15003.750900       0.825771
    15026.296000       0.823829
    15048.909000       0.821896
    15071.590100       0.819972
    15094.339600       0.818058
    15117.158000       0.816153
    15140.045400       0.814258
    15163.002300       0.812374
    15186.028900       0.810501
    15209.125500       0.808638
    15232.292500       0.806787
    15255.530100       0.804948
    15278.838800       0.803120
    15302.218800       0.801305
    15325.670500       0.799503
    15349.194200       0.797713
    15372.790200       0.795937
    15396.458800       0.794174
    15420.200500       0.792424
    15444.015400       0.790689
    15467.904100       0.788968
    15491.866800       0.787261
    15515.903800       0.785569
    15540.015500       0.783892
    15564.202300       0.782230
    15588.464500       0.780584
    15612.802500       0.778953
    15637.216600       0.777338
    15661.707100       0.775739
    15686.274500       0.774156
    15710.919100       0.772590
    15735.641200       0.771040
    15760.441300       0.769507
    15785.319700       0.767991
    15810.276700       0.766492
    15835.312700       0.765010
    15860.428200       0.763546
    15885.623500       0.762099
    15910.899000       0.760670
    15936.255000       0.759259
    15961.691900       0.757865
    15987.210200       0.756490
    16012.810200       0.755133
    16038.492400       0.753793
    16064.257000       0.752472
    16090.104600       0.751170
    16116.035500       0.749886
    16142.050000       0.748620
    16168.148700       0.747373
    16194.332000       0.746144
    16220.600200       0.744934
    16246.953700       0.743742
    16273.393000       0.742570
    16299.918500       0.741415
    16326.530600       0.740280
    16353.229800       0.739162
    16380.016400       0.738064
    16406.890900       0.736984
    16433.853700       0.735923
    16460.905300       0.734880
    16488.046200       0.733855
    16515.276600       0.732849
    16542.597200       0.731861
    16570.008300       0.730891
    16597.510400       0.729939
    16625.103900       0.729005
    16652.789300       0.728089
    16680.567100       0.727191
    16708.437800       0.726310
    16736.401700       0.725447
    16764.459300       0.724602
    16792.611300       0.723773
    16820.857900       0.722961
    16849.199700       0.722166
    16877.637100       0.721388
    16906.170800       0.720626
    16934.801000       0.719881
    16963.528400       0.719151
    16992.353400       0.718438
    17021.276600       0.717740
    17050.298400       0.717057
    17079.419300       0.716389
    17108.639900       0.715736
    17137.960600       0.715097
    17167.382000       0.714473
    17196.904600       0.713863
    17226.528900       0.713266
    17256.255400       0.712683
    17286.084700       0.712113
    17316.017300       0.711555
    17346.053800       0.711010
    17376.194600       0.710477
    17406.440400       0.709955
    17436.791600       0.709445
    17467.248900       0.708946
    17497.812800       0.708457
    17528.483800       0.707979
    17559.262500       0.707510
    17590.149500       0.707051
    17621.145400       0.706600
    17652.250700       0.706158
    17683.466000       0.705724
    17714.791900       0.705298
    17746.228900       0.704879
    17777.777800       0.704466
    17809.439000       0.704060
    17841.213200       0.703659
    17873.101000       0.703264
    17905.103000       0.702874
    17937.219700       0.702488
    17969.451900       0.702105
    18001.800200       0.701726
    18034.265100       0.701349
    18066.847300       0.700975
    18099.547500       0.700602
    18132.366300       0.700231
    18165.304300       0.699860
    18198.362100       0.699489
    18231.540600       0.699117
    18264.840200       0.698744
    18298.261700       0.698369
    18331.805700       0.697992
    18365.472900       0.697612
    18399.264000       0.697228
    18433.179700       0.696840
    18467.220700       0.696447
    18501.387600       0.696048
    18535.681200       0.695644
    18570.102100       0.695233
    18604.651200       0.694814
    18639.329000       0.694387
    18674.136300       0.693952
    18709.073900       0.693507
    18744.142500       0.693052
    18779.342700       0.692586
    18814.675400       0.692109
    18850.141400       0.691620
    18885.741300       0.691118
    18921.475900       0.690602
    18957.346000       0.690073
    18993.352300       0.689528
    19029.495700       0.688968
    19065.776900       0.688391
