66,   66, MVIRI VIS channel from srf_MET7_2005303_2005304_1801-Release_S10EE_10.dat
Number of data points:
793
Wavenumber (cm-1)   Filter response
     8442.380800       0.000000
     8449.514200       0.000000
     8456.659600       0.000004
     8463.817200       0.000055
     8470.986900       0.000163
     8478.168700       0.000325
     8485.362700       0.000541
     8492.569000       0.000809
     8499.787500       0.001128
     8507.018300       0.001495
     8514.261400       0.001910
     8521.516800       0.002371
     8528.784600       0.002877
     8536.064900       0.003427
     8543.357500       0.004019
     8550.662700       0.004652
     8557.980300       0.005325
     8565.310500       0.006037
     8572.653200       0.006788
     8580.008600       0.007575
     8587.376600       0.008398
     8594.757200       0.009257
     8602.150500       0.010150
     8609.556600       0.011076
     8616.975400       0.012034
     8624.407100       0.013025
     8631.851500       0.014046
     8639.308900       0.015098
     8646.779100       0.016179
     8654.262200       0.017290
     8661.758300       0.018429
     8669.267400       0.019596
     8676.789600       0.020790
     8684.324800       0.022010
     8691.873100       0.023257
     8699.434500       0.024530
     8707.009100       0.025829
     8714.596900       0.027151
     8722.198000       0.028499
     8729.812300       0.029871
     8737.439900       0.031266
     8745.080900       0.032685
     8752.735200       0.034127
     8760.403000       0.035592
     8768.084200       0.037080
     8775.778900       0.038589
     8783.487000       0.040121
     8791.208800       0.041675
     8798.944100       0.043251
     8806.693100       0.044848
     8814.455700       0.046466
     8822.232000       0.048106
     8830.022100       0.049767
     8837.825900       0.051448
     8845.643500       0.053151
     8853.475000       0.054874
     8861.320300       0.056618
     8869.179600       0.058383
     8877.052800       0.060168
     8884.940000       0.061974
     8892.841300       0.063800
     8900.756600       0.065646
     8908.686000       0.067514
     8916.629500       0.069401
     8924.587200       0.071309
     8932.559200       0.073237
     8940.545400       0.075186
     8948.545900       0.077156
     8956.560700       0.079146
     8964.589900       0.081157
     8972.633500       0.083188
     8980.691500       0.085240
     8988.764000       0.087312
     8996.851100       0.089406
     9004.952700       0.091520
     9013.068900       0.093655
     9021.199800       0.095812
     9029.345400       0.097989
     9037.505600       0.100187
     9045.680700       0.102407
     9053.870500       0.104648
     9062.075200       0.106911
     9070.294800       0.109195
     9078.529300       0.111501
     9086.778700       0.113828
     9095.043200       0.116177
     9103.322700       0.118548
     9111.617300       0.120941
     9119.927000       0.123356
     9128.251900       0.125793
     9136.592100       0.128253
     9144.947400       0.130734
     9153.318100       0.133239
     9161.704100       0.135765
     9170.105500       0.138314
     9178.522300       0.140886
     9186.954500       0.143481
     9195.402300       0.146098
     9203.865600       0.148739
     9212.344500       0.151402
     9220.839100       0.154089
     9229.349300       0.156798
     9237.875300       0.159531
     9246.417000       0.162287
     9254.974500       0.165066
     9263.547900       0.167869
     9272.137200       0.170695
     9280.742500       0.173544
     9289.363700       0.176417
     9298.000900       0.179314
     9306.654300       0.182234
     9315.323700       0.185177
     9324.009300       0.188145
     9332.711200       0.191136
     9341.429200       0.194150
     9350.163600       0.197188
     9358.914400       0.200250
     9367.681500       0.203335
     9376.465100       0.206445
     9385.265100       0.209577
     9394.081700       0.212734
     9402.914900       0.215914
     9411.764700       0.219117
     9420.631200       0.222344
     9429.514400       0.225595
     9438.414300       0.228869
     9447.331100       0.232166
     9456.264800       0.235487
     9465.215300       0.238831
     9474.182900       0.242198
     9483.167400       0.245588
     9492.169000       0.249001
     9501.187600       0.252437
     9510.223500       0.255897
     9519.276500       0.259378
     9528.346800       0.262882
     9537.434400       0.266409
     9546.539400       0.269958
     9555.661700       0.273530
     9564.801500       0.277123
     9573.958800       0.280739
     9583.133700       0.284377
     9592.326100       0.288035
     9601.536200       0.291716
     9610.764100       0.295418
     9620.009600       0.299141
     9629.273000       0.302885
     9638.554200       0.306650
     9647.853400       0.310435
     9657.170400       0.314241
     9666.505600       0.318067
     9675.858700       0.321914
     9685.230000       0.325779
     9694.619500       0.329665
     9704.027200       0.333569
     9713.453100       0.337493
     9722.897400       0.341436
     9732.360100       0.345397
     9741.841200       0.349377
     9751.340800       0.353374
     9760.859000       0.357390
     9770.395700       0.361423
     9779.951100       0.365473
     9789.525200       0.369541
     9799.118100       0.373625
     9808.729800       0.377725
     9818.360300       0.381842
     9828.009800       0.385974
     9837.678300       0.390122
     9847.365800       0.394285
     9857.072400       0.398462
     9866.798200       0.402655
     9876.543200       0.406861
     9886.307500       0.411082
     9896.091000       0.415316
     9905.894000       0.419563
     9915.716400       0.423823
     9925.558300       0.428095
     9935.419800       0.432379
     9945.300800       0.436675
     9955.201600       0.440983
     9965.122100       0.445301
     9975.062300       0.449630
     9985.022500       0.453970
     9995.002500       0.458319
    10005.002500       0.462677
    10015.022500       0.467045
    10025.062700       0.471421
    10035.122900       0.475806
    10045.203400       0.480198
    10055.304200       0.484598
    10065.425300       0.489005
    10075.566800       0.493418
    10085.728700       0.497838
    10095.911200       0.502263
    10106.114200       0.506694
    10116.337900       0.511130
    10126.582300       0.515570
    10136.847400       0.520014
    10147.133400       0.524462
    10157.440300       0.528913
    10167.768200       0.533366
    10178.117000       0.537822
    10188.487000       0.542280
    10198.878100       0.546739
    10209.290500       0.551199
    10219.724100       0.555660
    10230.179000       0.560120
    10240.655400       0.564580
    10251.153300       0.569040
    10261.672700       0.573498
    10272.213700       0.577954
    10282.776300       0.582407
    10293.360800       0.586859
    10303.967000       0.591307
    10314.595200       0.595751
    10325.245200       0.600191
    10335.917300       0.604627
    10346.611500       0.609057
    10357.327800       0.613482
    10368.066400       0.617901
    10378.827200       0.622313
    10389.610400       0.626719
    10400.416000       0.631117
    10411.244100       0.635507
    10422.094800       0.639889
    10432.968200       0.644262
    10443.864200       0.648626
    10454.783100       0.652981
    10465.724800       0.657324
    10476.689400       0.661658
    10487.677000       0.665980
    10498.687700       0.670291
    10509.721500       0.674589
    10520.778500       0.678875
    10531.858900       0.683148
    10542.962600       0.687408
    10554.089700       0.691653
    10565.240400       0.695885
    10576.414600       0.700101
    10587.612500       0.704302
    10598.834100       0.708488
    10610.079600       0.712658
    10621.348900       0.716810
    10632.642200       0.720946
    10643.959600       0.725064
    10655.301000       0.729165
    10666.666700       0.733247
    10678.056600       0.737310
    10689.470900       0.741353
    10700.909600       0.745378
    10712.372800       0.749382
    10723.860600       0.753366
    10735.373100       0.757328
    10746.910300       0.761270
    10758.472300       0.765189
    10770.059200       0.769087
    10781.671200       0.772961
    10793.308100       0.776813
    10804.970300       0.780642
    10816.657700       0.784446
    10828.370300       0.788226
    10840.108400       0.791982
    10851.871900       0.795713
    10863.661100       0.799419
    10875.475800       0.803098
    10887.316300       0.806752
    10899.182600       0.810379
    10911.074700       0.813980
    10922.992900       0.817553
    10934.937100       0.821098
    10946.907500       0.824616
    10958.904100       0.828105
    10970.927000       0.831566
    10982.976400       0.834998
    10995.052200       0.838401
    11007.154700       0.841774
    11019.283700       0.845117
    11031.439600       0.848430
    11043.622300       0.851712
    11055.832000       0.854964
    11068.068600       0.858184
    11080.332400       0.861373
    11092.623400       0.864530
    11104.941700       0.867655
    11117.287400       0.870748
    11129.660500       0.873808
    11142.061300       0.876835
    11154.489700       0.879829
    11166.945800       0.882790
    11179.429800       0.885717
    11191.941800       0.888610
    11204.481800       0.891470
    11217.049900       0.894294
    11229.646300       0.897084
    11242.270900       0.899839
    11254.924000       0.902560
    11267.605600       0.905245
    11280.315800       0.907894
    11293.054800       0.910508
    11305.822500       0.913086
    11318.619100       0.915628
    11331.444800       0.918134
    11344.299500       0.920603
    11357.183400       0.923036
    11370.096600       0.925432
    11383.039300       0.927791
    11396.011400       0.930113
    11409.013100       0.932398
    11422.044500       0.934645
    11435.105800       0.936856
    11448.196900       0.939028
    11461.318100       0.941163
    11474.469300       0.943260
    11487.650800       0.945319
    11500.862600       0.947340
    11514.104800       0.949324
    11527.377500       0.951268
    11540.680900       0.953175
    11554.015000       0.955044
    11567.380000       0.956873
    11580.775900       0.958665
    11594.202900       0.960418
    11607.661100       0.962132
    11621.150500       0.963808
    11634.671300       0.965446
    11648.223600       0.967044
    11661.807600       0.968605
    11675.423200       0.970126
    11689.070700       0.971609
    11702.750100       0.973053
    11716.461600       0.974458
    11730.205300       0.975825
    11743.981200       0.977153
    11757.789500       0.978443
    11771.630400       0.979694
    11785.503800       0.980907
    11799.410000       0.982081
    11813.349100       0.983217
    11827.321100       0.984314
    11841.326200       0.985373
    11855.364600       0.986394
    11869.436200       0.987377
    11883.541300       0.988322
    11897.680000       0.989229
    11911.852300       0.990099
    11926.058400       0.990930
    11940.298500       0.991724
    11954.572600       0.992481
    11968.880900       0.993200
    11983.223500       0.993882
    11997.600500       0.994527
    12012.012000       0.995135
    12026.458200       0.995706
    12040.939200       0.996241
    12055.455100       0.996739
    12070.006000       0.997201
    12084.592100       0.997627
    12099.213600       0.998018
    12113.870400       0.998372
    12128.562800       0.998691
    12143.290800       0.998975
    12158.054700       0.999223
    12172.854500       0.999437
    12187.690400       0.999616
    12202.562500       0.999761
    12217.471000       0.999871
    12232.415900       0.999948
    12247.397400       0.999991
    12262.415700       1.000000
    12277.470800       0.999976
    12292.563000       0.999919
    12307.692300       0.999830
    12322.858900       0.999708
    12338.062900       0.999554
    12353.304500       0.999369
    12368.583800       0.999151
    12383.900900       0.998903
    12399.256000       0.998623
    12414.649300       0.998313
    12430.080800       0.997973
    12445.550700       0.997602
    12461.059200       0.997202
    12476.606400       0.996772
    12492.192400       0.996314
    12507.817400       0.995826
    12523.481500       0.995310
    12539.185000       0.994767
    12554.927800       0.994195
    12570.710200       0.993596
    12586.532400       0.992970
    12602.394500       0.992317
    12618.296500       0.991638
    12634.238800       0.990933
    12650.221400       0.990203
    12666.244500       0.989447
    12682.308200       0.988667
    12698.412700       0.987862
    12714.558200       0.987033
    12730.744700       0.986181
    12746.972600       0.985305
    12763.241900       0.984406
    12779.552700       0.983485
    12795.905300       0.982542
    12812.299800       0.981577
    12828.736400       0.980591
    12845.215200       0.979584
    12861.736300       0.978556
    12878.300100       0.977509
    12894.906500       0.976441
    12911.555800       0.975355
    12928.248200       0.974250
    12944.983800       0.973127
    12961.762800       0.971985
    12978.585300       0.970827
    12995.451600       0.969651
    13012.361700       0.968458
    13029.316000       0.967250
    13046.314400       0.966026
    13063.357300       0.964786
    13080.444700       0.963531
    13097.576900       0.962262
    13114.754100       0.960980
    13131.976400       0.959683
    13149.243900       0.958374
    13166.556900       0.957052
    13183.915600       0.955717
    13201.320100       0.954371
    13218.770700       0.953014
    13236.267400       0.951646
    13253.810500       0.950267
    13271.400100       0.948878
    13289.036500       0.947480
    13306.719900       0.946073
    13324.450400       0.944658
    13342.228200       0.943234
    13360.053400       0.941803
    13377.926400       0.940364
    13395.847300       0.938918
    13413.816200       0.937467
    13431.833400       0.936009
    13449.899100       0.934546
    13468.013500       0.933078
    13486.176700       0.931605
    13504.388900       0.930129
    13522.650400       0.928648
    13540.961400       0.927165
    13559.322000       0.925679
    13577.732500       0.924190
    13596.193100       0.922700
    13614.703900       0.921208
    13633.265200       0.919715
    13651.877100       0.918222
    13670.540000       0.916728
    13689.253900       0.915235
    13708.019200       0.913743
    13726.836000       0.912252
    13745.704500       0.910762
    13764.624900       0.909274
    13783.597500       0.907789
    13802.622500       0.906307
    13821.700100       0.904828
    13840.830400       0.903353
    13860.013900       0.901881
    13879.250500       0.900415
    13898.540700       0.898953
    13917.884500       0.897496
    13937.282200       0.896045
    13956.734100       0.894601
    13976.240400       0.893162
    13995.801300       0.891731
    14015.417000       0.890307
    14035.087700       0.888890
    14054.813800       0.887482
    14074.595400       0.886082
    14094.432700       0.884690
    14114.326000       0.883308
    14134.275600       0.881935
    14154.281700       0.880572
    14174.344400       0.879219
    14194.464200       0.877876
    14214.641100       0.876544
    14234.875400       0.875224
    14255.167500       0.873915
    14275.517500       0.872618
    14295.925700       0.871332
    14316.392300       0.870060
    14336.917600       0.868800
    14357.501800       0.867553
    14378.145200       0.866319
    14398.848100       0.865099
    14419.610700       0.863893
    14440.433200       0.862701
    14461.316000       0.861523
    14482.259200       0.860360
    14503.263200       0.859212
    14524.328200       0.858079
    14545.454500       0.856962
    14566.642400       0.855860
    14587.892000       0.854775
    14609.203800       0.853705
    14630.577900       0.852652
    14652.014700       0.851616
    14673.514300       0.850596
    14695.077100       0.849593
    14716.703500       0.848607
    14738.393500       0.847639
    14760.147600       0.846688
    14781.966000       0.845755
    14803.849000       0.844840
    14825.796900       0.843942
    14847.809900       0.843063
    14869.888500       0.842203
    14892.032800       0.841360
    14914.243100       0.840536
    14936.519800       0.839731
    14958.863100       0.838945
    14981.273400       0.838177
    15003.750900       0.837429
    15026.296000       0.836699
    15048.909000       0.835989
    15071.590100       0.835297
    15094.339600       0.834625
    15117.158000       0.833973
    15140.045400       0.833339
    15163.002300       0.832725
    15186.028900       0.832130
    15209.125500       0.831555
    15232.292500       0.830999
    15255.530100       0.830462
    15278.838800       0.829945
    15302.218800       0.829448
    15325.670500       0.828969
    15349.194200       0.828510
    15372.790200       0.828070
    15396.458800       0.827649
    15420.200500       0.827248
    15444.015400       0.826865
    15467.904100       0.826502
    15491.866800       0.826157
    15515.903800       0.825831
    15540.015500       0.825524
    15564.202300       0.825235
    15588.464500       0.824965
    15612.802500       0.824712
    15637.216600       0.824479
    15661.707100       0.824263
    15686.274500       0.824064
    15710.919100       0.823884
    15735.641200       0.823721
    15760.441300       0.823575
    15785.319700       0.823446
    15810.276700       0.823334
    15835.312700       0.823238
    15860.428200       0.823159
    15885.623500       0.823096
    15910.899000       0.823049
    15936.255000       0.823018
    15961.691900       0.823001
    15987.210200       0.823000
    16012.810200       0.823014
    16038.492400       0.823042
    16064.257000       0.823084
    16090.104600       0.823140
    16116.035500       0.823210
    16142.050000       0.823293
    16168.148700       0.823388
    16194.332000       0.823496
    16220.600200       0.823616
    16246.953700       0.823748
    16273.393000       0.823891
    16299.918500       0.824045
    16326.530600       0.824210
    16353.229800       0.824384
    16380.016400       0.824569
    16406.890900       0.824762
    16433.853700       0.824965
    16460.905300       0.825176
    16488.046200       0.825394
    16515.276600       0.825621
    16542.597200       0.825854
    16570.008300       0.826094
    16597.510400       0.826339
    16625.103900       0.826590
    16652.789300       0.826847
    16680.567100       0.827107
    16708.437800       0.827372
    16736.401700       0.827640
    16764.459300       0.827911
    16792.611300       0.828184
    16820.857900       0.828459
    16849.199700       0.828735
    16877.637100       0.829011
    16906.170800       0.829288
    16934.801000       0.829564
    16963.528400       0.829839
    16992.353400       0.830112
    17021.276600       0.830383
    17050.298400       0.830650
    17079.419300       0.830914
    17108.639900       0.831174
    17137.960600       0.831429
    17167.382000       0.831678
    17196.904600       0.831921
    17226.528900       0.832157
    17256.255400       0.832385
    17286.084700       0.832605
    17316.017300       0.832816
    17346.053800       0.833017
    17376.194600       0.833208
    17406.440400       0.833388
    17436.791600       0.833557
    17467.248900       0.833712
    17497.812800       0.833855
    17528.483800       0.833983
    17559.262500       0.834097
    17590.149500       0.834196
    17621.145400       0.834278
    17652.250700       0.834344
    17683.466000       0.834392
