12  ,metop_02_hirs_12.flt  shift of 2.2cm-1 applied
Number of data points:
862
Wavenumber (cm-1)   Filter response
     1489.100000       0.000000
     1489.200000       0.003603
     1489.300000       0.003674
     1489.400000       0.003755
     1489.500000       0.003848
     1489.600000       0.003949
     1489.700000       0.004060
     1489.800000       0.004178
     1489.900000       0.004302
     1490.000000       0.004431
     1490.100000       0.004563
     1490.200000       0.004696
     1490.300000       0.004829
     1490.400000       0.004959
     1490.500000       0.005086
     1490.600000       0.005209
     1490.700000       0.005325
     1490.800000       0.005434
     1490.900000       0.005535
     1491.000000       0.005627
     1491.100000       0.005709
     1491.200000       0.005783
     1491.300000       0.005847
     1491.400000       0.005903
     1491.500000       0.005951
     1491.600000       0.005992
     1491.700000       0.006028
     1491.800000       0.006059
     1491.900000       0.006088
     1492.000000       0.006116
     1492.100000       0.006144
     1492.200000       0.006174
     1492.300000       0.006208
     1492.400000       0.006248
     1492.500000       0.006294
     1492.600000       0.006349
     1492.700000       0.006414
     1492.800000       0.006490
     1492.900000       0.006579
     1493.000000       0.006680
     1493.100000       0.006795
     1493.200000       0.006924
     1493.300000       0.007067
     1493.400000       0.007225
     1493.500000       0.007397
     1493.600000       0.007582
     1493.700000       0.007780
     1493.800000       0.007990
     1493.900000       0.008210
     1494.000000       0.008440
     1494.100000       0.008678
     1494.200000       0.008924
     1494.300000       0.009177
     1494.400000       0.009435
     1494.500000       0.009697
     1494.600000       0.009962
     1494.700000       0.010229
     1494.800000       0.010497
     1494.900000       0.010767
     1495.000000       0.011039
     1495.100000       0.011312
     1495.200000       0.011588
     1495.300000       0.011869
     1495.400000       0.012155
     1495.500000       0.012447
     1495.600000       0.012746
     1495.700000       0.013055
     1495.800000       0.013375
     1495.900000       0.013708
     1496.000000       0.014057
     1496.100000       0.014425
     1496.200000       0.014814
     1496.300000       0.015217
     1496.400000       0.015646
     1496.500000       0.016102
     1496.600000       0.016590
     1496.700000       0.017111
     1496.800000       0.017668
     1496.900000       0.018262
     1497.000000       0.018895
     1497.100000       0.019570
     1497.200000       0.020290
     1497.300000       0.021056
     1497.400000       0.021867
     1497.500000       0.022725
     1497.600000       0.023629
     1497.700000       0.024582
     1497.800000       0.025584
     1497.900000       0.026634
     1498.000000       0.027734
     1498.100000       0.028884
     1498.200000       0.030084
     1498.300000       0.031340
     1498.400000       0.032648
     1498.500000       0.034009
     1498.600000       0.035425
     1498.700000       0.036896
     1498.800000       0.038424
     1498.900000       0.040012
     1499.000000       0.041661
     1499.100000       0.043371
     1499.200000       0.045141
     1499.300000       0.046981
     1499.400000       0.048893
     1499.500000       0.050880
     1499.600000       0.052947
     1499.700000       0.055098
     1499.800000       0.057336
     1499.900000       0.059666
     1500.000000       0.062093
     1500.100000       0.064620
     1500.200000       0.067254
     1500.300000       0.070019
     1500.400000       0.072277
     1500.500000       0.075257
     1500.600000       0.078364
     1500.700000       0.081602
     1500.800000       0.084976
     1500.900000       0.088491
     1501.000000       0.092142
     1501.100000       0.095904
     1501.200000       0.099816
     1501.300000       0.103880
     1501.400000       0.108100
     1501.500000       0.112480
     1501.600000       0.117020
     1501.700000       0.121730
     1501.800000       0.126610
     1501.900000       0.131670
     1502.000000       0.136900
     1502.100000       0.142310
     1502.200000       0.147900
     1502.300000       0.153680
     1502.400000       0.159640
     1502.500000       0.165800
     1502.600000       0.172160
     1502.700000       0.178720
     1502.800000       0.185480
     1502.900000       0.192450
     1503.000000       0.199600
     1503.100000       0.206950
     1503.200000       0.214510
     1503.300000       0.222300
     1503.400000       0.230300
     1503.500000       0.238530
     1503.600000       0.246980
     1503.700000       0.255650
     1503.800000       0.264550
     1503.900000       0.273670
     1504.000000       0.283010
     1504.100000       0.292570
     1504.200000       0.302340
     1504.300000       0.312300
     1504.400000       0.322450
     1504.500000       0.332800
     1504.600000       0.343340
     1504.700000       0.354040
     1504.800000       0.364910
     1504.900000       0.375940
     1505.000000       0.387120
     1505.100000       0.398420
     1505.200000       0.409830
     1505.300000       0.421340
     1505.400000       0.432930
     1505.500000       0.444570
     1505.600000       0.456260
     1505.700000       0.467970
     1505.800000       0.479700
     1505.900000       0.491430
     1506.000000       0.503130
     1506.100000       0.514790
     1506.200000       0.526410
     1506.300000       0.537850
     1506.400000       0.549200
     1506.500000       0.560460
     1506.600000       0.571610
     1506.700000       0.582640
     1506.800000       0.593590
     1506.900000       0.604520
     1507.000000       0.615310
     1507.100000       0.625950
     1507.200000       0.636430
     1507.300000       0.646760
     1507.400000       0.656920
     1507.500000       0.666900
     1507.600000       0.676720
     1507.700000       0.686350
     1507.800000       0.695800
     1507.900000       0.705070
     1508.000000       0.714150
     1508.100000       0.723030
     1508.200000       0.731720
     1508.300000       0.740380
     1508.400000       0.748850
     1508.500000       0.757110
     1508.600000       0.765160
     1508.700000       0.773010
     1508.800000       0.780950
     1508.900000       0.788680
     1509.000000       0.796180
     1509.100000       0.803470
     1509.200000       0.810530
     1509.300000       0.817340
     1509.400000       0.823920
     1509.500000       0.830260
     1509.600000       0.836360
     1509.700000       0.842200
     1509.800000       0.847800
     1509.900000       0.853160
     1510.000000       0.858250
     1510.100000       0.863100
     1510.200000       0.867700
     1510.300000       0.872160
     1510.400000       0.876380
     1510.500000       0.880370
     1510.600000       0.884120
     1510.700000       0.888030
     1510.800000       0.891890
     1510.900000       0.895540
     1511.000000       0.899000
     1511.100000       0.902260
     1511.200000       0.905350
     1511.300000       0.908270
     1511.400000       0.911020
     1511.500000       0.913630
     1511.600000       0.916090
     1511.700000       0.918420
     1511.800000       0.920630
     1511.900000       0.922720
     1512.000000       0.924700
     1512.100000       0.926580
     1512.200000       0.928370
     1512.300000       0.929970
     1512.400000       0.931470
     1512.500000       0.932900
     1512.600000       0.934390
     1512.700000       0.936010
     1512.800000       0.937560
     1512.900000       0.939050
     1513.000000       0.940480
     1513.100000       0.941840
     1513.200000       0.943140
     1513.300000       0.944390
     1513.400000       0.945580
     1513.500000       0.946710
     1513.600000       0.947790
     1513.700000       0.948810
     1513.800000       0.949780
     1513.900000       0.950700
     1514.000000       0.951570
     1514.100000       0.952400
     1514.200000       0.953180
     1514.300000       0.954030
     1514.400000       0.954840
     1514.500000       0.955590
     1514.600000       0.955970
     1514.700000       0.956330
     1514.800000       0.956680
     1514.900000       0.957020
     1515.000000       0.957350
     1515.100000       0.957680
     1515.200000       0.958020
     1515.300000       0.958360
     1515.400000       0.958700
     1515.500000       0.959060
     1515.600000       0.959430
     1515.700000       0.959810
     1515.800000       0.960200
     1515.900000       0.960600
     1516.000000       0.961020
     1516.100000       0.961430
     1516.200000       0.961850
     1516.300000       0.962450
     1516.400000       0.963040
     1516.500000       0.963030
     1516.600000       0.962850
     1516.700000       0.962650
     1516.800000       0.962410
     1516.900000       0.962140
     1517.000000       0.961830
     1517.100000       0.961470
     1517.200000       0.961070
     1517.300000       0.960610
     1517.400000       0.960090
     1517.500000       0.959520
     1517.600000       0.958900
     1517.700000       0.958230
     1517.800000       0.957520
     1517.900000       0.956760
     1518.000000       0.955970
     1518.100000       0.955150
     1518.200000       0.954300
     1518.300000       0.953350
     1518.400000       0.952210
     1518.500000       0.950900
     1518.600000       0.949590
     1518.700000       0.948300
     1518.800000       0.947040
     1518.900000       0.945820
     1519.000000       0.944630
     1519.100000       0.943490
     1519.200000       0.942400
     1519.300000       0.941370
     1519.400000       0.940390
     1519.500000       0.939470
     1519.600000       0.938600
     1519.700000       0.937770
     1519.800000       0.936990
     1519.900000       0.936240
     1520.000000       0.935510
     1520.100000       0.934810
     1520.200000       0.934110
     1520.300000       0.933680
     1520.400000       0.933340
     1520.500000       0.932960
     1520.600000       0.932550
     1520.700000       0.932090
     1520.800000       0.931570
     1520.900000       0.930980
     1521.000000       0.930310
     1521.100000       0.929550
     1521.200000       0.928710
     1521.300000       0.927770
     1521.400000       0.926730
     1521.500000       0.925590
     1521.600000       0.924350
     1521.700000       0.923030
     1521.800000       0.921620
     1521.900000       0.920130
     1522.000000       0.918580
     1522.100000       0.916960
     1522.200000       0.915310
     1522.300000       0.914090
     1522.400000       0.912860
     1522.500000       0.911620
     1522.600000       0.910400
     1522.700000       0.909200
     1522.800000       0.908050
     1522.900000       0.906950
     1523.000000       0.905920
     1523.100000       0.904970
     1523.200000       0.904120
     1523.300000       0.903350
     1523.400000       0.902690
     1523.500000       0.902140
     1523.600000       0.901700
     1523.700000       0.901380
     1523.800000       0.901170
     1523.900000       0.901070
     1524.000000       0.901070
     1524.100000       0.901170
     1524.200000       0.901660
     1524.300000       0.902660
     1524.400000       0.903720
     1524.500000       0.904830
     1524.600000       0.905980
     1524.700000       0.907150
     1524.800000       0.908340
     1524.900000       0.909520
     1525.000000       0.910690
     1525.100000       0.911830
     1525.200000       0.912930
     1525.300000       0.913980
     1525.400000       0.914990
     1525.500000       0.915930
     1525.600000       0.916800
     1525.700000       0.917610
     1525.800000       0.918350
     1525.900000       0.919020
     1526.000000       0.919630
     1526.100000       0.920290
     1526.200000       0.921060
     1526.300000       0.921680
     1526.400000       0.922260
     1526.500000       0.922810
     1526.600000       0.923340
     1526.700000       0.923870
     1526.800000       0.924390
     1526.900000       0.924920
     1527.000000       0.925480
     1527.100000       0.926060
     1527.200000       0.926680
     1527.300000       0.927350
     1527.400000       0.928070
     1527.500000       0.928850
     1527.600000       0.929690
     1527.700000       0.930590
     1527.800000       0.931560
     1527.900000       0.932600
     1528.000000       0.933700
     1528.100000       0.934830
     1528.200000       0.936030
     1528.300000       0.937370
     1528.400000       0.938760
     1528.500000       0.940190
     1528.600000       0.941650
     1528.700000       0.943140
     1528.800000       0.944650
     1528.900000       0.946170
     1529.000000       0.947690
     1529.100000       0.949220
     1529.200000       0.950740
     1529.300000       0.952230
     1529.400000       0.953710
     1529.500000       0.955160
     1529.600000       0.956590
     1529.700000       0.958000
     1529.800000       0.959380
     1529.900000       0.960740
     1530.000000       0.961890
     1530.100000       0.962960
     1530.200000       0.964020
     1530.300000       0.965160
     1530.400000       0.966300
     1530.500000       0.967420
     1530.600000       0.968540
     1530.700000       0.969670
     1530.800000       0.970790
     1530.900000       0.971930
     1531.000000       0.973070
     1531.100000       0.974240
     1531.200000       0.975420
     1531.300000       0.976610
     1531.400000       0.977830
     1531.500000       0.979070
     1531.600000       0.980330
     1531.700000       0.981620
     1531.800000       0.982920
     1531.900000       0.984040
     1532.000000       0.984970
     1532.100000       0.985900
     1532.200000       0.986850
     1532.300000       0.987850
     1532.400000       0.988840
     1532.500000       0.989830
     1532.600000       0.990810
     1532.700000       0.991770
     1532.800000       0.992710
     1532.900000       0.993620
     1533.000000       0.994510
     1533.100000       0.995360
     1533.200000       0.996170
     1533.300000       0.996940
     1533.400000       0.997670
     1533.500000       0.998360
     1533.600000       0.998990
     1533.700000       0.999590
     1533.800000       1.000000
     1533.900000       0.999840
     1534.000000       0.999640
     1534.100000       0.999390
     1534.200000       0.999110
     1534.300000       0.999050
     1534.400000       0.998960
     1534.500000       0.998830
     1534.600000       0.998680
     1534.700000       0.998500
     1534.800000       0.998290
     1534.900000       0.998070
     1535.000000       0.997840
     1535.100000       0.997590
     1535.200000       0.997350
     1535.300000       0.997100
     1535.400000       0.996860
     1535.500000       0.996620
     1535.600000       0.996400
     1535.700000       0.996190
     1535.800000       0.995470
     1535.900000       0.994720
     1536.000000       0.993980
     1536.100000       0.993270
     1536.200000       0.992590
     1536.300000       0.991510
     1536.400000       0.990460
     1536.500000       0.989440
     1536.600000       0.988450
     1536.700000       0.987480
     1536.800000       0.986530
     1536.900000       0.985600
     1537.000000       0.984680
     1537.100000       0.983770
     1537.200000       0.982870
     1537.300000       0.981970
     1537.400000       0.981050
     1537.500000       0.980130
     1537.600000       0.979180
     1537.700000       0.978150
     1537.800000       0.977050
     1537.900000       0.975910
     1538.000000       0.974710
     1538.100000       0.973470
     1538.200000       0.972150
     1538.300000       0.971070
     1538.400000       0.969910
     1538.500000       0.968660
     1538.600000       0.967330
     1538.700000       0.965900
     1538.800000       0.964380
     1538.900000       0.962760
     1539.000000       0.961040
     1539.100000       0.959230
     1539.200000       0.957320
     1539.300000       0.955330
     1539.400000       0.953250
     1539.500000       0.951070
     1539.600000       0.949020
     1539.700000       0.947180
     1539.800000       0.945280
     1539.900000       0.943320
     1540.000000       0.941310
     1540.100000       0.939260
     1540.200000       0.937180
     1540.300000       0.934970
     1540.400000       0.932750
     1540.500000       0.930530
     1540.600000       0.928320
     1540.700000       0.926120
     1540.800000       0.923950
     1540.900000       0.921820
     1541.000000       0.919720
     1541.100000       0.917660
     1541.200000       0.915650
     1541.300000       0.913700
     1541.400000       0.911790
     1541.500000       0.910010
     1541.600000       0.908870
     1541.700000       0.907790
     1541.800000       0.906760
     1541.900000       0.905780
     1542.000000       0.904830
     1542.100000       0.903920
     1542.200000       0.903050
     1542.300000       0.902240
     1542.400000       0.901450
     1542.500000       0.900680
     1542.600000       0.899910
     1542.700000       0.899150
     1542.800000       0.898380
     1542.900000       0.897600
     1543.000000       0.896800
     1543.100000       0.895970
     1543.200000       0.895120
     1543.300000       0.894240
     1543.400000       0.893310
     1543.500000       0.892890
     1543.600000       0.892560
     1543.700000       0.892170
     1543.800000       0.891740
     1543.900000       0.891250
     1544.000000       0.890710
     1544.100000       0.890110
     1544.200000       0.889450
     1544.300000       0.888730
     1544.400000       0.887940
     1544.500000       0.887090
     1544.600000       0.886170
     1544.700000       0.885200
     1544.800000       0.884160
     1544.900000       0.883050
     1545.000000       0.881880
     1545.100000       0.880650
     1545.200000       0.879340
     1545.300000       0.877970
     1545.400000       0.876820
     1545.500000       0.875880
     1545.600000       0.874870
     1545.700000       0.873780
     1545.800000       0.872630
     1545.900000       0.871400
     1546.000000       0.870100
     1546.100000       0.868730
     1546.200000       0.867300
     1546.300000       0.865650
     1546.400000       0.863950
     1546.500000       0.862200
     1546.600000       0.860390
     1546.700000       0.858530
     1546.800000       0.856640
     1546.900000       0.854710
     1547.000000       0.852770
     1547.100000       0.850800
     1547.200000       0.848830
     1547.300000       0.846870
     1547.400000       0.845000
     1547.500000       0.843140
     1547.600000       0.841300
     1547.700000       0.839490
     1547.800000       0.837700
     1547.900000       0.835960
     1548.000000       0.834250
     1548.100000       0.832590
     1548.200000       0.830980
     1548.300000       0.829320
     1548.400000       0.827710
     1548.500000       0.826150
     1548.600000       0.824640
     1548.700000       0.823170
     1548.800000       0.821740
     1548.900000       0.820360
     1549.000000       0.819010
     1549.100000       0.817690
     1549.200000       0.816390
     1549.300000       0.814730
     1549.400000       0.813050
     1549.500000       0.811390
     1549.600000       0.809730
     1549.700000       0.808080
     1549.800000       0.806450
     1549.900000       0.804820
     1550.000000       0.803200
     1550.100000       0.801590
     1550.200000       0.799990
     1550.300000       0.798390
     1550.400000       0.796820
     1550.500000       0.795280
     1550.600000       0.793780
     1550.700000       0.792330
     1550.800000       0.790940
     1550.900000       0.789630
     1551.000000       0.788400
     1551.100000       0.787270
