14, channel 14 SRF extracted from AHI-9_SpectralResponsivity_Data.xlsx (release Oct 2013)
Number of data points:
1491
Wavenumber (cm-1)   Filter response
      821.000000       0.000372
      821.100000       0.000381
      821.200000       0.000390
      821.300000       0.000398
      821.400000       0.000406
      821.500000       0.000413
      821.600000       0.000420
      821.700000       0.000426
      821.800000       0.000432
      821.900000       0.000438
      822.000000       0.000444
      822.100000       0.000450
      822.200000       0.000456
      822.300000       0.000462
      822.400000       0.000469
      822.500000       0.000476
      822.600000       0.000484
      822.700000       0.000493
      822.800000       0.000503
      822.900000       0.000513
      823.000000       0.000524
      823.100000       0.000536
      823.200000       0.000548
      823.300000       0.000561
      823.400000       0.000573
      823.500000       0.000585
      823.600000       0.000597
      823.700000       0.000608
      823.800000       0.000618
      823.900000       0.000627
      824.000000       0.000635
      824.100000       0.000641
      824.200000       0.000646
      824.300000       0.000648
      824.400000       0.000649
      824.500000       0.000649
      824.600000       0.000646
      824.700000       0.000642
      824.800000       0.000637
      824.900000       0.000630
      825.000000       0.000622
      825.100000       0.000614
      825.200000       0.000605
      825.300000       0.000596
      825.400000       0.000586
      825.500000       0.000577
      825.600000       0.000569
      825.700000       0.000560
      825.800000       0.000553
      825.900000       0.000547
      826.000000       0.000541
      826.100000       0.000537
      826.200000       0.000533
      826.300000       0.000531
      826.400000       0.000530
      826.500000       0.000531
      826.600000       0.000532
      826.700000       0.000535
      826.800000       0.000539
      826.900000       0.000544
      827.000000       0.000551
      827.100000       0.000559
      827.200000       0.000568
      827.300000       0.000579
      827.400000       0.000591
      827.500000       0.000605
      827.600000       0.000620
      827.700000       0.000636
      827.800000       0.000653
      827.900000       0.000672
      828.000000       0.000692
      828.100000       0.000713
      828.200000       0.000735
      828.300000       0.000757
      828.400000       0.000779
      828.500000       0.000802
      828.600000       0.000822
      828.700000       0.000961
      828.800000       0.001031
      828.900000       0.001051
      829.000000       0.001070
      829.100000       0.001088
      829.200000       0.001104
      829.300000       0.001118
      829.400000       0.001131
      829.500000       0.001141
      829.600000       0.001151
      829.700000       0.001158
      829.800000       0.001164
      829.900000       0.001168
      830.000000       0.001172
      830.100000       0.001175
      830.200000       0.001177
      830.300000       0.001179
      830.400000       0.001181
      830.500000       0.001184
      830.600000       0.001187
      830.700000       0.001191
      830.800000       0.001195
      830.900000       0.001201
      831.000000       0.001208
      831.100000       0.001216
      831.200000       0.001225
      831.300000       0.001235
      831.400000       0.001246
      831.500000       0.001259
      831.600000       0.001271
      831.700000       0.001284
      831.800000       0.001298
      831.900000       0.001311
      832.000000       0.001325
      832.100000       0.001340
      832.200000       0.001354
      832.300000       0.001368
      832.400000       0.001383
      832.500000       0.001397
      832.600000       0.001412
      832.700000       0.001428
      832.800000       0.001445
      832.900000       0.001462
      833.000000       0.001480
      833.100000       0.001499
      833.200000       0.001519
      833.300000       0.001541
      833.400000       0.001564
      833.500000       0.001588
      833.600000       0.001614
      833.700000       0.001640
      833.800000       0.001668
      833.900000       0.001696
      834.000000       0.001725
      834.100000       0.001754
      834.200000       0.001783
      834.300000       0.001813
      834.400000       0.001842
      834.500000       0.001871
      834.600000       0.001900
      834.700000       0.001928
      834.800000       0.001955
      834.900000       0.001983
      835.000000       0.002009
      835.100000       0.002036
      835.200000       0.002062
      835.300000       0.002089
      835.400000       0.002116
      835.500000       0.002144
      835.600000       0.002172
      835.700000       0.002202
      835.800000       0.002233
      835.900000       0.002266
      836.000000       0.002300
      836.100000       0.002336
      836.200000       0.002373
      836.300000       0.002412
      836.400000       0.002453
      836.500000       0.002496
      836.600000       0.002539
      836.700000       0.002584
      836.800000       0.002630
      836.900000       0.002677
      837.000000       0.002725
      837.100000       0.002772
      837.200000       0.002820
      837.300000       0.002868
      837.400000       0.002916
      837.500000       0.002963
      837.600000       0.003010
      837.700000       0.003057
      837.800000       0.003103
      837.900000       0.003148
      838.000000       0.003193
      838.100000       0.003237
      838.200000       0.003280
      838.300000       0.003324
      838.400000       0.003366
      838.500000       0.003409
      838.600000       0.003451
      838.700000       0.003493
      838.800000       0.003535
      838.900000       0.003577
      839.000000       0.003620
      839.100000       0.003663
      839.200000       0.003706
      839.300000       0.003750
      839.400000       0.003795
      839.500000       0.003841
      839.600000       0.003889
      839.700000       0.003938
      839.800000       0.003988
      839.900000       0.004041
      840.000000       0.004096
      840.100000       0.004153
      840.200000       0.004213
      840.300000       0.004274
      840.400000       0.004338
      840.500000       0.004404
      840.600000       0.004473
      840.700000       0.004544
      840.800000       0.004617
      840.900000       0.004692
      841.000000       0.004769
      841.100000       0.004847
      841.200000       0.004927
      841.300000       0.005009
      841.400000       0.005091
      841.500000       0.005174
      841.600000       0.005258
      841.700000       0.005343
      841.800000       0.005428
      841.900000       0.005513
      842.000000       0.005600
      842.100000       0.005686
      842.200000       0.005774
      842.300000       0.005862
      842.400000       0.005951
      842.500000       0.006041
      842.600000       0.006132
      842.700000       0.006225
      842.800000       0.006319
      842.900000       0.006414
      843.000000       0.006511
      843.100000       0.006611
      843.200000       0.006712
      843.300000       0.006814
      843.400000       0.006919
      843.500000       0.007026
      843.600000       0.007136
      843.700000       0.007249
      843.800000       0.007364
      843.900000       0.007483
      844.000000       0.007605
      844.100000       0.007729
      844.200000       0.007858
      844.300000       0.007990
      844.400000       0.008125
      844.500000       0.008264
      844.600000       0.008408
      844.700000       0.008555
      844.800000       0.008706
      844.900000       0.008862
      845.000000       0.009022
      845.100000       0.009187
      845.200000       0.009354
      845.300000       0.009525
      845.400000       0.009701
      845.500000       0.009880
      845.600000       0.010062
      845.700000       0.010247
      845.800000       0.010435
      845.900000       0.010625
      846.000000       0.010819
      846.100000       0.011014
      846.200000       0.011212
      846.300000       0.011413
      846.400000       0.011616
      846.500000       0.011822
      846.600000       0.012030
      846.700000       0.012239
      846.800000       0.012452
      846.900000       0.012668
      847.000000       0.012886
      847.100000       0.013107
      847.200000       0.013331
      847.300000       0.013558
      847.400000       0.013788
      847.500000       0.014022
      847.600000       0.014260
      847.700000       0.014503
      847.800000       0.014749
      847.900000       0.015000
      848.000000       0.015256
      848.100000       0.015517
      848.200000       0.015784
      848.300000       0.016055
      848.400000       0.016334
      848.500000       0.016618
      848.600000       0.016908
      848.700000       0.017206
      848.800000       0.017510
      848.900000       0.017821
      849.000000       0.018140
      849.100000       0.018467
      849.200000       0.018809
      849.300000       0.019164
      849.400000       0.019527
      849.500000       0.019900
      849.600000       0.020281
      849.700000       0.020673
      849.800000       0.021074
      849.900000       0.021483
      850.000000       0.021901
      850.100000       0.022327
      850.200000       0.022762
      850.300000       0.023206
      850.400000       0.023659
      850.500000       0.024119
      850.600000       0.024587
      850.700000       0.025063
      850.800000       0.025547
      850.900000       0.026040
      851.000000       0.026542
      851.100000       0.027053
      851.200000       0.027574
      851.300000       0.028099
      851.400000       0.028631
      851.500000       0.029176
      851.600000       0.029732
      851.700000       0.030299
      851.800000       0.030880
      851.900000       0.031475
      852.000000       0.032087
      852.100000       0.032712
      852.200000       0.033352
      852.300000       0.034008
      852.400000       0.034680
      852.500000       0.035365
      852.600000       0.036067
      852.700000       0.036784
      852.800000       0.037530
      852.900000       0.038319
      853.000000       0.039124
      853.100000       0.039947
      853.200000       0.040787
      853.300000       0.041642
      853.400000       0.042514
      853.500000       0.043403
      853.600000       0.044309
      853.700000       0.045232
      853.800000       0.046172
      853.900000       0.047105
      854.000000       0.048034
      854.100000       0.048977
      854.200000       0.049934
      854.300000       0.050909
      854.400000       0.051900
      854.500000       0.052908
      854.600000       0.053933
      854.700000       0.054979
      854.800000       0.056054
      854.900000       0.057226
      855.000000       0.058441
      855.100000       0.059683
      855.200000       0.060954
      855.300000       0.062254
      855.400000       0.063585
      855.500000       0.064948
      855.600000       0.066329
      855.700000       0.067736
      855.800000       0.069176
      855.900000       0.070649
      856.000000       0.072153
      856.100000       0.073690
      856.200000       0.075243
      856.300000       0.076792
      856.400000       0.078367
      856.500000       0.079972
      856.600000       0.081607
      856.700000       0.083281
      856.800000       0.085009
      856.900000       0.086785
      857.000000       0.088599
      857.100000       0.090446
      857.200000       0.092331
      857.300000       0.094281
      857.400000       0.096318
      857.500000       0.098401
      857.600000       0.100527
      857.700000       0.102701
      857.800000       0.104937
      857.900000       0.107229
      858.000000       0.109569
      858.100000       0.111955
      858.200000       0.114368
      858.300000       0.116825
      858.400000       0.119326
      858.500000       0.121869
      858.600000       0.124434
      858.700000       0.127033
      858.800000       0.129678
      858.900000       0.132361
      859.000000       0.135081
      859.100000       0.137841
      859.200000       0.140642
      859.300000       0.143508
      859.400000       0.146428
      859.500000       0.149396
      859.600000       0.152438
      859.700000       0.155551
      859.800000       0.158715
      859.900000       0.161954
      860.000000       0.165273
      860.100000       0.168646
      860.200000       0.172095
      860.300000       0.175614
      860.400000       0.179186
      860.500000       0.182830
      860.600000       0.186530
      860.700000       0.190288
      860.800000       0.194109
      860.900000       0.197981
      861.000000       0.201910
      861.100000       0.205893
      861.200000       0.209933
      861.300000       0.214021
      861.400000       0.218159
      861.500000       0.222343
      861.600000       0.226568
      861.700000       0.230841
      861.800000       0.235159
      861.900000       0.239530
      862.000000       0.243952
      862.100000       0.248419
      862.200000       0.252945
      862.300000       0.257512
      862.400000       0.262155
      862.500000       0.266840
      862.600000       0.271593
      862.700000       0.276410
      862.800000       0.281275
      862.900000       0.286220
      863.000000       0.291211
      863.100000       0.296280
      863.200000       0.301404
      863.300000       0.306609
      863.400000       0.311885
      863.500000       0.317239
      863.600000       0.322651
      863.700000       0.328114
      863.800000       0.333660
      863.900000       0.339262
      864.000000       0.344924
      864.100000       0.350625
      864.200000       0.356361
      864.300000       0.362127
      864.400000       0.367896
      864.500000       0.373677
      864.600000       0.379434
      864.700000       0.385211
      864.800000       0.390964
      864.900000       0.396728
      865.000000       0.402464
      865.100000       0.408216
      865.200000       0.413951
      865.300000       0.419691
      865.400000       0.425466
      865.500000       0.431268
      865.600000       0.437130
      865.700000       0.443041
      865.800000       0.449029
      865.900000       0.455077
      866.000000       0.461205
      866.100000       0.467430
      866.200000       0.473752
      866.300000       0.480197
      866.400000       0.486711
      866.500000       0.493336
      866.600000       0.500021
      866.700000       0.506775
      866.800000       0.513506
      866.900000       0.520269
      867.000000       0.526974
      867.100000       0.533641
      867.200000       0.540211
      867.300000       0.546689
      867.400000       0.553087
      867.500000       0.559419
      867.600000       0.565646
      867.700000       0.571799
      867.800000       0.577842
      867.900000       0.583833
      868.000000       0.589782
      868.100000       0.595665
      868.200000       0.601536
      868.300000       0.607362
      868.400000       0.613210
      868.500000       0.619073
      868.600000       0.625022
      868.700000       0.631029
      868.800000       0.637121
      868.900000       0.643289
      869.000000       0.649507
      869.100000       0.655825
      869.200000       0.662189
      869.300000       0.668596
      869.400000       0.674984
      869.500000       0.681352
      869.600000       0.687675
      869.700000       0.693917
      869.800000       0.700026
      869.900000       0.706053
      870.000000       0.711963
      870.100000       0.717780
      870.200000       0.723446
      870.300000       0.728979
      870.400000       0.734355
      870.500000       0.739606
      870.600000       0.744744
      870.700000       0.749766
      870.800000       0.754716
      870.900000       0.759599
      871.000000       0.764429
      871.100000       0.769223
      871.200000       0.774004
      871.300000       0.778785
      871.400000       0.783572
      871.500000       0.788372
      871.600000       0.793167
      871.700000       0.798043
      871.800000       0.802924
      871.900000       0.807878
      872.000000       0.812817
      872.100000       0.817753
      872.200000       0.822633
      872.300000       0.827300
      872.400000       0.831762
      872.500000       0.835929
      872.600000       0.839750
      872.700000       0.843452
      872.800000       0.846803
      872.900000       0.850002
      873.000000       0.853129
      873.100000       0.856001
      873.200000       0.858783
      873.300000       0.861513
      873.400000       0.864210
      873.500000       0.866899
      873.600000       0.869529
      873.700000       0.872157
      873.800000       0.875168
      873.900000       0.878323
      874.000000       0.881474
      874.100000       0.885264
      874.200000       0.889422
      874.300000       0.892964
      874.400000       0.895393
      874.500000       0.897595
      874.600000       0.899841
      874.700000       0.902003
      874.800000       0.904102
      874.900000       0.906049
      875.000000       0.907893
      875.100000       0.909599
      875.200000       0.911177
      875.300000       0.912653
      875.400000       0.913994
      875.500000       0.915258
      875.600000       0.916431
      875.700000       0.917572
      875.800000       0.918689
      875.900000       0.919811
      876.000000       0.920959
      876.100000       0.922173
      876.200000       0.923458
      876.300000       0.924835
      876.400000       0.926332
      876.500000       0.927923
      876.600000       0.929620
      876.700000       0.931347
      876.800000       0.933084
      876.900000       0.934805
      877.000000       0.936498
      877.100000       0.938154
      877.200000       0.939784
      877.300000       0.941341
      877.400000       0.942820
      877.500000       0.944175
      877.600000       0.945382
      877.700000       0.946448
      877.800000       0.947332
      877.900000       0.948093
      878.000000       0.948598
      878.100000       0.948948
      878.200000       0.949219
      878.300000       0.949431
      878.400000       0.949627
      878.500000       0.949849
      878.600000       0.950117
      878.700000       0.950460
      878.800000       0.950895
      878.900000       0.951364
      879.000000       0.951958
      879.100000       0.952631
      879.200000       0.953412
      879.300000       0.954264
      879.400000       0.955175
      879.500000       0.956139
      879.600000       0.957137
      879.700000       0.958117
      879.800000       0.959061
      879.900000       0.959949
      880.000000       0.960754
      880.100000       0.961473
      880.200000       0.962075
      880.300000       0.962588
      880.400000       0.962997
      880.500000       0.963324
      880.600000       0.963598
      880.700000       0.963827
      880.800000       0.964049
      880.900000       0.964295
      881.000000       0.964578
      881.100000       0.964921
      881.200000       0.965387
      881.300000       0.965950
      881.400000       0.966626
      881.500000       0.967429
      881.600000       0.968328
      881.700000       0.969297
      881.800000       0.970343
      881.900000       0.971419
      882.000000       0.972495
      882.100000       0.973529
      882.200000       0.974497
      882.300000       0.975406
      882.400000       0.976190
      882.500000       0.976882
      882.600000       0.977421
      882.700000       0.977841
      882.800000       0.978179
      882.900000       0.978430
