24,   24, MVIRI VIS channel from srf_MET7_2000213_2000214_1801-Release_S10EE_10.dat
Number of data points:
793
Wavenumber (cm-1)   Filter response
     8442.380800       0.000000
     8449.514200       0.000000
     8456.659600       0.000004
     8463.817200       0.000053
     8470.986900       0.000156
     8478.168700       0.000313
     8485.362700       0.000520
     8492.569000       0.000778
     8499.787500       0.001084
     8507.018300       0.001437
     8514.261400       0.001836
     8521.516800       0.002279
     8528.784600       0.002766
     8536.064900       0.003294
     8543.357500       0.003863
     8550.662700       0.004472
     8557.980300       0.005120
     8565.310500       0.005806
     8572.653200       0.006528
     8580.008600       0.007285
     8587.376600       0.008078
     8594.757200       0.008904
     8602.150500       0.009763
     8609.556600       0.010655
     8616.975400       0.011578
     8624.407100       0.012531
     8631.851500       0.013515
     8639.308900       0.014528
     8646.779100       0.015570
     8654.262200       0.016640
     8661.758300       0.017738
     8669.267400       0.018862
     8676.789600       0.020013
     8684.324800       0.021190
     8691.873100       0.022392
     8699.434500       0.023619
     8707.009100       0.024871
     8714.596900       0.026147
     8722.198000       0.027446
     8729.812300       0.028770
     8737.439900       0.030116
     8745.080900       0.031485
     8752.735200       0.032877
     8760.403000       0.034290
     8768.084200       0.035726
     8775.778900       0.037184
     8783.487000       0.038663
     8791.208800       0.040163
     8798.944100       0.041685
     8806.693100       0.043227
     8814.455700       0.044790
     8822.232000       0.046375
     8830.022100       0.047979
     8837.825900       0.049604
     8845.643500       0.051250
     8853.475000       0.052915
     8861.320300       0.054601
     8869.179600       0.056308
     8877.052800       0.058034
     8884.940000       0.059780
     8892.841300       0.061546
     8900.756600       0.063333
     8908.686000       0.065140
     8916.629500       0.066966
     8924.587200       0.068812
     8932.559200       0.070679
     8940.545400       0.072566
     8948.545900       0.074472
     8956.560700       0.076399
     8964.589900       0.078346
     8972.633500       0.080313
     8980.691500       0.082301
     8988.764000       0.084309
     8996.851100       0.086337
     9004.952700       0.088387
     9013.068900       0.090456
     9021.199800       0.092546
     9029.345400       0.094657
     9037.505600       0.096788
     9045.680700       0.098941
     9053.870500       0.101115
     9062.075200       0.103309
     9070.294800       0.105525
     9078.529300       0.107762
     9086.778700       0.110021
     9095.043200       0.112301
     9103.322700       0.114602
     9111.617300       0.116925
     9119.927000       0.119270
     9128.251900       0.121636
     9136.592100       0.124025
     9144.947400       0.126436
     9153.318100       0.128868
     9161.704100       0.131323
     9170.105500       0.133800
     9178.522300       0.136300
     9186.954500       0.138822
     9195.402300       0.141366
     9203.865600       0.143933
     9212.344500       0.146523
     9220.839100       0.149136
     9229.349300       0.151772
     9237.875300       0.154430
     9246.417000       0.157111
     9254.974500       0.159816
     9263.547900       0.162544
     9272.137200       0.165294
     9280.742500       0.168069
     9289.363700       0.170866
     9298.000900       0.173686
     9306.654300       0.176530
     9315.323700       0.179398
     9324.009300       0.182289
     9332.711200       0.185203
     9341.429200       0.188140
     9350.163600       0.191102
     9358.914400       0.194086
     9367.681500       0.197094
     9376.465100       0.200126
     9385.265100       0.203181
     9394.081700       0.206260
     9402.914900       0.209362
     9411.764700       0.212488
     9420.631200       0.215637
     9429.514400       0.218809
     9438.414300       0.222005
     9447.331100       0.225224
     9456.264800       0.228466
     9465.215300       0.231732
     9474.182900       0.235020
     9483.167400       0.238332
     9492.169000       0.241666
     9501.187600       0.245024
     9510.223500       0.248405
     9519.276500       0.251808
     9528.346800       0.255234
     9537.434400       0.258682
     9546.539400       0.262153
     9555.661700       0.265646
     9564.801500       0.269162
     9573.958800       0.272699
     9583.133700       0.276259
     9592.326100       0.279840
     9601.536200       0.283442
     9610.764100       0.287066
     9620.009600       0.290712
     9629.273000       0.294379
     9638.554200       0.298067
     9647.853400       0.301775
     9657.170400       0.305504
     9666.505600       0.309254
     9675.858700       0.313024
     9685.230000       0.316814
     9694.619500       0.320624
     9704.027200       0.324453
     9713.453100       0.328302
     9722.897400       0.332170
     9732.360100       0.336056
     9741.841200       0.339962
     9751.340800       0.343886
     9760.859000       0.347828
     9770.395700       0.351788
     9779.951100       0.355766
     9789.525200       0.359761
     9799.118100       0.363773
     9808.729800       0.367802
     9818.360300       0.371848
     9828.009800       0.375910
     9837.678300       0.379988
     9847.365800       0.384082
     9857.072400       0.388191
     9866.798200       0.392315
     9876.543200       0.396454
     9886.307500       0.400607
     9896.091000       0.404775
     9905.894000       0.408956
     9915.716400       0.413150
     9925.558300       0.417358
     9935.419800       0.421579
     9945.300800       0.425812
     9955.201600       0.430056
     9965.122100       0.434313
     9975.062300       0.438581
     9985.022500       0.442860
     9995.002500       0.447150
    10005.002500       0.451449
    10015.022500       0.455759
    10025.062700       0.460078
    10035.122900       0.464406
    10045.203400       0.468743
    10055.304200       0.473088
    10065.425300       0.477441
    10075.566800       0.481802
    10085.728700       0.486169
    10095.911200       0.490544
    10106.114200       0.494924
    10116.337900       0.499310
    10126.582300       0.503702
    10136.847400       0.508099
    10147.133400       0.512501
    10157.440300       0.516906
    10167.768200       0.521316
    10178.117000       0.525728
    10188.487000       0.530144
    10198.878100       0.534562
    10209.290500       0.538982
    10219.724100       0.543404
    10230.179000       0.547826
    10240.655400       0.552250
    10251.153300       0.556674
    10261.672700       0.561097
    10272.213700       0.565520
    10282.776300       0.569942
    10293.360800       0.574362
    10303.967000       0.578780
    10314.595200       0.583196
    10325.245200       0.587609
    10335.917300       0.592019
    10346.611500       0.596424
    10357.327800       0.600826
    10368.066400       0.605223
    10378.827200       0.609614
    10389.610400       0.614000
    10400.416000       0.618380
    10411.244100       0.622753
    10422.094800       0.627120
    10432.968200       0.631479
    10443.864200       0.635830
    10454.783100       0.640172
    10465.724800       0.644506
    10476.689400       0.648831
    10487.677000       0.653146
    10498.687700       0.657450
    10509.721500       0.661744
    10520.778500       0.666027
    10531.858900       0.670298
    10542.962600       0.674558
    10554.089700       0.678804
    10565.240400       0.683038
    10576.414600       0.687259
    10587.612500       0.691466
    10598.834100       0.695658
    10610.079600       0.699836
    10621.348900       0.703999
    10632.642200       0.708146
    10643.959600       0.712278
    10655.301000       0.716392
    10666.666700       0.720490
    10678.056600       0.724571
    10689.470900       0.728634
    10700.909600       0.732679
    10712.372800       0.736705
    10723.860600       0.740712
    10735.373100       0.744700
    10746.910300       0.748668
    10758.472300       0.752616
    10770.059200       0.756543
    10781.671200       0.760449
    10793.308100       0.764334
    10804.970300       0.768197
    10816.657700       0.772038
    10828.370300       0.775855
    10840.108400       0.779650
    10851.871900       0.783422
    10863.661100       0.787170
    10875.475800       0.790893
    10887.316300       0.794592
    10899.182600       0.798266
    10911.074700       0.801915
    10922.992900       0.805539
    10934.937100       0.809136
    10946.907500       0.812707
    10958.904100       0.816251
    10970.927000       0.819768
    10982.976400       0.823258
    10995.052200       0.826720
    11007.154700       0.830154
    11019.283700       0.833559
    11031.439600       0.836937
    11043.622300       0.840284
    11055.832000       0.843603
    11068.068600       0.846892
    11080.332400       0.850151
    11092.623400       0.853380
    11104.941700       0.856578
    11117.287400       0.859745
    11129.660500       0.862882
    11142.061300       0.865987
    11154.489700       0.869060
    11166.945800       0.872101
    11179.429800       0.875111
    11191.941800       0.878088
    11204.481800       0.881032
    11217.049900       0.883943
    11229.646300       0.886821
    11242.270900       0.889666
    11254.924000       0.892477
    11267.605600       0.895254
    11280.315800       0.897997
    11293.054800       0.900706
    11305.822500       0.903381
    11318.619100       0.906021
    11331.444800       0.908625
    11344.299500       0.911195
    11357.183400       0.913730
    11370.096600       0.916230
    11383.039300       0.918693
    11396.011400       0.921122
    11409.013100       0.923514
    11422.044500       0.925870
    11435.105800       0.928190
    11448.196900       0.930474
    11461.318100       0.932721
    11474.469300       0.934932
    11487.650800       0.937106
    11500.862600       0.939244
    11514.104800       0.941345
    11527.377500       0.943408
    11540.680900       0.945435
    11554.015000       0.947424
    11567.380000       0.949377
    11580.775900       0.951292
    11594.202900       0.953169
    11607.661100       0.955009
    11621.150500       0.956812
    11634.671300       0.958577
    11648.223600       0.960305
    11661.807600       0.961995
    11675.423200       0.963648
    11689.070700       0.965263
    11702.750100       0.966840
    11716.461600       0.968380
    11730.205300       0.969882
    11743.981200       0.971347
    11757.789500       0.972774
    11771.630400       0.974163
    11785.503800       0.975515
    11799.410000       0.976829
    11813.349100       0.978106
    11827.321100       0.979345
    11841.326200       0.980547
    11855.364600       0.981712
    11869.436200       0.982840
    11883.541300       0.983930
    11897.680000       0.984983
    11911.852300       0.986000
    11926.058400       0.986979
    11940.298500       0.987922
    11954.572600       0.988827
    11968.880900       0.989697
    11983.223500       0.990530
    11997.600500       0.991326
    12012.012000       0.992086
    12026.458200       0.992811
    12040.939200       0.993499
    12055.455100       0.994152
    12070.006000       0.994768
    12084.592100       0.995350
    12099.213600       0.995896
    12113.870400       0.996407
    12128.562800       0.996884
    12143.290800       0.997325
    12158.054700       0.997732
    12172.854500       0.998105
    12187.690400       0.998443
    12202.562500       0.998748
    12217.471000       0.999019
    12232.415900       0.999256
    12247.397400       0.999460
    12262.415700       0.999631
    12277.470800       0.999769
    12292.563000       0.999875
    12307.692300       0.999949
    12322.858900       0.999990
    12338.062900       1.000000
    12353.304500       0.999978
    12368.583800       0.999925
    12383.900900       0.999841
    12399.256000       0.999727
    12414.649300       0.999582
    12430.080800       0.999407
    12445.550700       0.999202
    12461.059200       0.998968
    12476.606400       0.998704
    12492.192400       0.998412
    12507.817400       0.998091
    12523.481500       0.997742
    12539.185000       0.997365
    12554.927800       0.996961
    12570.710200       0.996529
    12586.532400       0.996070
    12602.394500       0.995585
    12618.296500       0.995074
    12634.238800       0.994537
    12650.221400       0.993974
    12666.244500       0.993387
    12682.308200       0.992774
    12698.412700       0.992137
    12714.558200       0.991477
    12730.744700       0.990792
    12746.972600       0.990084
    12763.241900       0.989354
    12779.552700       0.988601
    12795.905300       0.987826
    12812.299800       0.987029
    12828.736400       0.986211
    12845.215200       0.985372
    12861.736300       0.984513
    12878.300100       0.983633
    12894.906500       0.982734
    12911.555800       0.981816
    12928.248200       0.980878
    12944.983800       0.979923
    12961.762800       0.978949
    12978.585300       0.977958
    12995.451600       0.976950
    13012.361700       0.975924
    13029.316000       0.974883
    13046.314400       0.973826
    13063.357300       0.972753
    13080.444700       0.971665
    13097.576900       0.970563
    13114.754100       0.969447
    13131.976400       0.968317
    13149.243900       0.967173
    13166.556900       0.966017
    13183.915600       0.964849
    13201.320100       0.963669
    13218.770700       0.962477
    13236.267400       0.961274
    13253.810500       0.960061
    13271.400100       0.958837
    13289.036500       0.957604
    13306.719900       0.956362
    13324.450400       0.955111
    13342.228200       0.953852
    13360.053400       0.952584
    13377.926400       0.951310
    13395.847300       0.950028
    13413.816200       0.948740
    13431.833400       0.947446
    13449.899100       0.946146
    13468.013500       0.944842
    13486.176700       0.943532
    13504.388900       0.942218
    13522.650400       0.940901
    13540.961400       0.939580
    13559.322000       0.938256
    13577.732500       0.936930
    13596.193100       0.935601
    13614.703900       0.934271
    13633.265200       0.932940
    13651.877100       0.931609
    13670.540000       0.930277
    13689.253900       0.928945
    13708.019200       0.927614
    13726.836000       0.926284
    13745.704500       0.924955
    13764.624900       0.923629
    13783.597500       0.922304
    13802.622500       0.920983
    13821.700100       0.919665
    13840.830400       0.918350
    13860.013900       0.917039
    13879.250500       0.915733
    13898.540700       0.914432
    13917.884500       0.913136
    13937.282200       0.911845
    13956.734100       0.910561
    13976.240400       0.909283
    13995.801300       0.908012
    14015.417000       0.906748
    14035.087700       0.905492
    14054.813800       0.904244
    14074.595400       0.903004
    14094.432700       0.901773
    14114.326000       0.900551
    14134.275600       0.899339
    14154.281700       0.898137
    14174.344400       0.896945
    14194.464200       0.895763
    14214.641100       0.894592
    14234.875400       0.893433
    14255.167500       0.892285
    14275.517500       0.891150
    14295.925700       0.890026
    14316.392300       0.888915
    14336.917600       0.887818
    14357.501800       0.886733
    14378.145200       0.885662
    14398.848100       0.884605
    14419.610700       0.883562
    14440.433200       0.882533
    14461.316000       0.881519
    14482.259200       0.880520
    14503.263200       0.879537
    14524.328200       0.878569
    14545.454500       0.877617
    14566.642400       0.876680
    14587.892000       0.875761
    14609.203800       0.874857
    14630.577900       0.873971
    14652.014700       0.873101
    14673.514300       0.872249
    14695.077100       0.871414
    14716.703500       0.870597
    14738.393500       0.869798
    14760.147600       0.869016
    14781.966000       0.868253
    14803.849000       0.867509
    14825.796900       0.866783
    14847.809900       0.866075
    14869.888500       0.865387
    14892.032800       0.864717
    14914.243100       0.864067
    14936.519800       0.863436
    14958.863100       0.862825
    14981.273400       0.862233
    15003.750900       0.861661
    15026.296000       0.861108
    15048.909000       0.860575
    15071.590100       0.860062
    15094.339600       0.859570
    15117.158000       0.859097
    15140.045400       0.858644
    15163.002300       0.858212
    15186.028900       0.857799
    15209.125500       0.857407
    15232.292500       0.857036
    15255.530100       0.856684
    15278.838800       0.856353
    15302.218800       0.856042
    15325.670500       0.855751
    15349.194200       0.855480
    15372.790200       0.855230
    15396.458800       0.855000
    15420.200500       0.854789
    15444.015400       0.854599
    15467.904100       0.854429
    15491.866800       0.854279
    15515.903800       0.854148
    15540.015500       0.854037
    15564.202300       0.853946
    15588.464500       0.853874
    15612.802500       0.853821
    15637.216600       0.853788
    15661.707100       0.853773
    15686.274500       0.853778
    15710.919100       0.853801
    15735.641200       0.853843
    15760.441300       0.853903
    15785.319700       0.853981
    15810.276700       0.854077
    15835.312700       0.854191
    15860.428200       0.854322
    15885.623500       0.854471
    15910.899000       0.854637
    15936.255000       0.854819
    15961.691900       0.855018
    15987.210200       0.855233
    16012.810200       0.855463
    16038.492400       0.855710
    16064.257000       0.855972
    16090.104600       0.856248
    16116.035500       0.856540
    16142.050000       0.856845
    16168.148700       0.857165
    16194.332000       0.857498
    16220.600200       0.857845
    16246.953700       0.858204
    16273.393000       0.858576
    16299.918500       0.858960
    16326.530600       0.859355
    16353.229800       0.859762
    16380.016400       0.860179
    16406.890900       0.860607
    16433.853700       0.861045
    16460.905300       0.861492
    16488.046200       0.861948
    16515.276600       0.862413
    16542.597200       0.862886
    16570.008300       0.863366
    16597.510400       0.863853
    16625.103900       0.864347
    16652.789300       0.864846
    16680.567100       0.865351
    16708.437800       0.865861
    16736.401700       0.866376
    16764.459300       0.866894
    16792.611300       0.867415
    16820.857900       0.867939
    16849.199700       0.868465
    16877.637100       0.868992
    16906.170800       0.869520
    16934.801000       0.870048
    16963.528400       0.870576
    16992.353400       0.871102
    17021.276600       0.871627
    17050.298400       0.872150
    17079.419300       0.872669
    17108.639900       0.873185
    17137.960600       0.873696
    17167.382000       0.874202
    17196.904600       0.874703
    17226.528900       0.875197
    17256.255400       0.875683
    17286.084700       0.876162
    17316.017300       0.876632
    17346.053800       0.877093
    17376.194600       0.877543
    17406.440400       0.877983
    17436.791600       0.878411
    17467.248900       0.878827
    17497.812800       0.879229
    17528.483800       0.879618
    17559.262500       0.879992
    17590.149500       0.880350
    17621.145400       0.880692
    17652.250700       0.881017
    17683.466000       0.881324
