39,   39, MVIRI VIS channel from srf_MET5_1996033_1996034_1801-Release_S10EL_10.dat
Number of data points:
806
Wavenumber (cm-1)   Filter response
     8350.730700       0.000000
     8357.710000       0.000000
     8364.701000       0.000000
     8371.703600       0.000002
     8378.718100       0.000004
     8385.744200       0.000009
     8392.782200       0.000016
     8399.832000       0.000027
     8406.893700       0.000041
     8413.967200       0.000059
     8421.052600       0.000082
     8428.150000       0.000109
     8435.259400       0.000143
     8442.380800       0.000182
     8449.514200       0.000228
     8456.659600       0.000280
     8463.817200       0.000340
     8470.986900       0.000407
     8478.168700       0.000482
     8485.362700       0.000566
     8492.569000       0.000657
     8499.787500       0.000758
     8507.018300       0.000868
     8514.261400       0.000988
     8521.516800       0.001117
     8528.784600       0.001257
     8536.064900       0.001407
     8543.357500       0.001567
     8550.662700       0.001739
     8557.980300       0.001922
     8565.310500       0.002116
     8572.653200       0.002321
     8580.008600       0.002539
     8587.376600       0.002769
     8594.757200       0.003011
     8602.150500       0.003265
     8609.556600       0.003533
     8616.975400       0.003813
     8624.407100       0.004106
     8631.851500       0.004413
     8639.308900       0.004733
     8646.779100       0.005066
     8654.262200       0.005414
     8661.758300       0.005776
     8669.267400       0.006151
     8676.789600       0.006541
     8684.324800       0.006946
     8691.873100       0.007365
     8699.434500       0.007799
     8707.009100       0.008247
     8714.596900       0.008711
     8722.198000       0.009190
     8729.812300       0.009685
     8737.439900       0.010194
     8745.080900       0.010720
     8752.735200       0.011261
     8760.403000       0.011818
     8768.084200       0.012391
     8775.778900       0.012980
     8783.487000       0.013585
     8791.208800       0.014207
     8798.944100       0.014845
     8806.693100       0.015499
     8814.455700       0.016171
     8822.232000       0.016859
     8830.022100       0.017564
     8837.825900       0.018286
     8845.643500       0.019025
     8853.475000       0.019781
     8861.320300       0.020555
     8869.179600       0.021346
     8877.052800       0.022155
     8884.940000       0.022982
     8892.841300       0.023826
     8900.756600       0.024689
     8908.686000       0.025569
     8916.629500       0.026467
     8924.587200       0.027384
     8932.559200       0.028319
     8940.545400       0.029272
     8948.545900       0.030244
     8956.560700       0.031235
     8964.589900       0.032244
     8972.633500       0.033272
     8980.691500       0.034319
     8988.764000       0.035385
     8996.851100       0.036470
     9004.952700       0.037575
     9013.068900       0.038699
     9021.199800       0.039842
     9029.345400       0.041005
     9037.505600       0.042187
     9045.680700       0.043390
     9053.870500       0.044612
     9062.075200       0.045854
     9070.294800       0.047116
     9078.529300       0.048398
     9086.778700       0.049701
     9095.043200       0.051024
     9103.322700       0.052367
     9111.617300       0.053731
     9119.927000       0.055115
     9128.251900       0.056520
     9136.592100       0.057946
     9144.947400       0.059393
     9153.318100       0.060861
     9161.704100       0.062349
     9170.105500       0.063860
     9178.522300       0.065391
     9186.954500       0.066944
     9195.402300       0.068518
     9203.865600       0.070113
     9212.344500       0.071731
     9220.839100       0.073370
     9229.349300       0.075030
     9237.875300       0.076713
     9246.417000       0.078418
     9254.974500       0.080144
     9263.547900       0.081893
     9272.137200       0.083664
     9280.742500       0.085457
     9289.363700       0.087272
     9298.000900       0.089110
     9306.654300       0.090971
     9315.323700       0.092853
     9324.009300       0.094759
     9332.711200       0.096687
     9341.429200       0.098638
     9350.163600       0.100612
     9358.914400       0.102608
     9367.681500       0.104628
     9376.465100       0.106670
     9385.265100       0.108735
     9394.081700       0.110824
     9402.914900       0.112936
     9411.764700       0.115070
     9420.631200       0.117229
     9429.514400       0.119410
     9438.414300       0.121614
     9447.331100       0.123842
     9456.264800       0.126094
     9465.215300       0.128368
     9474.182900       0.130666
     9483.167400       0.132988
     9492.169000       0.135333
     9501.187600       0.137701
     9510.223500       0.140094
     9519.276500       0.142509
     9528.346800       0.144948
     9537.434400       0.147411
     9546.539400       0.149897
     9555.661700       0.152407
     9564.801500       0.154940
     9573.958800       0.157497
     9583.133700       0.160078
     9592.326100       0.162682
     9601.536200       0.165310
     9610.764100       0.167961
     9620.009600       0.170635
     9629.273000       0.173334
     9638.554200       0.176055
     9647.853400       0.178800
     9657.170400       0.181568
     9666.505600       0.184360
     9675.858700       0.187175
     9685.230000       0.190013
     9694.619500       0.192875
     9704.027200       0.195759
     9713.453100       0.198667
     9722.897400       0.201598
     9732.360100       0.204551
     9741.841200       0.207528
     9751.340800       0.210527
     9760.859000       0.213550
     9770.395700       0.216595
     9779.951100       0.219662
     9789.525200       0.222752
     9799.118100       0.225865
     9808.729800       0.229000
     9818.360300       0.232157
     9828.009800       0.235336
     9837.678300       0.238537
     9847.365800       0.241760
     9857.072400       0.245005
     9866.798200       0.248272
     9876.543200       0.251560
     9886.307500       0.254869
     9896.091000       0.258200
     9905.894000       0.261552
     9915.716400       0.264925
     9925.558300       0.268319
     9935.419800       0.271734
     9945.300800       0.275169
     9955.201600       0.278624
     9965.122100       0.282100
     9975.062300       0.285596
     9985.022500       0.289112
     9995.002500       0.292647
    10005.002500       0.296203
    10015.022500       0.299777
    10025.062700       0.303370
    10035.122900       0.306983
    10045.203400       0.310614
    10055.304200       0.314265
    10065.425300       0.317933
    10075.566800       0.321620
    10085.728700       0.325324
    10095.911200       0.329047
    10106.114200       0.332787
    10116.337900       0.336544
    10126.582300       0.340318
    10136.847400       0.344109
    10147.133400       0.347917
    10157.440300       0.351741
    10167.768200       0.355581
    10178.117000       0.359438
    10188.487000       0.363309
    10198.878100       0.367197
    10209.290500       0.371099
    10219.724100       0.375016
    10230.179000       0.378948
    10240.655400       0.382894
    10251.153300       0.386854
    10261.672700       0.390828
    10272.213700       0.394816
    10282.776300       0.398816
    10293.360800       0.402830
    10303.967000       0.406856
    10314.595200       0.410894
    10325.245200       0.414945
    10335.917300       0.419007
    10346.611500       0.423081
    10357.327800       0.427165
    10368.066400       0.431261
    10378.827200       0.435367
    10389.610400       0.439483
    10400.416000       0.443609
    10411.244100       0.447744
    10422.094800       0.451889
    10432.968200       0.456042
    10443.864200       0.460204
    10454.783100       0.464375
    10465.724800       0.468552
    10476.689400       0.472738
    10487.677000       0.476931
    10498.687700       0.481130
    10509.721500       0.485336
    10520.778500       0.489547
    10531.858900       0.493765
    10542.962600       0.497988
    10554.089700       0.502216
    10565.240400       0.506449
    10576.414600       0.510686
    10587.612500       0.514926
    10598.834100       0.519171
    10610.079600       0.523418
    10621.348900       0.527669
    10632.642200       0.531921
    10643.959600       0.536176
    10655.301000       0.540433
    10666.666700       0.544690
    10678.056600       0.548949
    10689.470900       0.553208
    10700.909600       0.557467
    10712.372800       0.561726
    10723.860600       0.565984
    10735.373100       0.570242
    10746.910300       0.574498
    10758.472300       0.578752
    10770.059200       0.583003
    10781.671200       0.587252
    10793.308100       0.591498
    10804.970300       0.595741
    10816.657700       0.599980
    10828.370300       0.604215
    10840.108400       0.608445
    10851.871900       0.612670
    10863.661100       0.616890
    10875.475800       0.621104
    10887.316300       0.625311
    10899.182600       0.629512
    10911.074700       0.633706
    10922.992900       0.637893
    10934.937100       0.642072
    10946.907500       0.646242
    10958.904100       0.650404
    10970.927000       0.654557
    10982.976400       0.658701
    10995.052200       0.662835
    11007.154700       0.666958
    11019.283700       0.671071
    11031.439600       0.675173
    11043.622300       0.679264
    11055.832000       0.683342
    11068.068600       0.687409
    11080.332400       0.691463
    11092.623400       0.695504
    11104.941700       0.699531
    11117.287400       0.703545
    11129.660500       0.707544
    11142.061300       0.711529
    11154.489700       0.715499
    11166.945800       0.719454
    11179.429800       0.723393
    11191.941800       0.727316
    11204.481800       0.731223
    11217.049900       0.735112
    11229.646300       0.738984
    11242.270900       0.742839
    11254.924000       0.746676
    11267.605600       0.750494
    11280.315800       0.754294
    11293.054800       0.758074
    11305.822500       0.761835
    11318.619100       0.765577
    11331.444800       0.769298
    11344.299500       0.772998
    11357.183400       0.776678
    11370.096600       0.780337
    11383.039300       0.783973
    11396.011400       0.787588
    11409.013100       0.791181
    11422.044500       0.794750
    11435.105800       0.798298
    11448.196900       0.801821
    11461.318100       0.805321
    11474.469300       0.808797
    11487.650800       0.812249
    11500.862600       0.815677
    11514.104800       0.819079
    11527.377500       0.822456
    11540.680900       0.825807
    11554.015000       0.829133
    11567.380000       0.832433
    11580.775900       0.835706
    11594.202900       0.838952
    11607.661100       0.842171
    11621.150500       0.845363
    11634.671300       0.848528
    11648.223600       0.851664
    11661.807600       0.854773
    11675.423200       0.857853
    11689.070700       0.860904
    11702.750100       0.863926
    11716.461600       0.866919
    11730.205300       0.869883
    11743.981200       0.872817
    11757.789500       0.875721
    11771.630400       0.878595
    11785.503800       0.881438
    11799.410000       0.884251
    11813.349100       0.887033
    11827.321100       0.889784
    11841.326200       0.892503
    11855.364600       0.895191
    11869.436200       0.897848
    11883.541300       0.900472
    11897.680000       0.903064
    11911.852300       0.905624
    11926.058400       0.908152
    11940.298500       0.910647
    11954.572600       0.913109
    11968.880900       0.915538
    11983.223500       0.917934
    11997.600500       0.920296
    12012.012000       0.922626
    12026.458200       0.924921
    12040.939200       0.927183
    12055.455100       0.929411
    12070.006000       0.931605
    12084.592100       0.933765
    12099.213600       0.935891
    12113.870400       0.937982
    12128.562800       0.940039
    12143.290800       0.942061
    12158.054700       0.944049
    12172.854500       0.946002
    12187.690400       0.947920
    12202.562500       0.949803
    12217.471000       0.951651
    12232.415900       0.953464
    12247.397400       0.955242
    12262.415700       0.956985
    12277.470800       0.958693
    12292.563000       0.960366
    12307.692300       0.962003
    12322.858900       0.963605
    12338.062900       0.965172
    12353.304500       0.966704
    12368.583800       0.968200
    12383.900900       0.969661
    12399.256000       0.971086
    12414.649300       0.972477
    12430.080800       0.973831
    12445.550700       0.975151
    12461.059200       0.976435
    12476.606400       0.977685
    12492.192400       0.978899
    12507.817400       0.980077
    12523.481500       0.981221
    12539.185000       0.982330
    12554.927800       0.983404
    12570.710200       0.984443
    12586.532400       0.985447
    12602.394500       0.986416
    12618.296500       0.987351
    12634.238800       0.988251
    12650.221400       0.989117
    12666.244500       0.989948
    12682.308200       0.990745
    12698.412700       0.991508
    12714.558200       0.992237
    12730.744700       0.992932
    12746.972600       0.993594
    12763.241900       0.994221
    12779.552700       0.994816
    12795.905300       0.995377
    12812.299800       0.995905
    12828.736400       0.996400
    12845.215200       0.996862
    12861.736300       0.997292
    12878.300100       0.997689
    12894.906500       0.998054
    12911.555800       0.998387
    12928.248200       0.998688
    12944.983800       0.998958
    12961.762800       0.999196
    12978.585300       0.999402
    12995.451600       0.999578
    13012.361700       0.999723
    13029.316000       0.999838
    13046.314400       0.999922
    13063.357300       0.999976
    13080.444700       1.000000
    13097.576900       0.999995
    13114.754100       0.999960
    13131.976400       0.999896
    13149.243900       0.999804
    13166.556900       0.999683
    13183.915600       0.999534
    13201.320100       0.999357
    13218.770700       0.999152
    13236.267400       0.998920
    13253.810500       0.998660
    13271.400100       0.998374
    13289.036500       0.998062
    13306.719900       0.997723
    13324.450400       0.997359
    13342.228200       0.996969
    13360.053400       0.996553
    13377.926400       0.996113
    13395.847300       0.995649
    13413.816200       0.995160
    13431.833400       0.994647
    13449.899100       0.994110
    13468.013500       0.993551
    13486.176700       0.992968
    13504.388900       0.992363
    13522.650400       0.991736
    13540.961400       0.991087
    13559.322000       0.990417
    13577.732500       0.989726
    13596.193100       0.989014
    13614.703900       0.988281
    13633.265200       0.987529
    13651.877100       0.986757
    13670.540000       0.985966
    13689.253900       0.985156
    13708.019200       0.984328
    13726.836000       0.983482
    13745.704500       0.982618
    13764.624900       0.981737
    13783.597500       0.980839
    13802.622500       0.979924
    13821.700100       0.978994
    13840.830400       0.978048
    13860.013900       0.977086
    13879.250500       0.976110
    13898.540700       0.975119
    13917.884500       0.974115
    13937.282200       0.973096
    13956.734100       0.972065
    13976.240400       0.971020
    13995.801300       0.969964
    14015.417000       0.968895
    14035.087700       0.967815
    14054.813800       0.966724
    14074.595400       0.965622
    14094.432700       0.964509
    14114.326000       0.963387
    14134.275600       0.962255
    14154.281700       0.961115
    14174.344400       0.959965
    14194.464200       0.958808
    14214.641100       0.957642
    14234.875400       0.956470
    14255.167500       0.955290
    14275.517500       0.954104
    14295.925700       0.952912
    14316.392300       0.951714
    14336.917600       0.950511
    14357.501800       0.949302
    14378.145200       0.948090
    14398.848100       0.946873
    14419.610700       0.945653
    14440.433200       0.944430
    14461.316000       0.943204
    14482.259200       0.941975
    14503.263200       0.940744
    14524.328200       0.939512
    14545.454500       0.938279
    14566.642400       0.937045
    14587.892000       0.935810
    14609.203800       0.934575
    14630.577900       0.933341
    14652.014700       0.932108
    14673.514300       0.930876
    14695.077100       0.929645
    14716.703500       0.928417
    14738.393500       0.927190
    14760.147600       0.925967
    14781.966000       0.924746
    14803.849000       0.923529
    14825.796900       0.922316
    14847.809900       0.921107
    14869.888500       0.919902
    14892.032800       0.918702
    14914.243100       0.917508
    14936.519800       0.916319
    14958.863100       0.915136
    14981.273400       0.913960
    15003.750900       0.912790
    15026.296000       0.911626
    15048.909000       0.910471
    15071.590100       0.909322
    15094.339600       0.908182
    15117.158000       0.907050
    15140.045400       0.905926
    15163.002300       0.904811
    15186.028900       0.903705
    15209.125500       0.902609
    15232.292500       0.901522
    15255.530100       0.900445
    15278.838800       0.899379
    15302.218800       0.898323
    15325.670500       0.897277
    15349.194200       0.896243
    15372.790200       0.895220
    15396.458800       0.894208
    15420.200500       0.893208
    15444.015400       0.892220
    15467.904100       0.891244
    15491.866800       0.890281
    15515.903800       0.889330
    15540.015500       0.888392
    15564.202300       0.887467
    15588.464500       0.886555
    15612.802500       0.885656
    15637.216600       0.884771
    15661.707100       0.883900
    15686.274500       0.883042
    15710.919100       0.882198
    15735.641200       0.881369
    15760.441300       0.880554
    15785.319700       0.879753
    15810.276700       0.878966
    15835.312700       0.878194
    15860.428200       0.877437
    15885.623500       0.876695
    15910.899000       0.875967
    15936.255000       0.875254
    15961.691900       0.874557
    15987.210200       0.873874
    16012.810200       0.873207
    16038.492400       0.872554
    16064.257000       0.871917
    16090.104600       0.871295
    16116.035500       0.870688
    16142.050000       0.870097
    16168.148700       0.869520
    16194.332000       0.868959
    16220.600200       0.868413
    16246.953700       0.867882
    16273.393000       0.867366
    16299.918500       0.866865
    16326.530600       0.866379
    16353.229800       0.865908
    16380.016400       0.865451
    16406.890900       0.865009
    16433.853700       0.864582
    16460.905300       0.864170
    16488.046200       0.863771
    16515.276600       0.863387
    16542.597200       0.863017
    16570.008300       0.862661
    16597.510400       0.862318
    16625.103900       0.861989
    16652.789300       0.861674
    16680.567100       0.861371
    16708.437800       0.861082
    16736.401700       0.860805
    16764.459300       0.860541
    16792.611300       0.860289
    16820.857900       0.860049
    16849.199700       0.859821
    16877.637100       0.859604
    16906.170800       0.859399
    16934.801000       0.859204
    16963.528400       0.859020
    16992.353400       0.858847
    17021.276600       0.858683
    17050.298400       0.858529
    17079.419300       0.858384
    17108.639900       0.858249
    17137.960600       0.858122
    17167.382000       0.858003
    17196.904600       0.857892
    17226.528900       0.857788
    17256.255400       0.857691
    17286.084700       0.857601
