8,   channel 8 SRF from file SRF_SSH-1_Delivery_220520/SRF_DMSP-F2_SSH_Chan08.asc received June 2022 from SPASCIA
Number of data points:
711
Wavenumber (cm-1)   Filter response
      497.500000       0.001700
      497.600000       0.001700
      497.700000       0.001800
      497.800000       0.001800
      497.900000       0.001800
      498.000000       0.001900
      498.100000       0.001900
      498.200000       0.001900
      498.300000       0.001900
      498.400000       0.001900
      498.500000       0.001900
      498.600000       0.001900
      498.700000       0.001900
      498.800000       0.002000
      498.900000       0.002000
      499.000000       0.002000
      499.100000       0.002100
      499.200000       0.002100
      499.300000       0.002100
      499.400000       0.002200
      499.500000       0.002200
      499.600000       0.002200
      499.700000       0.002300
      499.800000       0.002300
      499.900000       0.002300
      500.000000       0.002400
      500.100000       0.002400
      500.200000       0.002400
      500.300000       0.002500
      500.400000       0.002500
      500.500000       0.002500
      500.600000       0.002600
      500.700000       0.002600
      500.800000       0.002600
      500.900000       0.002700
      501.000000       0.002700
      501.100000       0.002700
      501.200000       0.002800
      501.300000       0.002800
      501.400000       0.002800
      501.500000       0.002900
      501.600000       0.002900
      501.700000       0.002900
      501.800000       0.003000
      501.900000       0.003000
      502.000000       0.003000
      502.100000       0.003100
      502.200000       0.003100
      502.300000       0.003100
      502.400000       0.003200
      502.500000       0.003200
      502.600000       0.003300
      502.700000       0.003300
      502.800000       0.003400
      502.900000       0.003500
      503.000000       0.003500
      503.100000       0.003600
      503.200000       0.003600
      503.300000       0.003600
      503.400000       0.003700
      503.500000       0.003700
      503.600000       0.003800
      503.700000       0.003800
      503.800000       0.003900
      503.900000       0.004000
      504.000000       0.004000
      504.100000       0.004100
      504.200000       0.004200
      504.300000       0.004200
      504.400000       0.004300
      504.500000       0.004400
      504.600000       0.004500
      504.700000       0.004500
      504.800000       0.004600
      504.900000       0.004700
      505.000000       0.004700
      505.100000       0.004800
      505.200000       0.004900
      505.300000       0.004900
      505.400000       0.005000
      505.500000       0.005100
      505.600000       0.005100
      505.700000       0.005200
      505.800000       0.005300
      505.900000       0.005300
      506.000000       0.005400
      506.100000       0.005500
      506.200000       0.005600
      506.300000       0.005700
      506.400000       0.005800
      506.500000       0.005900
      506.600000       0.006000
      506.700000       0.006100
      506.800000       0.006200
      506.900000       0.006300
      507.000000       0.006400
      507.100000       0.006500
      507.200000       0.006600
      507.300000       0.006700
      507.400000       0.006800
      507.500000       0.006900
      507.600000       0.007000
      507.700000       0.007100
      507.800000       0.007200
      507.900000       0.007300
      508.000000       0.007400
      508.100000       0.007600
      508.200000       0.007800
      508.300000       0.007900
      508.400000       0.008100
      508.500000       0.008300
      508.600000       0.008400
      508.700000       0.008600
      508.800000       0.008800
      508.900000       0.008900
      509.000000       0.009100
      509.100000       0.009300
      509.200000       0.009400
      509.300000       0.009600
      509.400000       0.009800
      509.500000       0.009900
      509.600000       0.010100
      509.700000       0.010300
      509.800000       0.010500
      509.900000       0.010600
      510.000000       0.010800
      510.100000       0.010900
      510.200000       0.011100
      510.300000       0.011200
      510.400000       0.011300
      510.500000       0.011500
      510.600000       0.011700
      510.700000       0.012000
      510.800000       0.012300
      510.900000       0.012500
      511.000000       0.012800
      511.100000       0.013000
      511.200000       0.013200
      511.300000       0.013400
      511.400000       0.013600
      511.500000       0.013800
      511.600000       0.014100
      511.700000       0.014400
      511.800000       0.014600
      511.900000       0.014900
      512.000000       0.015200
      512.100000       0.015500
      512.200000       0.015900
      512.300000       0.016200
      512.400000       0.016500
      512.500000       0.016900
      512.600000       0.017200
      512.700000       0.017500
      512.800000       0.017900
      512.900000       0.018200
      513.000000       0.018500
      513.100000       0.018900
      513.200000       0.019200
      513.300000       0.019600
      513.400000       0.019900
      513.500000       0.020200
      513.600000       0.020600
      513.700000       0.020900
      513.800000       0.021200
      513.900000       0.021600
      514.000000       0.021900
      514.100000       0.022600
      514.200000       0.023300
      514.300000       0.023900
      514.400000       0.024600
      514.500000       0.025300
      514.600000       0.025600
      514.700000       0.026000
      514.800000       0.026300
      514.900000       0.026600
      515.000000       0.027000
      515.100000       0.027700
      515.200000       0.028300
      515.300000       0.029000
      515.400000       0.029700
      515.500000       0.030400
      515.600000       0.031000
      515.700000       0.031700
      515.800000       0.032400
      515.900000       0.033100
      516.000000       0.033700
      516.100000       0.034400
      516.200000       0.035100
      516.300000       0.035800
      516.400000       0.036400
      516.500000       0.037100
      516.600000       0.038100
      516.700000       0.039100
      516.800000       0.040100
      516.900000       0.041100
      517.000000       0.042200
      517.100000       0.042800
      517.200000       0.043500
      517.300000       0.044200
      517.400000       0.044900
      517.500000       0.045500
      517.600000       0.046500
      517.700000       0.047600
      517.800000       0.048600
      517.900000       0.049600
      518.000000       0.050600
      518.100000       0.051600
      518.200000       0.052600
      518.300000       0.053600
      518.400000       0.054600
      518.500000       0.055600
      518.600000       0.056700
      518.700000       0.057700
      518.800000       0.058700
      518.900000       0.059700
      519.000000       0.060700
      519.100000       0.061700
      519.200000       0.062700
      519.300000       0.063700
      519.400000       0.064800
      519.500000       0.065800
      519.600000       0.067500
      519.700000       0.069100
      519.800000       0.070800
      519.900000       0.072500
      520.000000       0.074200
      520.100000       0.076200
      520.200000       0.078200
      520.300000       0.080300
      520.400000       0.082300
      520.500000       0.084300
      520.600000       0.087000
      520.700000       0.089700
      520.800000       0.092400
      520.900000       0.095100
      521.000000       0.097800
      521.100000       0.100800
      521.200000       0.103900
      521.300000       0.106900
      521.400000       0.109900
      521.500000       0.113000
      521.600000       0.117400
      521.700000       0.121800
      521.800000       0.126100
      521.900000       0.130500
      522.000000       0.134900
      522.100000       0.139300
      522.200000       0.143700
      522.300000       0.148100
      522.400000       0.152400
      522.500000       0.156800
      522.600000       0.161600
      522.700000       0.166300
      522.800000       0.171000
      522.900000       0.175700
      523.000000       0.180400
      523.100000       0.185500
      523.200000       0.190600
      523.300000       0.195600
      523.400000       0.200700
      523.500000       0.205700
      523.600000       0.211500
      523.700000       0.217200
      523.800000       0.222900
      523.900000       0.228700
      524.000000       0.234400
      524.100000       0.244900
      524.200000       0.255300
      524.300000       0.265800
      524.400000       0.276200
      524.500000       0.286700
      524.600000       0.296500
      524.700000       0.306200
      524.800000       0.316000
      524.900000       0.325800
      525.000000       0.335600
      525.100000       0.347400
      525.200000       0.359200
      525.300000       0.371000
      525.400000       0.382800
      525.500000       0.394600
      525.600000       0.406700
      525.700000       0.418900
      525.800000       0.431000
      525.900000       0.443200
      526.000000       0.455300
      526.100000       0.473500
      526.200000       0.491700
      526.300000       0.509900
      526.400000       0.528200
      526.500000       0.546400
      526.600000       0.562900
      526.700000       0.579400
      526.800000       0.596000
      526.900000       0.612500
      527.000000       0.629000
      527.100000       0.646200
      527.200000       0.663400
      527.300000       0.680600
      527.400000       0.697800
      527.500000       0.715000
      527.600000       0.730900
      527.700000       0.746700
      527.800000       0.762600
      527.900000       0.778400
      528.000000       0.794300
      528.100000       0.810100
      528.200000       0.826000
      528.300000       0.841800
      528.400000       0.857700
      528.500000       0.873500
      528.600000       0.884000
      528.700000       0.894400
      528.800000       0.904900
      528.900000       0.915300
      529.000000       0.925800
      529.100000       0.934900
      529.200000       0.944000
      529.300000       0.953100
      529.400000       0.962200
      529.500000       0.971300
      529.600000       0.976100
      529.700000       0.980800
      529.800000       0.985500
      529.900000       0.990200
      530.000000       0.994900
      530.100000       0.996000
      530.200000       0.997000
      530.300000       0.998000
      530.400000       0.999000
      530.500000       1.000000
      530.600000       0.999000
      530.700000       0.998000
      530.800000       0.997000
      530.900000       0.996000
      531.000000       0.994900
      531.100000       0.992600
      531.200000       0.990200
      531.300000       0.987900
      531.400000       0.985500
      531.500000       0.983100
      531.600000       0.979100
      531.700000       0.975000
      531.800000       0.971000
      531.900000       0.966900
      532.000000       0.962900
      532.100000       0.959900
      532.200000       0.956800
      532.300000       0.953800
      532.400000       0.950800
      532.500000       0.947700
      532.600000       0.941000
      532.700000       0.934200
      532.800000       0.927500
      532.900000       0.920700
      533.000000       0.914000
      533.100000       0.910300
      533.200000       0.906600
      533.300000       0.902900
      533.400000       0.899200
      533.500000       0.895400
      533.600000       0.892100
      533.700000       0.888700
      533.800000       0.885300
      533.900000       0.882000
      534.000000       0.878600
      534.100000       0.875200
      534.200000       0.871800
      534.300000       0.868500
      534.400000       0.865100
      534.500000       0.861700
      534.600000       0.859700
      534.700000       0.857700
      534.800000       0.855600
      534.900000       0.853600
      535.000000       0.851600
      535.100000       0.851600
      535.200000       0.851600
      535.300000       0.851600
      535.400000       0.851600
      535.500000       0.851600
      535.600000       0.852300
      535.700000       0.853000
      535.800000       0.853600
      535.900000       0.854300
      536.000000       0.855000
      536.100000       0.856700
      536.200000       0.858300
      536.300000       0.860000
      536.400000       0.861700
      536.500000       0.863400
      536.600000       0.864800
      536.700000       0.866100
      536.800000       0.867500
      536.900000       0.868800
      537.000000       0.870200
      537.100000       0.870800
      537.200000       0.871500
      537.300000       0.872200
      537.400000       0.872800
      537.500000       0.873500
      537.600000       0.874500
      537.700000       0.875500
      537.800000       0.876600
      537.900000       0.877600
      538.000000       0.878600
      538.100000       0.878900
      538.200000       0.879300
      538.300000       0.879600
      538.400000       0.879900
      538.500000       0.880300
      538.600000       0.878600
      538.700000       0.876900
      538.800000       0.875200
      538.900000       0.873500
      539.000000       0.871800
      539.100000       0.868800
      539.200000       0.865800
      539.300000       0.862700
      539.400000       0.859700
      539.500000       0.856700
      539.600000       0.850600
      539.700000       0.844500
      539.800000       0.838400
      539.900000       0.832400
      540.000000       0.826300
      540.100000       0.816900
      540.200000       0.807400
      540.300000       0.798000
      540.400000       0.788500
      540.500000       0.779100
      540.600000       0.768600
      540.700000       0.758200
      540.800000       0.747700
      540.900000       0.737300
      541.000000       0.726800
      541.100000       0.714700
      541.200000       0.702500
      541.300000       0.690400
      541.400000       0.678200
      541.500000       0.666100
      541.600000       0.653000
      541.700000       0.639800
      541.800000       0.626600
      541.900000       0.613500
      542.000000       0.600300
      542.100000       0.586500
      542.200000       0.572700
      542.300000       0.558900
      542.400000       0.545000
      542.500000       0.531200
      542.600000       0.516700
      542.700000       0.502200
      542.800000       0.487700
      542.900000       0.473200
      543.000000       0.458700
      543.100000       0.446900
      543.200000       0.435100
      543.300000       0.423300
      543.400000       0.411500
      543.500000       0.399700
      543.600000       0.387900
      543.700000       0.376100
      543.800000       0.364200
      543.900000       0.352400
      544.000000       0.340600
      544.100000       0.329500
      544.200000       0.318400
      544.300000       0.307300
      544.400000       0.296100
      544.500000       0.285000
      544.600000       0.275900
      544.700000       0.266800
      544.800000       0.257700
      544.900000       0.248600
      545.000000       0.239500
      545.100000       0.232400
      545.200000       0.225300
      545.300000       0.218200
      545.400000       0.211100
      545.500000       0.204000
      545.600000       0.198700
      545.700000       0.193300
      545.800000       0.187900
      545.900000       0.182500
      546.000000       0.177100
      546.100000       0.171700
      546.200000       0.166300
      546.300000       0.160900
      546.400000       0.155500
      546.500000       0.150100
      546.600000       0.146400
      546.700000       0.142700
      546.800000       0.139000
      546.900000       0.135200
      547.000000       0.131500
      547.100000       0.127800
      547.200000       0.124100
      547.300000       0.120400
      547.400000       0.116700
      547.500000       0.113000
      547.600000       0.109600
      547.700000       0.106200
      547.800000       0.102900
      547.900000       0.099500
      548.000000       0.096100
      548.100000       0.093800
      548.200000       0.091400
      548.300000       0.089000
      548.400000       0.086700
      548.500000       0.084300
      548.600000       0.081600
      548.700000       0.078900
      548.800000       0.076200
      548.900000       0.073500
      549.000000       0.070800
      549.100000       0.068800
      549.200000       0.066800
      549.300000       0.064800
      549.400000       0.062700
      549.500000       0.060700
      549.600000       0.059400
      549.700000       0.058000
      549.800000       0.056700
      549.900000       0.055300
      550.000000       0.054000
      550.100000       0.053000
      550.200000       0.051900
      550.300000       0.050900
      550.400000       0.049900
      550.500000       0.048900
      550.600000       0.048200
      550.700000       0.047600
      550.800000       0.046900
      550.900000       0.046200
      551.000000       0.045500
      551.100000       0.044200
      551.200000       0.042800
      551.300000       0.041500
      551.400000       0.040100
      551.500000       0.038800
      551.600000       0.037800
      551.700000       0.036800
      551.800000       0.035800
      551.900000       0.034700
      552.000000       0.033700
      552.100000       0.033400
      552.200000       0.033100
      552.300000       0.032700
      552.400000       0.032400
      552.500000       0.032000
      552.600000       0.031400
      552.700000       0.030700
      552.800000       0.030000
      552.900000       0.029300
      553.000000       0.028700
      553.100000       0.028300
      553.200000       0.028000
      553.300000       0.027700
      553.400000       0.027300
      553.500000       0.027000
      553.600000       0.026300
      553.700000       0.025600
      553.800000       0.025000
      553.900000       0.024300
      554.000000       0.023600
      554.100000       0.023300
      554.200000       0.022900
      554.300000       0.022600
      554.400000       0.022300
      554.500000       0.021900
      554.600000       0.021600
      554.700000       0.021200
      554.800000       0.020900
      554.900000       0.020600
      555.000000       0.020200
      555.100000       0.019900
      555.200000       0.019600
      555.300000       0.019200
      555.400000       0.018900
      555.500000       0.018500
      555.600000       0.018200
      555.700000       0.017900
      555.800000       0.017500
      555.900000       0.017200
      556.000000       0.016900
      556.100000       0.016600
      556.200000       0.016300
      556.300000       0.016000
      556.400000       0.015600
      556.500000       0.015300
      556.600000       0.015200
      556.700000       0.015000
      556.800000       0.014800
      556.900000       0.014700
      557.000000       0.014500
      557.100000       0.014300
      557.200000       0.014000
      557.300000       0.013800
      557.400000       0.013600
      557.500000       0.013300
      557.600000       0.013200
      557.700000       0.013000
      557.800000       0.012800
      557.900000       0.012600
      558.000000       0.012500
      558.100000       0.012300
      558.200000       0.012100
      558.300000       0.012000
      558.400000       0.011800
      558.500000       0.011600
      558.600000       0.011500
      558.700000       0.011400
      558.800000       0.011200
      558.900000       0.011100
      559.000000       0.011000
      559.100000       0.010800
      559.200000       0.010700
      559.300000       0.010600
