33,   33, MVIRI VIS channel from srf_MET5_1995123_1995124_1801-Release_S10EL_10.dat
Number of data points:
806
Wavenumber (cm-1)   Filter response
     8350.730700       0.000000
     8357.710000       0.000000
     8364.701000       0.000000
     8371.703600       0.000001
     8378.718100       0.000004
     8385.744200       0.000009
     8392.782200       0.000016
     8399.832000       0.000026
     8406.893700       0.000040
     8413.967200       0.000059
     8421.052600       0.000081
     8428.150000       0.000109
     8435.259400       0.000142
     8442.380800       0.000181
     8449.514200       0.000227
     8456.659600       0.000279
     8463.817200       0.000339
     8470.986900       0.000406
     8478.168700       0.000480
     8485.362700       0.000563
     8492.569000       0.000655
     8499.787500       0.000755
     8507.018300       0.000865
     8514.261400       0.000984
     8521.516800       0.001113
     8528.784600       0.001252
     8536.064900       0.001401
     8543.357500       0.001561
     8550.662700       0.001732
     8557.980300       0.001914
     8565.310500       0.002108
     8572.653200       0.002313
     8580.008600       0.002529
     8587.376600       0.002758
     8594.757200       0.003000
     8602.150500       0.003253
     8609.556600       0.003519
     8616.975400       0.003799
     8624.407100       0.004091
     8631.851500       0.004396
     8639.308900       0.004715
     8646.779100       0.005048
     8654.262200       0.005394
     8661.758300       0.005754
     8669.267400       0.006129
     8676.789600       0.006517
     8684.324800       0.006921
     8691.873100       0.007338
     8699.434500       0.007770
     8707.009100       0.008218
     8714.596900       0.008680
     8722.198000       0.009157
     8729.812300       0.009650
     8737.439900       0.010158
     8745.080900       0.010681
     8752.735200       0.011220
     8760.403000       0.011776
     8768.084200       0.012347
     8775.778900       0.012934
     8783.487000       0.013537
     8791.208800       0.014156
     8798.944100       0.014792
     8806.693100       0.015444
     8814.455700       0.016113
     8822.232000       0.016799
     8830.022100       0.017502
     8837.825900       0.018222
     8845.643500       0.018958
     8853.475000       0.019712
     8861.320300       0.020484
     8869.179600       0.021272
     8877.052800       0.022078
     8884.940000       0.022902
     8892.841300       0.023744
     8900.756600       0.024603
     8908.686000       0.025481
     8916.629500       0.026376
     8924.587200       0.027290
     8932.559200       0.028222
     8940.545400       0.029172
     8948.545900       0.030141
     8956.560700       0.031128
     8964.589900       0.032134
     8972.633500       0.033159
     8980.691500       0.034203
     8988.764000       0.035266
     8996.851100       0.036347
     9004.952700       0.037448
     9013.068900       0.038569
     9021.199800       0.039709
     9029.345400       0.040868
     9037.505600       0.042047
     9045.680700       0.043245
     9053.870500       0.044463
     9062.075200       0.045702
     9070.294800       0.046960
     9078.529300       0.048238
     9086.778700       0.049537
     9095.043200       0.050856
     9103.322700       0.052195
     9111.617300       0.053554
     9119.927000       0.054935
     9128.251900       0.056335
     9136.592100       0.057757
     9144.947400       0.059200
     9153.318100       0.060663
     9161.704100       0.062148
     9170.105500       0.063653
     9178.522300       0.065180
     9186.954500       0.066728
     9195.402300       0.068298
     9203.865600       0.069889
     9212.344500       0.071502
     9220.839100       0.073136
     9229.349300       0.074792
     9237.875300       0.076470
     9246.417000       0.078169
     9254.974500       0.079891
     9263.547900       0.081635
     9272.137200       0.083401
     9280.742500       0.085189
     9289.363700       0.086999
     9298.000900       0.088832
     9306.654300       0.090687
     9315.323700       0.092565
     9324.009300       0.094465
     9332.711200       0.096388
     9341.429200       0.098334
     9350.163600       0.100302
     9358.914400       0.102293
     9367.681500       0.104307
     9376.465100       0.106344
     9385.265100       0.108404
     9394.081700       0.110487
     9402.914900       0.112593
     9411.764700       0.114722
     9420.631200       0.116875
     9429.514400       0.119050
     9438.414300       0.121249
     9447.331100       0.123471
     9456.264800       0.125717
     9465.215300       0.127986
     9474.182900       0.130278
     9483.167400       0.132594
     9492.169000       0.134933
     9501.187600       0.137295
     9510.223500       0.139681
     9519.276500       0.142091
     9528.346800       0.144524
     9537.434400       0.146981
     9546.539400       0.149461
     9555.661700       0.151965
     9564.801500       0.154492
     9573.958800       0.157043
     9583.133700       0.159617
     9592.326100       0.162215
     9601.536200       0.164836
     9610.764100       0.167481
     9620.009600       0.170149
     9629.273000       0.172841
     9638.554200       0.175556
     9647.853400       0.178295
     9657.170400       0.181056
     9666.505600       0.183842
     9675.858700       0.186650
     9685.230000       0.189482
     9694.619500       0.192337
     9704.027200       0.195215
     9713.453100       0.198116
     9722.897400       0.201041
     9732.360100       0.203988
     9741.841200       0.206958
     9751.340800       0.209951
     9760.859000       0.212967
     9770.395700       0.216005
     9779.951100       0.219066
     9789.525200       0.222150
     9799.118100       0.225256
     9808.729800       0.228384
     9818.360300       0.231534
     9828.009800       0.234707
     9837.678300       0.237901
     9847.365800       0.241118
     9857.072400       0.244356
     9866.798200       0.247616
     9876.543200       0.250897
     9886.307500       0.254200
     9896.091000       0.257525
     9905.894000       0.260870
     9915.716400       0.264236
     9925.558300       0.267624
     9935.419800       0.271032
     9945.300800       0.274460
     9955.201600       0.277909
     9965.122100       0.281379
     9975.062300       0.284868
     9985.022500       0.288377
     9995.002500       0.291906
    10005.002500       0.295455
    10015.022500       0.299023
    10025.062700       0.302610
    10035.122900       0.306216
    10045.203400       0.309841
    10055.304200       0.313485
    10065.425300       0.317147
    10075.566800       0.320827
    10085.728700       0.324525
    10095.911200       0.328241
    10106.114200       0.331975
    10116.337900       0.335726
    10126.582300       0.339494
    10136.847400       0.343279
    10147.133400       0.347080
    10157.440300       0.350898
    10167.768200       0.354732
    10178.117000       0.358583
    10188.487000       0.362448
    10198.878100       0.366330
    10209.290500       0.370226
    10219.724100       0.374137
    10230.179000       0.378063
    10240.655400       0.382004
    10251.153300       0.385958
    10261.672700       0.389926
    10272.213700       0.393908
    10282.776300       0.397903
    10293.360800       0.401911
    10303.967000       0.405931
    10314.595200       0.409964
    10325.245200       0.414009
    10335.917300       0.418066
    10346.611500       0.422134
    10357.327800       0.426214
    10368.066400       0.430304
    10378.827200       0.434405
    10389.610400       0.438516
    10400.416000       0.442637
    10411.244100       0.446767
    10422.094800       0.450907
    10432.968200       0.455055
    10443.864200       0.459213
    10454.783100       0.463378
    10465.724800       0.467551
    10476.689400       0.471732
    10487.677000       0.475920
    10498.687700       0.480115
    10509.721500       0.484316
    10520.778500       0.488524
    10531.858900       0.492737
    10542.962600       0.496956
    10554.089700       0.501180
    10565.240400       0.505409
    10576.414600       0.509642
    10587.612500       0.513879
    10598.834100       0.518120
    10610.079600       0.522363
    10621.348900       0.526610
    10632.642200       0.530859
    10643.959600       0.535111
    10655.301000       0.539364
    10666.666700       0.543618
    10678.056600       0.547874
    10689.470900       0.552130
    10700.909600       0.556386
    10712.372800       0.560642
    10723.860600       0.564898
    10735.373100       0.569152
    10746.910300       0.573405
    10758.472300       0.577657
    10770.059200       0.581906
    10781.671200       0.586153
    10793.308100       0.590397
    10804.970300       0.594638
    10816.657700       0.598875
    10828.370300       0.603107
    10840.108400       0.607336
    10851.871900       0.611559
    10863.661100       0.615777
    10875.475800       0.619989
    10887.316300       0.624196
    10899.182600       0.628395
    10911.074700       0.632589
    10922.992900       0.636774
    10934.937100       0.640952
    10946.907500       0.645122
    10958.904100       0.649283
    10970.927000       0.653435
    10982.976400       0.657578
    10995.052200       0.661712
    11007.154700       0.665835
    11019.283700       0.669948
    11031.439600       0.674050
    11043.622300       0.678140
    11055.832000       0.682219
    11068.068600       0.686286
    11080.332400       0.690340
    11092.623400       0.694382
    11104.941700       0.698410
    11117.287400       0.702424
    11129.660500       0.706425
    11142.061300       0.710411
    11154.489700       0.714382
    11166.945800       0.718338
    11179.429800       0.722278
    11191.941800       0.726203
    11204.481800       0.730111
    11217.049900       0.734002
    11229.646300       0.737876
    11242.270900       0.741733
    11254.924000       0.745572
    11267.605600       0.749393
    11280.315800       0.753194
    11293.054800       0.756977
    11305.822500       0.760741
    11318.619100       0.764485
    11331.444800       0.768209
    11344.299500       0.771913
    11357.183400       0.775595
    11370.096600       0.779257
    11383.039300       0.782897
    11396.011400       0.786515
    11409.013100       0.790112
    11422.044500       0.793685
    11435.105800       0.797236
    11448.196900       0.800764
    11461.318100       0.804268
    11474.469300       0.807748
    11487.650800       0.811204
    11500.862600       0.814636
    11514.104800       0.818043
    11527.377500       0.821425
    11540.680900       0.824781
    11554.015000       0.828112
    11567.380000       0.831416
    11580.775900       0.834695
    11594.202900       0.837946
    11607.661100       0.841171
    11621.150500       0.844369
    11634.671300       0.847539
    11648.223600       0.850681
    11661.807600       0.853795
    11675.423200       0.856881
    11689.070700       0.859939
    11702.750100       0.862967
    11716.461600       0.865967
    11730.205300       0.868937
    11743.981200       0.871878
    11757.789500       0.874788
    11771.630400       0.877669
    11785.503800       0.880519
    11799.410000       0.883339
    11813.349100       0.886128
    11827.321100       0.888887
    11841.326200       0.891614
    11855.364600       0.894309
    11869.436200       0.896973
    11883.541300       0.899605
    11897.680000       0.902205
    11911.852300       0.904773
    11926.058400       0.907309
    11940.298500       0.909812
    11954.572600       0.912283
    11968.880900       0.914720
    11983.223500       0.917125
    11997.600500       0.919496
    12012.012000       0.921834
    12026.458200       0.924138
    12040.939200       0.926409
    12055.455100       0.928646
    12070.006000       0.930849
    12084.592100       0.933018
    12099.213600       0.935153
    12113.870400       0.937254
    12128.562800       0.939320
    12143.290800       0.941353
    12158.054700       0.943350
    12172.854500       0.945313
    12187.690400       0.947241
    12202.562500       0.949134
    12217.471000       0.950992
    12232.415900       0.952816
    12247.397400       0.954604
    12262.415700       0.956358
    12277.470800       0.958076
    12292.563000       0.959759
    12307.692300       0.961407
    12322.858900       0.963020
    12338.062900       0.964598
    12353.304500       0.966140
    12368.583800       0.967647
    12383.900900       0.969119
    12399.256000       0.970556
    12414.649300       0.971957
    12430.080800       0.973323
    12445.550700       0.974654
    12461.059200       0.975950
    12476.606400       0.977211
    12492.192400       0.978436
    12507.817400       0.979627
    12523.481500       0.980782
    12539.185000       0.981903
    12554.927800       0.982988
    12570.710200       0.984039
    12586.532400       0.985055
    12602.394500       0.986037
    12618.296500       0.986983
    12634.238800       0.987896
    12650.221400       0.988774
    12666.244500       0.989617
    12682.308200       0.990427
    12698.412700       0.991202
    12714.558200       0.991944
    12730.744700       0.992651
    12746.972600       0.993325
    12763.241900       0.993966
    12779.552700       0.994573
    12795.905300       0.995147
    12812.299800       0.995687
    12828.736400       0.996195
    12845.215200       0.996670
    12861.736300       0.997113
    12878.300100       0.997523
    12894.906500       0.997901
    12911.555800       0.998247
    12928.248200       0.998561
    12944.983800       0.998844
    12961.762800       0.999095
    12978.585300       0.999315
    12995.451600       0.999504
    13012.361700       0.999662
    13029.316000       0.999790
    13046.314400       0.999887
    13063.357300       0.999954
    13080.444700       0.999992
    13097.576900       1.000000
    13114.754100       0.999979
    13131.976400       0.999929
    13149.243900       0.999850
    13166.556900       0.999742
    13183.915600       0.999606
    13201.320100       0.999443
    13218.770700       0.999251
    13236.267400       0.999033
    13253.810500       0.998787
    13271.400100       0.998515
    13289.036500       0.998216
    13306.719900       0.997891
    13324.450400       0.997540
    13342.228200       0.997163
    13360.053400       0.996762
    13377.926400       0.996335
    13395.847300       0.995884
    13413.816200       0.995409
    13431.833400       0.994910
    13449.899100       0.994387
    13468.013500       0.993841
    13486.176700       0.993272
    13504.388900       0.992681
    13522.650400       0.992068
    13540.961400       0.991432
    13559.322000       0.990776
    13577.732500       0.990098
    13596.193100       0.989400
    13614.703900       0.988681
    13633.265200       0.987943
    13651.877100       0.987184
    13670.540000       0.986407
    13689.253900       0.985611
    13708.019200       0.984796
    13726.836000       0.983964
    13745.704500       0.983113
    13764.624900       0.982246
    13783.597500       0.981362
    13802.622500       0.980461
    13821.700100       0.979544
    13840.830400       0.978611
    13860.013900       0.977663
    13879.250500       0.976701
    13898.540700       0.975724
    13917.884500       0.974733
    13937.282200       0.973728
    13956.734100       0.972710
    13976.240400       0.971679
    13995.801300       0.970636
    14015.417000       0.969581
    14035.087700       0.968514
    14054.813800       0.967437
    14074.595400       0.966348
    14094.432700       0.965249
    14114.326000       0.964140
    14134.275600       0.963022
    14154.281700       0.961895
    14174.344400       0.960759
    14194.464200       0.959615
    14214.641100       0.958463
    14234.875400       0.957304
    14255.167500       0.956138
    14275.517500       0.954965
    14295.925700       0.953786
    14316.392300       0.952601
    14336.917600       0.951411
    14357.501800       0.950217
    14378.145200       0.949017
    14398.848100       0.947814
    14419.610700       0.946607
    14440.433200       0.945397
    14461.316000       0.944184
    14482.259200       0.942969
    14503.263200       0.941751
    14524.328200       0.940532
    14545.454500       0.939312
    14566.642400       0.938091
    14587.892000       0.936870
    14609.203800       0.935648
    14630.577900       0.934427
    14652.014700       0.933207
    14673.514300       0.931988
    14695.077100       0.930771
    14716.703500       0.929555
    14738.393500       0.928342
    14760.147600       0.927132
    14781.966000       0.925924
    14803.849000       0.924720
    14825.796900       0.923520
    14847.809900       0.922324
    14869.888500       0.921133
    14892.032800       0.919946
    14914.243100       0.918765
    14936.519800       0.917589
    14958.863100       0.916419
    14981.273400       0.915255
    15003.750900       0.914098
    15026.296000       0.912948
    15048.909000       0.911806
    15071.590100       0.910670
    15094.339600       0.909543
    15117.158000       0.908424
    15140.045400       0.907313
    15163.002300       0.906212
    15186.028900       0.905119
    15209.125500       0.904036
    15232.292500       0.902962
    15255.530100       0.901898
    15278.838800       0.900845
    15302.218800       0.899802
    15325.670500       0.898770
    15349.194200       0.897749
    15372.790200       0.896739
    15396.458800       0.895740
    15420.200500       0.894754
    15444.015400       0.893779
    15467.904100       0.892816
    15491.866800       0.891866
    15515.903800       0.890929
    15540.015500       0.890004
    15564.202300       0.889092
    15588.464500       0.888193
    15612.802500       0.887308
    15637.216600       0.886437
    15661.707100       0.885578
    15686.274500       0.884734
    15710.919100       0.883904
    15735.641200       0.883088
    15760.441300       0.882286
    15785.319700       0.881499
    15810.276700       0.880726
    15835.312700       0.879968
    15860.428200       0.879224
    15885.623500       0.878496
    15910.899000       0.877782
    15936.255000       0.877083
    15961.691900       0.876399
    15987.210200       0.875731
    16012.810200       0.875077
    16038.492400       0.874438
    16064.257000       0.873815
    16090.104600       0.873207
    16116.035500       0.872615
    16142.050000       0.872037
    16168.148700       0.871475
    16194.332000       0.870928
    16220.600200       0.870396
    16246.953700       0.869879
    16273.393000       0.869377
    16299.918500       0.868891
    16326.530600       0.868419
    16353.229800       0.867962
    16380.016400       0.867520
    16406.890900       0.867093
    16433.853700       0.866681
    16460.905300       0.866283
    16488.046200       0.865899
    16515.276600       0.865529
    16542.597200       0.865174
    16570.008300       0.864833
    16597.510400       0.864505
    16625.103900       0.864191
    16652.789300       0.863891
    16680.567100       0.863603
    16708.437800       0.863329
    16736.401700       0.863068
    16764.459300       0.862819
    16792.611300       0.862582
    16820.857900       0.862357
    16849.199700       0.862145
    16877.637100       0.861943
    16906.170800       0.861754
    16934.801000       0.861575
    16963.528400       0.861406
    16992.353400       0.861248
    17021.276600       0.861101
    17050.298400       0.860962
    17079.419300       0.860834
    17108.639900       0.860714
    17137.960600       0.860602
    17167.382000       0.860500
    17196.904600       0.860404
    17226.528900       0.860317
    17256.255400       0.860236
    17286.084700       0.860162
