4,    channel 4 SRF extracted from FY-3G_MERSI-RM.zip(FY3G_MERSI-RM_SRF_CH04.txt) (received Nov 2023)
Number of data points:
970
Wavenumber (cm-1)   Filter response
     6836.198500       0.001421
     6837.131900       0.001421
     6838.066900       0.001428
     6839.001800       0.001441
     6839.935900       0.001447
     6840.871300       0.001447
     6841.826500       0.001454
     6842.762000       0.001486
     6843.698500       0.001538
     6844.634900       0.001602
     6845.571100       0.001680
     6846.508500       0.001757
     6847.445600       0.001802
     6848.383000       0.001835
     6849.321200       0.001874
     6850.259600       0.001919
     6851.197300       0.001957
     6852.136600       0.001996
     6853.075300       0.002041
     6854.015200       0.002074
     6854.954900       0.002067
     6855.894400       0.002048
     6856.835000       0.002041
     6857.775000       0.002016
     6858.715700       0.001964
     6859.657200       0.001938
     6860.598400       0.001958
     6861.539900       0.001983
     6862.482100       0.002009
     6863.423600       0.002067
     6864.366400       0.002138
     6865.309800       0.002177
     6866.253100       0.002209
     6867.196100       0.002261
     6868.139900       0.002300
     6869.083900       0.002319
     6870.028700       0.002332
     6870.953900       0.002313
     6871.898700       0.002281
     6872.844200       0.002281
     6873.789500       0.002293
     6874.734600       0.002319
     6875.680500       0.002403
     6876.627100       0.002507
     6877.573900       0.002558
     6878.521000       0.002597
     6879.467900       0.002655
     6880.414500       0.002688
     6881.363800       0.002694
     6882.311500       0.002700
     6883.259000       0.002675
     6884.208100       0.002610
     6885.157000       0.002539
     6886.106200       0.002468
     6887.055700       0.002429
     6888.005400       0.002455
     6888.955800       0.002507
     6889.906100       0.002565
     6890.856600       0.002642
     6891.808700       0.002713
     6892.740300       0.002746
     6893.691100       0.002759
     6894.644500       0.002759
     6895.595900       0.002752
     6896.548400       0.002765
     6897.501200       0.002797
     6898.454300       0.002836
     6899.407600       0.002894
     6900.361200       0.002959
     6901.314600       0.003004
     6902.269700       0.003056
     6903.224000       0.003120
     6904.178700       0.003172
     6905.115000       0.003198
     6906.070200       0.003211
     6907.026100       0.003211
     6907.981800       0.003204
     6908.938700       0.003217
     6909.894500       0.003282
     6910.851000       0.003366
     6911.808700       0.003430
     6912.766200       0.003502
     6913.724500       0.003573
     6914.683000       0.003618
     6915.621700       0.003676
     6916.580700       0.003773
     6917.539100       0.003870
     6918.498200       0.003941
     6919.458500       0.003967
     6920.417600       0.003947
     6921.378000       0.003902
     6922.339100       0.003837
     6923.299100       0.003792
     6924.240600       0.003818
     6925.203000       0.003883
     6926.163700       0.003941
     6927.126100       0.004012
     6928.088900       0.004083
     6929.050900       0.004122
     6930.014100       0.004141
     6930.977200       0.004181
     6931.920800       0.004238
     6932.884800       0.004290
     6933.849600       0.004329
     6934.813700       0.004380
     6935.778100       0.004451
     6936.743700       0.004516
     6937.708100       0.004601
     6938.655000       0.004729
     6939.620400       0.004878
     6940.587100       0.005007
     6941.552600       0.005110
     6942.519800       0.005175
     6943.486800       0.005201
     6944.454600       0.005207
     6945.402800       0.005220
     6946.370100       0.005272
     6947.338700       0.005369
     6948.308500       0.005491
     6949.276100       0.005608
     6950.245500       0.005705
     6951.194800       0.005782
     6952.164700       0.005847
     6953.135400       0.005892
     6954.105800       0.005937
     6955.076500       0.006015
     6956.047500       0.006099
     6956.998900       0.006176
     6957.970900       0.006267
     6958.942700       0.006364
     6959.914800       0.006435
     6960.887600       0.006493
     6961.840800       0.006538
     6962.814200       0.006570
     6963.787800       0.006609
     6964.761200       0.006635
     6965.735400       0.006648
     6966.690000       0.006673
     6967.664200       0.006699
     6968.639200       0.006712
     6969.614400       0.006764
     6970.589500       0.006867
     6971.546300       0.007002
     6972.523400       0.007178
     6973.498800       0.007384
     6974.475400       0.007591
     6975.453200       0.007785
     6976.411400       0.007958
     6977.388900       0.008108
     6978.366600       0.008224
     6979.344600       0.008302
     6980.323300       0.008354
     6981.282800       0.008399
     6982.262100       0.008457
     6983.241200       0.008573
     6984.221500       0.008754
     6985.201600       0.008950
     6986.162500       0.009122
     6987.142700       0.009264
     6988.124600       0.009355
     6989.105800       0.009426
     6990.067300       0.009515
     6991.049500       0.009639
     6992.031500       0.009813
     6993.013400       0.010014
     6993.977300       0.010180
     6994.960200       0.010330
     6995.943800       0.010479
     6996.928200       0.010608
     6997.892300       0.010730
     6998.876800       0.010886
     6999.860500       0.011067
     7000.846000       0.011267
     7001.811600       0.011478
     7002.797700       0.011687
     7003.783500       0.011900
     7004.769100       0.012113
     7005.736400       0.012305
     7006.723000       0.012488
     7007.710400       0.012682
     7008.697700       0.012850
     7009.666500       0.012997
     7010.654200       0.013160
     7011.642800       0.013328
     7012.631600       0.013504
     7013.600000       0.013702
     7014.589900       0.013916
     7015.579500       0.014123
     7016.550200       0.014321
     7017.540400       0.014517
     7018.530400       0.014730
     7019.522100       0.014971
     7020.493000       0.015214
     7021.483800       0.015492
     7022.476800       0.015809
     7023.449000       0.016103
     7024.440100       0.016397
     7025.434500       0.016720
     7026.426700       0.017033
     7027.400500       0.017301
     7028.393200       0.017591
     7029.388300       0.017876
     7030.361800       0.018125
     7031.356900       0.018393
     7032.352300       0.018697
     7033.347400       0.019009
     7034.322600       0.019336
     7035.318800       0.019692
     7036.315300       0.020057
     7037.291700       0.020415
     7038.288300       0.020764
     7039.286100       0.021094
     7040.262900       0.021432
     7041.260800       0.021798
     7042.259000       0.022127
     7043.237600       0.022466
     7044.236300       0.022864
     7045.235300       0.023251
     7046.214300       0.023615
     7047.213900       0.024059
     7048.213700       0.024550
     7049.195000       0.025036
     7050.194900       0.025558
     7051.195600       0.026107
     7052.177700       0.026625
     7053.179000       0.027128
     7054.180100       0.027644
     7055.163000       0.028162
     7056.165100       0.028697
     7057.167500       0.029272
     7058.150300       0.029886
     7059.154700       0.030519
     7060.158500       0.031185
     7061.141100       0.031894
     7062.146400       0.032619
     7063.151000       0.033323
     7064.135900       0.034039
     7065.141100       0.034776
     7066.147100       0.035494
     7067.133300       0.036217
     7068.138800       0.036980
     7069.146600       0.037737
     7070.133200       0.038466
     7071.140100       0.039241
     7072.127300       0.040046
     7073.136200       0.040908
     7074.144000       0.041851
     7075.131000       0.042860
     7076.140800       0.043918
     7077.149300       0.044988
     7078.138700       0.046030
     7079.149300       0.047065
     7080.139200       0.048081
     7081.149000       0.049125
     7082.160500       0.050164
     7083.151200       0.051187
     7084.162300       0.052233
     7085.173200       0.053342
     7086.164800       0.054493
     7087.177700       0.055727
     7088.169900       0.057044
     7089.182400       0.058460
     7090.196700       0.059877
     7091.189700       0.061277
     7092.203600       0.062717
     7093.197200       0.064137
     7094.212600       0.065580
     7095.227400       0.067023
     7096.221800       0.068416
     7097.237600       0.069899
     7098.232600       0.071465
     7099.249000       0.073190
     7100.266200       0.075130
     7101.262500       0.077197
     7102.279300       0.079369
     7103.276200       0.081504
     7104.295000       0.083671
     7105.292000       0.085811
     7106.311400       0.087974
     7107.329100       0.090146
     7108.327400       0.092377
     7109.347700       0.094745
     7110.347100       0.097168
     7111.367500       0.099841
     7112.366900       0.102692
     7113.387900       0.105675
     7114.407600       0.108687
     7115.409500       0.111746
     7116.431300       0.114898
     7117.432700       0.117845
     7118.454600       0.120822
     7119.456500       0.123809
     7120.479500       0.126722
     7121.503300       0.129543
     7122.506100       0.132478
     7123.530500       0.135631
     7124.533900       0.138842
     7125.558800       0.142415
     7126.563300       0.146187
     7127.588300       0.150080
     7128.594400       0.153959
     7129.619500       0.158043
     7130.625600       0.162137
     7131.651300       0.166425
     7132.657400       0.170875
     7133.685800       0.175687
     7134.712900       0.180664
     7135.720900       0.185767
     7136.748100       0.191148
     7137.756200       0.196546
     7138.784500       0.202249
     7139.793700       0.208054
     7140.822500       0.214034
     7141.831800       0.219894
     7142.862200       0.225762
     7143.872100       0.231363
     7144.903100       0.236764
     7145.913600       0.241892
     7146.945200       0.247233
     7147.955200       0.252732
     7148.986900       0.258675
     7149.999000       0.264919
     7151.032300       0.271746
     7152.043900       0.278440
     7153.077900       0.285138
     7154.091100       0.291838
     7155.124600       0.298854
     7156.138900       0.305817
     7157.173000       0.313265
     7158.187400       0.320884
     7159.223100       0.328785
     7160.237600       0.336561
     7161.273400       0.344675
     7162.290000       0.352964
     7163.326300       0.361749
     7164.342500       0.370577
     7165.379500       0.379966
     7166.396700       0.389092
     7167.434800       0.397996
     7168.452100       0.406478
     7169.491300       0.414615
     7170.509200       0.422221
     7171.549500       0.430627
     7172.567500       0.439388
     7173.607300       0.448457
     7174.626400       0.458130
     7175.668400       0.468709
     7176.687500       0.478665
     7177.729600       0.488227
     7178.750400       0.497855
     7179.792000       0.507920
     7180.813400       0.517482
     7181.835500       0.527260
     7182.878600       0.538333
     7183.900300       0.549797
     7184.944500       0.561438
     7185.967800       0.573228
     7187.012100       0.586012
     7188.035500       0.597863
     7189.080400       0.609101
     7190.105400       0.620042
     7191.150900       0.630586
     7192.176500       0.639741
     7193.201800       0.648348
     7194.247700       0.657006
     7195.274200       0.664979
     7196.321200       0.673284
     7197.347200       0.681450
     7198.395900       0.689820
     7199.423500       0.697987
     7200.451500       0.705836
     7201.500000       0.713412
     7202.528000       0.720966
     7203.577600       0.728898
     7204.607800       0.736488
     7205.657000       0.744179
     7206.687300       0.751723
     7207.716300       0.759339
     7208.768500       0.767243
     7209.799100       0.775437
     7210.851400       0.784763
     7211.881500       0.793977
     7212.934400       0.802859
     7213.967300       0.811202
     7214.998900       0.818415
     7216.052700       0.824373
     7217.086400       0.829620
     7218.140300       0.834389
     7219.173600       0.838011
     7220.207700       0.841638
     7221.263000       0.845096
     7222.297300       0.847695
     7223.353200       0.850503
     7224.389000       0.853677
     7225.424700       0.857089
     7226.482500       0.861727
     7227.518200       0.867869
     7228.575700       0.875311
     7229.613500       0.883185
     7230.651200       0.890870
     7231.709000       0.897446
     7232.746800       0.902583
     7233.807300       0.906636
     7234.845100       0.909839
     7235.884300       0.912892
     7236.944100       0.916464
     7237.983900       0.920357
     7239.024000       0.924266
     7240.085300       0.927950
     7241.125900       0.930964
     7242.188400       0.933365
     7243.229700       0.934776
     7244.271200       0.935636
     7245.334100       0.936400
     7246.376800       0.937916
     7247.419300       0.940176
     7248.483100       0.943683
     7249.526700       0.948902
     7250.569500       0.955753
     7251.635300       0.963571
     7252.679800       0.971751
     7253.745700       0.979419
     7254.790800       0.984655
     7255.835700       0.987687
     7256.902500       0.988801
     7257.949000       0.988254
     7258.995400       0.987335
     7260.062600       0.987098
     7261.109500       0.987247
     7262.157800       0.987732
     7263.225900       0.988720
     7264.274300       0.989877
     7265.323500       0.991033
     7266.392600       0.992297
     7267.442400       0.993178
     7268.492500       0.993279
     7269.562500       0.992350
     7270.612200       0.990621
     7271.663200       0.988326
     7272.735200       0.985999
     7273.786300       0.984165
     7274.837200       0.983123
     7275.911200       0.983084
     7276.962700       0.984372
     7278.014600       0.987040
     7279.088900       0.990738
     7280.143000       0.994753
     7281.195700       0.998157
     7282.271000       0.999810
     7283.324400       0.998807
     7284.378600       0.995361
     7285.434100       0.989821
     7286.510700       0.983111
     7287.566300       0.977243
     7288.621200       0.973061
     7289.699300       0.970456
     7290.755900       0.969125
     7291.812700       0.967928
     7292.890700       0.964929
     7293.948700       0.959140
     7295.006500       0.950593
     7296.064600       0.939834
     7297.144800       0.927614
     7298.203600       0.916085
     7299.263100       0.905953
     7300.343300       0.897011
     7301.404500       0.888821
     7302.463400       0.880325
     7303.524800       0.870383
     7304.607800       0.857975
     7305.669200       0.844226
     7306.730900       0.830042
     7307.813800       0.815736
     7308.876700       0.802554
     7309.938800       0.790775
     7311.002400       0.779602
     7312.087000       0.767853
     7313.150600       0.756011
     7314.214600       0.743607
     7315.278300       0.730357
     7316.364700       0.716423
     7317.430700       0.702805
     7318.495800       0.689146
     7319.582700       0.675275
     7320.649600       0.662161
     7321.715100       0.649521
     7322.782100       0.636932
     7323.870800       0.623723
     7324.938400       0.610329
     7326.006300       0.596523
     7327.075000       0.582325
     7328.163900       0.567682
     7329.232700       0.553753
     7330.302900       0.540454
     7331.371800       0.527596
     7332.463700       0.514904
     7333.533700       0.503091
     7334.605200       0.491928
     7335.675900       0.481385
     7336.746400       0.471366
     7337.840300       0.461588
     7338.911400       0.452437
     7339.983900       0.443607
     7341.057800       0.434980
     7342.152500       0.426422
     7343.226000       0.418107
     7344.299200       0.409799
     7345.372200       0.401288
     7346.469800       0.392184
     7347.544000       0.383060
     7348.619500       0.373883
     7349.694300       0.364461
     7350.770500       0.354672
     7351.868100       0.344716
     7352.946000       0.335283
     7354.022700       0.326573
     7355.098500       0.318825
     7356.176300       0.312113
     7357.276000       0.306191
     7358.355000       0.300874
     7359.433700       0.295803
     7360.512200       0.290696
     7361.591000       0.285274
     7362.693500       0.279286
     7363.773500       0.272896
     7364.853300       0.266067
     7365.933900       0.258728
     7367.014300       0.250828
     7368.119000       0.242480
     7369.200600       0.234440
     7370.283000       0.226900
     7371.364200       0.220002
     7372.447800       0.213929
     7373.553500       0.208754
     7374.637300       0.204463
     7375.720800       0.200744
     7376.804600       0.197379
     7377.889300       0.194022
     7378.973800       0.190327
     7380.082000       0.186022
     7381.167600       0.181207
     7382.253600       0.175805
     7383.338800       0.169985
     7384.426000       0.164070
     7385.535300       0.158376
     7386.622000       0.153430
     7387.711200       0.149353
     7388.798000       0.146222
     7389.886800       0.143837
     7390.976400       0.141940
     7392.064800       0.140279
     7393.177500       0.138610
     7394.266400       0.136853
     7395.356800       0.134914
     7396.447000       0.132766
     7397.538000       0.130417
     7398.629900       0.127878
     7399.743500       0.125051
     7400.834900       0.122105
     7401.927800       0.119171
     7403.021000       0.116370
     7404.113900       0.113697
     7405.206700       0.111240
     7406.301900       0.109014
     7407.417300       0.106795
     7408.512100       0.104579
     7409.607200       0.102331
     7410.702200       0.100054
     7411.797400       0.097734
     7412.892900       0.095433
     7413.989400       0.093241
     7415.086700       0.091209
     7416.206300       0.089297
     7417.302600       0.087536
     7418.400400       0.085837
     7419.498400       0.084155
     7420.597900       0.082390
     7421.696100       0.080504
     7422.795700       0.078591
     7423.895600       0.076723
     7425.017900       0.074903
     7426.117900       0.073245
     7427.217700       0.071755
     7428.319000       0.070425
     7429.420500       0.069223
     7430.521800       0.068130
     7431.623500       0.067128
     7432.726000       0.066146
     7433.829400       0.065093
     7434.955300       0.063927
     7436.058300       0.062699
     7437.162100       0.061380
     7438.266800       0.060010
     7439.370800       0.058668
     7440.476200       0.057376
     7441.582500       0.056121
     7442.687400       0.054932
     7443.793200       0.053827
     7444.899400       0.052767
     7446.006400       0.051764
     7447.135900       0.050789
     7448.244200       0.049799
     7449.351100       0.048766
     7450.458900       0.047706
     7451.568200       0.046613
     7452.677200       0.045509
     7453.786000       0.044461
     7454.895600       0.043476
     7456.005700       0.042551
     7457.115400       0.041698
     7458.227800       0.040883
     7459.337700       0.040082
     7460.449000       0.039294
     7461.584000       0.038490
     7462.695500       0.037689
     7463.808900       0.036894
     7464.921000       0.036119
     7466.035100       0.035377
     7467.149600       0.034705
