6,   from EPIC Filters Original Data.xlsx (col 16) Deep Space Climate Observatory (December 2019)
Number of data points:
401
Wavenumber (cm-1)   Filter response
    18017.693400       0.278980
    18018.342700       0.281170
    18018.992000       0.289290
    18019.641400       0.294190
    18020.290800       0.294670
    18020.940300       0.300430
    18021.589900       0.304000
    18022.239400       0.308070
    18022.889100       0.314460
    18023.538700       0.317770
    18024.188500       0.321460
    18024.838200       0.328850
    18025.488000       0.334490
    18026.137900       0.336500
    18026.787800       0.343130
    18027.437800       0.348690
    18028.087800       0.357270
    18028.737800       0.363040
    18029.387900       0.365990
    18030.038000       0.371080
    18030.688200       0.378480
    18031.338500       0.383040
    18031.988700       0.394240
    18032.639100       0.400290
    18033.289500       0.408070
    18033.939900       0.414460
    18034.590300       0.423240
    18035.240900       0.431120
    18035.891400       0.443150
    18036.542000       0.449320
    18037.192700       0.455810
    18037.843400       0.467370
    18038.494100       0.475240
    18039.144900       0.487890
    18039.795800       0.501910
    18040.446700       0.509260
    18041.097600       0.525520
    18041.748600       0.536260
    18042.399600       0.545540
    18043.050700       0.559820
    18043.701800       0.573910
    18044.353000       0.592370
    18045.004200       0.612150
    18045.655500       0.622750
    18046.306800       0.641050
    18046.958200       0.656850
    18047.609600       0.681250
    18048.261100       0.703470
    18048.912600       0.725660
    18049.564100       0.744860
    18050.215700       0.773430
    18050.867300       0.805140
    18051.519000       0.832490
    18052.170800       0.865550
    18052.822600       0.899510
    18053.474400       0.923980
    18054.126300       0.967470
    18054.778200       1.010520
    18055.430200       1.059190
    18056.082200       1.094560
    18056.734300       1.142590
    18057.386400       1.198310
    18058.038500       1.268920
    18058.690700       1.338680
    18059.343000       1.404320
    18059.995300       1.472550
    18060.647700       1.570090
    18061.300100       1.686230
    18061.952500       1.772110
    18062.605000       1.873690
    18063.257500       1.987680
    18063.910100       2.127570
    18064.562700       2.282480
    18065.215400       2.429580
    18065.868200       2.609800
    18066.520900       2.785340
    18067.173800       3.031880
    18067.826600       3.287720
    18068.479500       3.507590
    18069.132500       3.841340
    18069.785500       4.112620
    18070.438600       4.587890
    18071.091700       5.034820
    18071.744800       5.572530
    18072.398000       5.975650
    18073.051300       6.499470
    18073.704600       7.141980
    18074.357900       7.893070
    18075.011300       8.599330
    18075.664700       9.332270
    18076.318200      10.245250
    18076.971700      11.285570
    18077.625300      12.770480
    18078.278900      13.820280
    18078.932600      15.308550
    18079.586300      16.348820
    18080.240100      18.583350
    18080.893900      20.608560
    18081.547800      22.172750
    18082.201700      24.193530
    18082.855600      26.232580
    18083.509600      28.086240
    18084.163700      31.124990
    18084.817800      32.900310
    18085.471900      35.429640
    18086.126100      37.145670
    18086.780400      39.438280
    18087.434700      42.832270
    18088.089000      44.172950
    18088.743400      46.956940
    18089.397800      49.074400
    18090.052300      51.138850
    18090.706800      53.637660
    18091.361400      55.178630
    18092.016000      57.284050
    18092.670700      58.465180
    18093.325400      59.914530
    18093.980100      61.088230
    18094.634900      61.917310
    18095.289800      62.966750
    18095.944700      63.696220
    18096.599600      64.357860
    18097.254600      64.998360
    18097.909700      65.292120
    18098.564800      65.714920
    18099.219900      65.926180
    18099.875100      66.168500
    18100.530300      66.390030
    18101.185600      66.447770
    18101.841000      66.484760
    18102.496300      66.529530
    18103.151800      66.598330
    18103.807200      66.595440
    18104.462800      66.679810
    18105.118300      66.658970
    18105.773900      66.680100
    18106.429600      66.698230
    18107.085300      66.732580
    18107.741100      66.743250
    18108.396900      66.798430
    18109.052700      66.864260
    18109.708600      66.954100
    18110.364600      66.974950
    18111.020600      67.131120
    18111.676600      67.291880
    18112.332700      67.302110
    18112.988800      67.391470
    18113.645000      67.515610
    18114.301200      67.658210
    18114.957500      67.657950
    18115.613800      67.775750
    18116.270200      67.872830
    18116.926600      68.050220
    18117.583100      68.118750
    18118.239600      68.216250
    18118.896200      68.373410
    18119.552800      68.401270
    18120.209500      68.500230
    18120.866200      68.589860
    18121.522900      68.691880
    18122.179700      68.837010
    18122.836600      68.825040
    18123.493500      68.941750
    18124.150400      69.010170
    18124.807400      68.994350
    18125.464500      69.037600
    18126.121600      69.200940
    18126.778700      69.172920
    18127.435900      69.228260
    18128.093100      69.250190
    18128.750400      69.317820
    18129.407700      69.326470
    18130.065100      69.386230
    18130.722500      69.358100
    18131.380000      69.395890
    18132.037500      69.402050
    18132.695100      69.387980
    18133.352700      69.387980
    18134.010300      69.309100
    18134.668000      69.388150
    18135.325800      69.458560
    18135.983600      69.386390
    18136.641500      69.400460
    18137.299400      69.320330
    18137.957300      69.392560
    18138.615300      69.413450
    18139.273300      69.334370
    18139.931400      69.282590
    18140.589600      69.386230
    18141.247800      69.298400
    18141.906000      69.376050
    18142.564300      69.333650
    18143.222600      69.307100
    18143.881000      69.330840
    18144.539400      69.325740
    18145.197900      69.371480
    18145.856400      69.266010
    18146.515000      69.357390
    18147.173600      69.309910
    18147.832200      69.247390
    18148.491000      69.352310
    18149.149700      69.264990
    18149.808500      69.299190
    18150.467400      69.291520
    18151.126300      69.309100
    18151.785200      69.368830
    18152.444200      69.456830
    18153.103300      69.382900
    18153.762400      69.414540
    18154.421500      69.427530
    18155.080700      69.482300
    18155.739900      69.478950
    18156.399200      69.455830
    18157.058600      69.502700
    18157.717900      69.400460
    18158.377400      69.450640
    18159.036800      69.407290
    18159.696400      69.380070
    18160.355900      69.332610
    18161.015600      69.352310
    18161.675200      69.188410
    18162.334900      69.113910
    18162.994700      68.913920
    18163.654500      68.879820
    18164.314400      68.777750
    18164.974300      68.645880
    18165.634300      68.414200
    18166.294300      68.159770
    18166.954300      67.895180
    18167.614400      67.642650
    18168.274600      67.381440
    18168.934800      66.967330
    18169.595000      66.310550
    18170.255300      65.959500
    18170.915600      65.064230
    18171.576000      64.528710
    18172.236500      63.713190
    18172.896900      62.585240
    18173.557500      61.797980
    18174.218100      60.698120
    18174.878700      59.700720
    18175.539400      58.396780
    18176.200100      56.210430
    18176.860900      54.587120
    18177.521700      53.031030
    18178.182500      51.305820
    18178.843500      49.216830
    18179.504400      46.458460
    18180.165400      44.313200
    18180.826500      42.020290
    18181.487600      39.857360
    18182.148800      37.585000
    18182.810000      34.299980
    18183.471200      32.234750
    18184.132500      29.809090
    18184.793900      27.506660
    18185.455300      24.865360
    18186.116700      22.510330
    18186.778200      20.962790
    18187.439800      19.067530
    18188.101300      17.125840
    18188.763000      15.386710
    18189.424700      13.584550
    18190.086400      12.133030
    18190.748200      10.865410
    18191.410000       9.598280
    18192.071900       8.711990
    18192.733800       7.479780
    18193.395800       6.762990
    18194.057800       6.193000
    18194.719900       5.471030
    18195.382000       4.969120
    18196.044200       4.327730
    18196.706400       3.875600
    18197.368700       3.564380
    18198.031000       3.222340
    18198.693300       2.945080
    18199.355700       2.627430
    18200.018200       2.465140
    18200.680700       2.289290
    18201.343300       2.073080
    18202.005900       1.938920
    18202.668500       1.748100
    18203.331200       1.639240
    18203.994000       1.529960
    18204.656800       1.439440
    18205.319600       1.362240
    18205.982500       1.288770
    18206.645400       1.225040
    18207.308400       1.173300
    18207.971400       1.119990
    18208.634500       1.065800
    18209.297700       1.022210
    18209.960800       0.981920
    18210.624100       0.944810
    18211.619000       0.914690
    18212.282400       0.875650
    18212.945800       0.838670
    18213.609200       0.819490
    18214.272700       0.796290
    18214.936200       0.770250
    18215.599800       0.747140
    18216.263500       0.726680
    18216.927200       0.705140
    18217.590900       0.692820
    18218.254700       0.672620
    18218.918500       0.653480
    18219.582400       0.639620
    18220.246300       0.626570
    18220.910300       0.615290
    18221.574300       0.595890
    18222.238400       0.584350
    18222.902500       0.569270
    18223.566700       0.560530
    18224.230900       0.549710
    18224.895200       0.536680
    18225.559500       0.522850
    18226.223900       0.515640
    18226.888300       0.506260
    18227.552800       0.494600
    18228.217300       0.489060
    18228.881800       0.478970
    18229.546400       0.467540
    18230.211100       0.462870
    18230.875800       0.454740
    18231.540600       0.445780
    18232.205400       0.437250
    18232.870200       0.434980
    18233.535100       0.423840
    18234.200100       0.418020
    18234.865100       0.408850
    18235.530100       0.404140
    18236.195200       0.394310
    18236.860300       0.388740
    18237.525500       0.385500
    18238.190800       0.377700
    18238.856100       0.371580
    18239.521400       0.365590
    18240.186800       0.363410
    18240.852200       0.355180
    18241.517700       0.353110
    18242.183200       0.345510
    18242.848800       0.340740
    18243.514400       0.332730
    18244.180100       0.331690
    18244.845800       0.326790
    18245.511600       0.321440
    18246.177400       0.315360
    18246.843300       0.311570
    18247.509200       0.307630
    18248.175200       0.305620
    18248.841200       0.301690
    18249.507300       0.292500
    18250.173400       0.289440
    18250.839500       0.288560
    18251.505700       0.282260
    18252.172000       0.279980
    18252.838300       0.275190
    18253.504700       0.273380
    18254.171100       0.269310
    18254.837500       0.263660
    18255.504000       0.263580
    18256.170600       0.260300
    18256.837200       0.253330
    18257.503800       0.252430
    18258.170500       0.249000
    18258.837300       0.248930
    18259.504100       0.243360
    18260.170900       0.240900
    18260.837800       0.239070
    18261.504700       0.235570
    18262.171700       0.232630
    18262.838800       0.227510
    18263.505900       0.227350
    18264.173000       0.225310
    18264.840200       0.219590
    18265.507400       0.221900
    18266.174700       0.216060
    18266.842000       0.214480
    18267.509400       0.211840
    18268.176800       0.210720
    18268.844300       0.207990
    18269.511800       0.205550
    18270.179400       0.200310
    18270.847000       0.199520
    18271.514700       0.198380
    18272.182400       0.196050
    18272.850200       0.193510
    18273.518000       0.191930
    18274.185900       0.190980
    18274.853800       0.190990
    18275.521800       0.186570
    18276.189800       0.183790
    18276.857800       0.185100
    18277.526000       0.181210
    18278.194100       0.179880
    18278.862300       0.177180
    18279.530600       0.175930
    18280.198900       0.174010
    18280.867200       0.174360
    18281.535600       0.172530
