56,   56, MVIRI VIS channel from srf_MET7_2004213_2004214_1801-Release_S10EE_10.dat
Number of data points:
793
Wavenumber (cm-1)   Filter response
     8442.380800       0.000000
     8449.514200       0.000000
     8456.659600       0.000004
     8463.817200       0.000055
     8470.986900       0.000161
     8478.168700       0.000323
     8485.362700       0.000537
     8492.569000       0.000803
     8499.787500       0.001119
     8507.018300       0.001484
     8514.261400       0.001896
     8521.516800       0.002353
     8528.784600       0.002855
     8536.064900       0.003401
     8543.357500       0.003988
     8550.662700       0.004617
     8557.980300       0.005285
     8565.310500       0.005992
     8572.653200       0.006737
     8580.008600       0.007518
     8587.376600       0.008335
     8594.757200       0.009188
     8602.150500       0.010074
     8609.556600       0.010993
     8616.975400       0.011945
     8624.407100       0.012928
     8631.851500       0.013942
     8639.308900       0.014986
     8646.779100       0.016060
     8654.262200       0.017163
     8661.758300       0.018293
     8669.267400       0.019452
     8676.789600       0.020637
     8684.324800       0.021850
     8691.873100       0.023088
     8699.434500       0.024352
     8707.009100       0.025641
     8714.596900       0.026954
     8722.198000       0.028293
     8729.812300       0.029655
     8737.439900       0.031041
     8745.080900       0.032450
     8752.735200       0.033882
     8760.403000       0.035337
     8768.084200       0.036815
     8775.778900       0.038314
     8783.487000       0.039836
     8791.208800       0.041379
     8798.944100       0.042944
     8806.693100       0.044531
     8814.455700       0.046138
     8822.232000       0.047767
     8830.022100       0.049417
     8837.825900       0.051087
     8845.643500       0.052779
     8853.475000       0.054490
     8861.320300       0.056223
     8869.179600       0.057976
     8877.052800       0.059750
     8884.940000       0.061544
     8892.841300       0.063358
     8900.756600       0.065194
     8908.686000       0.067049
     8916.629500       0.068924
     8924.587200       0.070820
     8932.559200       0.072737
     8940.545400       0.074674
     8948.545900       0.076631
     8956.560700       0.078608
     8964.589900       0.080607
     8972.633500       0.082625
     8980.691500       0.084665
     8988.764000       0.086725
     8996.851100       0.088805
     9004.952700       0.090907
     9013.068900       0.093029
     9021.199800       0.095173
     9029.345400       0.097337
     9037.505600       0.099523
     9045.680700       0.101729
     9053.870500       0.103957
     9062.075200       0.106207
     9070.294800       0.108477
     9078.529300       0.110770
     9086.778700       0.113084
     9095.043200       0.115419
     9103.322700       0.117777
     9111.617300       0.120156
     9119.927000       0.122557
     9128.251900       0.124981
     9136.592100       0.127426
     9144.947400       0.129894
     9153.318100       0.132384
     9161.704100       0.134897
     9170.105500       0.137432
     9178.522300       0.139990
     9186.954500       0.142571
     9195.402300       0.145174
     9203.865600       0.147800
     9212.344500       0.150449
     9220.839100       0.153121
     9229.349300       0.155816
     9237.875300       0.158535
     9246.417000       0.161276
     9254.974500       0.164041
     9263.547900       0.166829
     9272.137200       0.169640
     9280.742500       0.172475
     9289.363700       0.175333
     9298.000900       0.178215
     9306.654300       0.181120
     9315.323700       0.184049
     9324.009300       0.187001
     9332.711200       0.189978
     9341.429200       0.192977
     9350.163600       0.196000
     9358.914400       0.199047
     9367.681500       0.202118
     9376.465100       0.205212
     9385.265100       0.208329
     9394.081700       0.211471
     9402.914900       0.214635
     9411.764700       0.217824
     9420.631200       0.221036
     9429.514400       0.224271
     9438.414300       0.227530
     9447.331100       0.230812
     9456.264800       0.234118
     9465.215300       0.237447
     9474.182900       0.240798
     9483.167400       0.244173
     9492.169000       0.247571
     9501.187600       0.250992
     9510.223500       0.254436
     9519.276500       0.257903
     9528.346800       0.261392
     9537.434400       0.264904
     9546.539400       0.268437
     9555.661700       0.271994
     9564.801500       0.275572
     9573.958800       0.279173
     9583.133700       0.282795
     9592.326100       0.286439
     9601.536200       0.290105
     9610.764100       0.293791
     9620.009600       0.297499
     9629.273000       0.301229
     9638.554200       0.304979
     9647.853400       0.308749
     9657.170400       0.312540
     9666.505600       0.316352
     9675.858700       0.320183
     9685.230000       0.324034
     9694.619500       0.327905
     9704.027200       0.331795
     9713.453100       0.335705
     9722.897400       0.339633
     9732.360100       0.343580
     9741.841200       0.347545
     9751.340800       0.351528
     9760.859000       0.355530
     9770.395700       0.359549
     9779.951100       0.363585
     9789.525200       0.367639
     9799.118100       0.371709
     9808.729800       0.375796
     9818.360300       0.379899
     9828.009800       0.384017
     9837.678300       0.388152
     9847.365800       0.392302
     9857.072400       0.396466
     9866.798200       0.400646
     9876.543200       0.404839
     9886.307500       0.409047
     9896.091000       0.413268
     9905.894000       0.417502
     9915.716400       0.421750
     9925.558300       0.426009
     9935.419800       0.430282
     9945.300800       0.434566
     9955.201600       0.438861
     9965.122100       0.443168
     9975.062300       0.447485
     9985.022500       0.451813
     9995.002500       0.456151
    10005.002500       0.460499
    10015.022500       0.464855
    10025.062700       0.469220
    10035.122900       0.473594
    10045.203400       0.477976
    10055.304200       0.482366
    10065.425300       0.486762
    10075.566800       0.491166
    10085.728700       0.495575
    10095.911200       0.499991
    10106.114200       0.504412
    10116.337900       0.508839
    10126.582300       0.513270
    10136.847400       0.517705
    10147.133400       0.522144
    10157.440300       0.526586
    10167.768200       0.531032
    10178.117000       0.535479
    10188.487000       0.539929
    10198.878100       0.544381
    10209.290500       0.548833
    10219.724100       0.553287
    10230.179000       0.557740
    10240.655400       0.562194
    10251.153300       0.566646
    10261.672700       0.571098
    10272.213700       0.575548
    10282.776300       0.579996
    10293.360800       0.584441
    10303.967000       0.588884
    10314.595200       0.593323
    10325.245200       0.597758
    10335.917300       0.602189
    10346.611500       0.606615
    10357.327800       0.611035
    10368.066400       0.615450
    10378.827200       0.619859
    10389.610400       0.624261
    10400.416000       0.628656
    10411.244100       0.633044
    10422.094800       0.637423
    10432.968200       0.641794
    10443.864200       0.646156
    10454.783100       0.650508
    10465.724800       0.654850
    10476.689400       0.659182
    10487.677000       0.663503
    10498.687700       0.667813
    10509.721500       0.672111
    10520.778500       0.676397
    10531.858900       0.680670
    10542.962600       0.684930
    10554.089700       0.689176
    10565.240400       0.693408
    10576.414600       0.697626
    10587.612500       0.701829
    10598.834100       0.706016
    10610.079600       0.710188
    10621.348900       0.714343
    10632.642200       0.718481
    10643.959600       0.722603
    10655.301000       0.726706
    10666.666700       0.730791
    10678.056600       0.734858
    10689.470900       0.738906
    10700.909600       0.742935
    10712.372800       0.746944
    10723.860600       0.750933
    10735.373100       0.754900
    10746.910300       0.758848
    10758.472300       0.762773
    10770.059200       0.766677
    10781.671200       0.770558
    10793.308100       0.774416
    10804.970300       0.778252
    10816.657700       0.782064
    10828.370300       0.785852
    10840.108400       0.789616
    10851.871900       0.793355
    10863.661100       0.797069
    10875.475800       0.800758
    10887.316300       0.804421
    10899.182600       0.808057
    10911.074700       0.811668
    10922.992900       0.815251
    10934.937100       0.818807
    10946.907500       0.822336
    10958.904100       0.825836
    10970.927000       0.829308
    10982.976400       0.832752
    10995.052200       0.836167
    11007.154700       0.839552
    11019.283700       0.842908
    11031.439600       0.846233
    11043.622300       0.849529
    11055.832000       0.852794
    11068.068600       0.856028
    11080.332400       0.859231
    11092.623400       0.862402
    11104.941700       0.865542
    11117.287400       0.868650
    11129.660500       0.871725
    11142.061300       0.874768
    11154.489700       0.877778
    11166.945800       0.880755
    11179.429800       0.883698
    11191.941800       0.886608
    11204.481800       0.889484
    11217.049900       0.892326
    11229.646300       0.895133
    11242.270900       0.897906
    11254.924000       0.900645
    11267.605600       0.903348
    11280.315800       0.906016
    11293.054800       0.908649
    11305.822500       0.911246
    11318.619100       0.913807
    11331.444800       0.916333
    11344.299500       0.918822
    11357.183400       0.921275
    11370.096600       0.923692
    11383.039300       0.926071
    11396.011400       0.928414
    11409.013100       0.930720
    11422.044500       0.932990
    11435.105800       0.935222
    11448.196900       0.937416
    11461.318100       0.939573
    11474.469300       0.941693
    11487.650800       0.943775
    11500.862600       0.945819
    11514.104800       0.947825
    11527.377500       0.949793
    11540.680900       0.951724
    11554.015000       0.953616
    11567.380000       0.955470
    11580.775900       0.957286
    11594.202900       0.959063
    11607.661100       0.960803
    11621.150500       0.962504
    11634.671300       0.964166
    11648.223600       0.965790
    11661.807600       0.967376
    11675.423200       0.968923
    11689.070700       0.970432
    11702.750100       0.971902
    11716.461600       0.973334
    11730.205300       0.974727
    11743.981200       0.976082
    11757.789500       0.977399
    11771.630400       0.978677
    11785.503800       0.979917
    11799.410000       0.981119
    11813.349100       0.982282
    11827.321100       0.983407
    11841.326200       0.984495
    11855.364600       0.985544
    11869.436200       0.986555
    11883.541300       0.987529
    11897.680000       0.988464
    11911.852300       0.989362
    11926.058400       0.990223
    11940.298500       0.991046
    11954.572600       0.991832
    11968.880900       0.992580
    11983.223500       0.993292
    11997.600500       0.993966
    12012.012000       0.994604
    12026.458200       0.995205
    12040.939200       0.995770
    12055.455100       0.996299
    12070.006000       0.996791
    12084.592100       0.997247
    12099.213600       0.997668
    12113.870400       0.998053
    12128.562800       0.998403
    12143.290800       0.998717
    12158.054700       0.998997
    12172.854500       0.999241
    12187.690400       0.999451
    12202.562500       0.999627
    12217.471000       0.999769
    12232.415900       0.999877
    12247.397400       0.999951
    12262.415700       0.999992
    12277.470800       1.000000
    12292.563000       0.999975
    12307.692300       0.999917
    12322.858900       0.999827
    12338.062900       0.999705
    12353.304500       0.999551
    12368.583800       0.999366
    12383.900900       0.999150
    12399.256000       0.998902
    12414.649300       0.998624
    12430.080800       0.998316
    12445.550700       0.997978
    12461.059200       0.997610
    12476.606400       0.997212
    12492.192400       0.996786
    12507.817400       0.996331
    12523.481500       0.995847
    12539.185000       0.995336
    12554.927800       0.994797
    12570.710200       0.994230
    12586.532400       0.993637
    12602.394500       0.993017
    12618.296500       0.992370
    12634.238800       0.991698
    12650.221400       0.991000
    12666.244500       0.990277
    12682.308200       0.989529
    12698.412700       0.988757
    12714.558200       0.987960
    12730.744700       0.987140
    12746.972600       0.986297
    12763.241900       0.985431
    12779.552700       0.984542
    12795.905300       0.983632
    12812.299800       0.982699
    12828.736400       0.981746
    12845.215200       0.980771
    12861.736300       0.979776
    12878.300100       0.978761
    12894.906500       0.977726
    12911.555800       0.976673
    12928.248200       0.975600
    12944.983800       0.974509
    12961.762800       0.973400
    12978.585300       0.972274
    12995.451600       0.971130
    13012.361700       0.969970
    13029.316000       0.968794
    13046.314400       0.967602
    13063.357300       0.966394
    13080.444700       0.965172
    13097.576900       0.963935
    13114.754100       0.962684
    13131.976400       0.961420
    13149.243900       0.960143
    13166.556900       0.958853
    13183.915600       0.957550
    13201.320100       0.956236
    13218.770700       0.954911
    13236.267400       0.953574
    13253.810500       0.952228
    13271.400100       0.950871
    13289.036500       0.949505
    13306.719900       0.948129
    13324.450400       0.946745
    13342.228200       0.945353
    13360.053400       0.943953
    13377.926400       0.942546
    13395.847300       0.941132
    13413.816200       0.939712
    13431.833400       0.938286
    13449.899100       0.936854
    13468.013500       0.935417
    13486.176700       0.933976
    13504.388900       0.932531
    13522.650400       0.931082
    13540.961400       0.929629
    13559.322000       0.928174
    13577.732500       0.926717
    13596.193100       0.925258
    13614.703900       0.923797
    13633.265200       0.922335
    13651.877100       0.920873
    13670.540000       0.919410
    13689.253900       0.917948
    13708.019200       0.916487
    13726.836000       0.915026
    13745.704500       0.913568
    13764.624900       0.912111
    13783.597500       0.910657
    13802.622500       0.909205
    13821.700100       0.907757
    13840.830400       0.906312
    13860.013900       0.904872
    13879.250500       0.903436
    13898.540700       0.902005
    13917.884500       0.900579
    13937.282200       0.899159
    13956.734100       0.897744
    13976.240400       0.896337
    13995.801300       0.894936
    14015.417000       0.893543
    14035.087700       0.892157
    14054.813800       0.890779
    14074.595400       0.889409
    14094.432700       0.888049
    14114.326000       0.886697
    14134.275600       0.885355
    14154.281700       0.884022
    14174.344400       0.882700
    14194.464200       0.881388
    14214.641100       0.880087
    14234.875400       0.878797
    14255.167500       0.877519
    14275.517500       0.876253
    14295.925700       0.874998
    14316.392300       0.873756
    14336.917600       0.872527
    14357.501800       0.871311
    14378.145200       0.870108
    14398.848100       0.868919
    14419.610700       0.867744
    14440.433200       0.866583
    14461.316000       0.865437
    14482.259200       0.864305
    14503.263200       0.863189
    14524.328200       0.862087
    14545.454500       0.861001
    14566.642400       0.859931
    14587.892000       0.858877
    14609.203800       0.857839
    14630.577900       0.856818
    14652.014700       0.855813
    14673.514300       0.854825
    14695.077100       0.853854
    14716.703500       0.852900
    14738.393500       0.851964
    14760.147600       0.851046
    14781.966000       0.850145
    14803.849000       0.849262
    14825.796900       0.848397
    14847.809900       0.847551
    14869.888500       0.846723
    14892.032800       0.845913
    14914.243100       0.845122
    14936.519800       0.844350
    14958.863100       0.843597
    14981.273400       0.842863
    15003.750900       0.842148
    15026.296000       0.841452
    15048.909000       0.840775
    15071.590100       0.840118
    15094.339600       0.839480
    15117.158000       0.838861
    15140.045400       0.838262
    15163.002300       0.837682
    15186.028900       0.837122
    15209.125500       0.836582
    15232.292500       0.836061
    15255.530100       0.835559
    15278.838800       0.835077
    15302.218800       0.834615
    15325.670500       0.834172
    15349.194200       0.833748
    15372.790200       0.833344
    15396.458800       0.832960
    15420.200500       0.832594
    15444.015400       0.832248
    15467.904100       0.831921
    15491.866800       0.831613
    15515.903800       0.831324
    15540.015500       0.831054
    15564.202300       0.830803
    15588.464500       0.830570
    15612.802500       0.830356
    15637.216600       0.830160
    15661.707100       0.829982
    15686.274500       0.829822
    15710.919100       0.829680
    15735.641200       0.829556
    15760.441300       0.829449
    15785.319700       0.829359
    15810.276700       0.829286
    15835.312700       0.829231
    15860.428200       0.829191
    15885.623500       0.829168
    15910.899000       0.829161
    15936.255000       0.829170
    15961.691900       0.829195
    15987.210200       0.829234
    16012.810200       0.829289
    16038.492400       0.829358
    16064.257000       0.829442
    16090.104600       0.829540
    16116.035500       0.829651
    16142.050000       0.829776
    16168.148700       0.829913
    16194.332000       0.830064
    16220.600200       0.830227
    16246.953700       0.830401
    16273.393000       0.830588
    16299.918500       0.830785
    16326.530600       0.830993
    16353.229800       0.831211
    16380.016400       0.831440
    16406.890900       0.831678
    16433.853700       0.831924
    16460.905300       0.832180
    16488.046200       0.832443
    16515.276600       0.832714
    16542.597200       0.832993
    16570.008300       0.833278
    16597.510400       0.833569
    16625.103900       0.833866
    16652.789300       0.834168
    16680.567100       0.834474
    16708.437800       0.834785
    16736.401700       0.835099
    16764.459300       0.835416
    16792.611300       0.835736
    16820.857900       0.836058
    16849.199700       0.836381
    16877.637100       0.836704
    16906.170800       0.837028
    16934.801000       0.837352
    16963.528400       0.837674
    16992.353400       0.837995
    17021.276600       0.838313
    17050.298400       0.838628
    17079.419300       0.838940
    17108.639900       0.839248
    17137.960600       0.839551
    17167.382000       0.839848
    17196.904600       0.840139
    17226.528900       0.840423
    17256.255400       0.840700
    17286.084700       0.840969
    17316.017300       0.841228
    17346.053800       0.841478
    17376.194600       0.841718
    17406.440400       0.841946
    17436.791600       0.842163
    17467.248900       0.842367
    17497.812800       0.842558
    17528.483800       0.842735
    17559.262500       0.842898
    17590.149500       0.843045
    17621.145400       0.843176
    17652.250700       0.843290
    17683.466000       0.843386
