  19  ,noaa_15_hirs_19.flt
Number of data points:
173
Wavenumber (cm-1)   Filter response
     2546.000000       0.000000
     2565.900000       0.014771
     2570.400000       0.017149
     2571.400000       0.019301
     2572.400000       0.021583
     2573.400000       0.023833
     2574.400000       0.025712
     2575.400000       0.027369
     2576.400000       0.029230
     2577.400000       0.031235
     2578.400000       0.033487
     2579.400000       0.036043
     2580.400000       0.038874
     2581.400000       0.041995
     2582.400000       0.045374
     2583.400000       0.049026
     2584.400000       0.053127
     2585.400000       0.057734
     2586.400000       0.062897
     2587.400000       0.068646
     2588.400000       0.074878
     2589.400000       0.081766
     2590.400000       0.089497
     2591.400000       0.098121
     2592.400000       0.107930
     2593.400000       0.118980
     2594.400000       0.131290
     2595.400000       0.145010
     2596.400000       0.160410
     2597.400000       0.177510
     2598.400000       0.196620
     2599.400000       0.217930
     2600.400000       0.241820
     2601.400000       0.268680
     2602.400000       0.298760
     2603.400000       0.331970
     2604.400000       0.368420
     2605.400000       0.408200
     2606.400000       0.451080
     2607.400000       0.496570
     2608.400000       0.544320
     2609.400000       0.593930
     2610.400000       0.644790
     2611.400000       0.695800
     2612.400000       0.745800
     2613.400000       0.793850
     2614.400000       0.838890
     2615.400000       0.879720
     2616.400000       0.915220
     2617.400000       0.944650
     2618.400000       0.967740
     2619.400000       0.984540
     2620.400000       0.995200
     2621.400000       1.000000
     2622.400000       0.999850
     2623.400000       0.995560
     2624.400000       0.987820
     2625.400000       0.976760
     2626.400000       0.963140
     2627.400000       0.947810
     2628.400000       0.931960
     2629.400000       0.916210
     2630.400000       0.900880
     2631.400000       0.885910
     2632.400000       0.871560
     2633.400000       0.857780
     2634.400000       0.845190
     2635.400000       0.833790
     2636.400000       0.823200
     2637.400000       0.813520
     2638.400000       0.804990
     2639.400000       0.797620
     2640.400000       0.791680
     2641.400000       0.787440
     2642.400000       0.784360
     2643.400000       0.782490
     2644.400000       0.781670
     2645.400000       0.781540
     2646.400000       0.782180
     2647.400000       0.783850
     2648.400000       0.786400
     2649.400000       0.789670
     2650.400000       0.793570
     2651.400000       0.797990
     2652.400000       0.803010
     2653.400000       0.808730
     2654.400000       0.815010
     2655.400000       0.821380
     2656.400000       0.827500
     2657.400000       0.833210
     2658.400000       0.838640
     2659.400000       0.844110
     2660.400000       0.849370
     2661.400000       0.853980
     2662.400000       0.858060
     2663.400000       0.861480
     2664.400000       0.864360
     2665.400000       0.866960
     2666.400000       0.869000
     2667.400000       0.870140
     2668.400000       0.870430
     2669.400000       0.869800
     2670.400000       0.868270
     2671.400000       0.866580
     2672.400000       0.864860
     2673.400000       0.862850
     2674.400000       0.860400
     2675.400000       0.857390
     2676.400000       0.853730
     2677.400000       0.849950
     2678.400000       0.846350
     2679.400000       0.843000
     2680.400000       0.839930
     2681.400000       0.837100
     2682.400000       0.834410
     2683.400000       0.832030
     2684.400000       0.829700
     2685.400000       0.827940
     2686.400000       0.827150
     2687.400000       0.827310
     2688.400000       0.828220
     2689.400000       0.829900
     2690.400000       0.831960
     2691.400000       0.834630
     2692.400000       0.837800
     2693.400000       0.841010
     2694.400000       0.843800
     2695.400000       0.845850
     2696.400000       0.846520
     2697.400000       0.845340
     2698.400000       0.841490
     2699.400000       0.833990
     2700.400000       0.822140
     2701.400000       0.805290
     2702.400000       0.782990
     2703.400000       0.755210
     2704.400000       0.721860
     2705.400000       0.683440
     2706.400000       0.641030
     2707.400000       0.595740
     2708.400000       0.549000
     2709.400000       0.502080
     2710.400000       0.455920
     2711.400000       0.411480
     2712.400000       0.369440
     2713.400000       0.330280
     2714.400000       0.294460
     2715.400000       0.261670
     2716.400000       0.231930
     2717.400000       0.205280
     2718.400000       0.181780
     2719.400000       0.161140
     2720.400000       0.143060
     2721.400000       0.127060
     2722.400000       0.112890
     2723.400000       0.100310
     2724.400000       0.089209
     2725.400000       0.079405
     2726.400000       0.070771
     2727.400000       0.063217
     2728.400000       0.056589
     2729.400000       0.050814
     2730.400000       0.045773
     2731.400000       0.041278
     2732.400000       0.037242
     2733.400000       0.033575
     2734.400000       0.030237
     2735.400000       0.027266
     2736.400000       0.024751
     2737.400000       0.022564
     2738.400000       0.020225
     2744.000000       0.012814
     2765.000000       0.000000
