   3  ,noaa_12_hirs_03.flt
Number of data points:
102
Wavenumber (cm-1)   Filter response
      662.800000       0.000000
      663.320000       0.001982
      663.860000       0.004147
      664.380000       0.004503
      664.910000       0.004537
      665.440000       0.005337
      665.960000       0.006700
      666.500000       0.006638
      667.020000       0.008389
      667.550000       0.008263
      668.080000       0.009740
      668.600000       0.009850
      669.140000       0.009940
      669.660000       0.011326
      670.200000       0.013148
      670.740000       0.013250
      671.270000       0.018187
      671.800000       0.021734
      672.330000       0.027175
      672.860000       0.031332
      673.400000       0.035428
      673.930000       0.042344
      674.460000       0.051890
      674.990000       0.057755
      675.520000       0.070760
      676.050000       0.081492
      676.590000       0.098513
      677.120000       0.115230
      677.660000       0.130830
      678.200000       0.161410
      678.730000       0.186140
      679.260000       0.212980
      679.790000       0.242610
      680.310000       0.274130
      680.860000       0.306450
      681.380000       0.337810
      681.910000       0.372310
      682.440000       0.415910
      682.970000       0.455070
      683.490000       0.503960
      684.010000       0.544390
      684.540000       0.601990
      685.040000       0.652570
      685.560000       0.709690
      686.090000       0.755560
      686.630000       0.813320
      687.130000       0.868960
      687.660000       0.911210
      688.180000       0.946400
      688.710000       0.975440
      689.230000       0.993860
      689.760000       1.000000
      690.330000       0.995460
      690.860000       0.986160
      691.390000       0.979730
      691.920000       0.974300
      692.450000       0.957790
      692.980000       0.941560
      693.500000       0.922940
      694.030000       0.902470
      694.570000       0.861080
      695.100000       0.818530
      695.650000       0.765340
      696.200000       0.700000
      696.740000       0.627780
      697.300000       0.552830
      697.830000       0.480470
      698.340000       0.398190
      698.880000       0.322070
      699.400000       0.264540
      699.940000       0.204530
      700.470000       0.164430
      701.010000       0.135370
      701.550000       0.106880
      702.080000       0.086880
      702.620000       0.072234
      703.160000       0.057987
      703.690000       0.049699
      704.230000       0.044735
      704.760000       0.041131
      705.290000       0.033332
      705.830000       0.025881
      706.360000       0.023640
      706.900000       0.021596
      707.430000       0.021760
      707.960000       0.021926
      708.500000       0.019378
      709.030000       0.018164
      709.560000       0.018308
      710.070000       0.015481
      710.600000       0.014911
      711.130000       0.014336
      711.660000       0.011876
      712.180000       0.011981
      712.710000       0.010191
      713.230000       0.010286
      713.760000       0.008703
      714.290000       0.008792
      714.810000       0.005963
      715.350000       0.006036
      715.870000       0.000000
      719.850000       0.000000
