25,   25, MVIRI VIS channel from srf_MET4_1992213_1992214_1801-Release_S10EL_10.dat
Number of data points:
752
Wavenumber (cm-1)   Filter response
     8745.080900       0.000000
     8752.735200       0.000000
     8760.403000       0.000001
     8768.084200       0.000059
     8775.778900       0.000200
     8783.487000       0.000422
     8791.208800       0.000721
     8798.944100       0.001097
     8806.693100       0.001546
     8814.455700       0.002067
     8822.232000       0.002657
     8830.022100       0.003314
     8837.825900       0.004036
     8845.643500       0.004821
     8853.475000       0.005667
     8861.320300       0.006573
     8869.179600       0.007536
     8877.052800       0.008555
     8884.940000       0.009629
     8892.841300       0.010755
     8900.756600       0.011931
     8908.686000       0.013158
     8916.629500       0.014432
     8924.587200       0.015753
     8932.559200       0.017119
     8940.545400       0.018528
     8948.545900       0.019981
     8956.560700       0.021474
     8964.589900       0.023008
     8972.633500       0.024581
     8980.691500       0.026191
     8988.764000       0.027838
     8996.851100       0.029521
     9004.952700       0.031239
     9013.068900       0.032991
     9021.199800       0.034775
     9029.345400       0.036592
     9037.505600       0.038439
     9045.680700       0.040317
     9053.870500       0.042224
     9062.075200       0.044161
     9070.294800       0.046125
     9078.529300       0.048116
     9086.778700       0.050135
     9095.043200       0.052179
     9103.322700       0.054249
     9111.617300       0.056344
     9119.927000       0.058463
     9128.251900       0.060606
     9136.592100       0.062773
     9144.947400       0.064962
     9153.318100       0.067173
     9161.704100       0.069407
     9170.105500       0.071662
     9178.522300       0.073939
     9186.954500       0.076235
     9195.402300       0.078553
     9203.865600       0.080891
     9212.344500       0.083249
     9220.839100       0.085626
     9229.349300       0.088022
     9237.875300       0.090438
     9246.417000       0.092872
     9254.974500       0.095325
     9263.547900       0.097796
     9272.137200       0.100286
     9280.742500       0.102793
     9289.363700       0.105318
     9298.000900       0.107861
     9306.654300       0.110422
     9315.323700       0.112999
     9324.009300       0.115594
     9332.711200       0.118207
     9341.429200       0.120836
     9350.163600       0.123482
     9358.914400       0.126145
     9367.681500       0.128825
     9376.465100       0.131522
     9385.265100       0.134235
     9394.081700       0.136965
     9402.914900       0.139712
     9411.764700       0.142475
     9420.631200       0.145255
     9429.514400       0.148051
     9438.414300       0.150864
     9447.331100       0.153693
     9456.264800       0.156539
     9465.215300       0.159401
     9474.182900       0.162280
     9483.167400       0.165175
     9492.169000       0.168087
     9501.187600       0.171015
     9510.223500       0.173960
     9519.276500       0.176921
     9528.346800       0.179899
     9537.434400       0.182894
     9546.539400       0.185905
     9555.661700       0.188933
     9564.801500       0.191977
     9573.958800       0.195038
     9583.133700       0.198116
     9592.326100       0.201210
     9601.536200       0.204321
     9610.764100       0.207449
     9620.009600       0.210594
     9629.273000       0.213756
     9638.554200       0.216934
     9647.853400       0.220129
     9657.170400       0.223341
     9666.505600       0.226570
     9675.858700       0.229816
     9685.230000       0.233079
     9694.619500       0.236359
     9704.027200       0.239655
     9713.453100       0.242969
     9722.897400       0.246299
     9732.360100       0.249646
     9741.841200       0.253011
     9751.340800       0.256392
     9760.859000       0.259790
     9770.395700       0.263205
     9779.951100       0.266636
     9789.525200       0.270085
     9799.118100       0.273551
     9808.729800       0.277033
     9818.360300       0.280532
     9828.009800       0.284047
     9837.678300       0.287580
     9847.365800       0.291129
     9857.072400       0.294694
     9866.798200       0.298276
     9876.543200       0.301874
     9886.307500       0.305489
     9896.091000       0.309120
     9905.894000       0.312767
     9915.716400       0.316431
     9925.558300       0.320110
     9935.419800       0.323806
     9945.300800       0.327517
     9955.201600       0.331244
     9965.122100       0.334987
     9975.062300       0.338745
     9985.022500       0.342519
     9995.002500       0.346308
    10005.002500       0.350112
    10015.022500       0.353931
    10025.062700       0.357764
    10035.122900       0.361613
    10045.203400       0.365476
    10055.304200       0.369354
    10065.425300       0.373246
    10075.566800       0.377152
    10085.728700       0.381072
    10095.911200       0.385005
    10106.114200       0.388953
    10116.337900       0.392913
    10126.582300       0.396887
    10136.847400       0.400873
    10147.133400       0.404873
    10157.440300       0.408885
    10167.768200       0.412909
    10178.117000       0.416945
    10188.487000       0.420993
    10198.878100       0.425053
    10209.290500       0.429125
    10219.724100       0.433207
    10230.179000       0.437300
    10240.655400       0.441404
    10251.153300       0.445518
    10261.672700       0.449643
    10272.213700       0.453777
    10282.776300       0.457921
    10293.360800       0.462074
    10303.967000       0.466236
    10314.595200       0.470406
    10325.245200       0.474586
    10335.917300       0.478773
    10346.611500       0.482968
    10357.327800       0.487170
    10368.066400       0.491380
    10378.827200       0.495597
    10389.610400       0.499820
    10400.416000       0.504049
    10411.244100       0.508285
    10422.094800       0.512525
    10432.968200       0.516771
    10443.864200       0.521022
    10454.783100       0.525277
    10465.724800       0.529537
    10476.689400       0.533800
    10487.677000       0.538067
    10498.687700       0.542337
    10509.721500       0.546609
    10520.778500       0.550884
    10531.858900       0.555161
    10542.962600       0.559440
    10554.089700       0.563719
    10565.240400       0.568000
    10576.414600       0.572281
    10587.612500       0.576562
    10598.834100       0.580843
    10610.079600       0.585123
    10621.348900       0.589401
    10632.642200       0.593679
    10643.959600       0.597954
    10655.301000       0.602227
    10666.666700       0.606498
    10678.056600       0.610765
    10689.470900       0.615028
    10700.909600       0.619288
    10712.372800       0.623544
    10723.860600       0.627794
    10735.373100       0.632039
    10746.910300       0.636279
    10758.472300       0.640513
    10770.059200       0.644740
    10781.671200       0.648960
    10793.308100       0.653173
    10804.970300       0.657378
    10816.657700       0.661575
    10828.370300       0.665764
    10840.108400       0.669943
    10851.871900       0.674113
    10863.661100       0.678274
    10875.475800       0.682423
    10887.316300       0.686562
    10899.182600       0.690690
    10911.074700       0.694807
    10922.992900       0.698911
    10934.937100       0.703003
    10946.907500       0.707081
    10958.904100       0.711147
    10970.927000       0.715199
    10982.976400       0.719237
    10995.052200       0.723260
    11007.154700       0.727268
    11019.283700       0.731260
    11031.439600       0.735237
    11043.622300       0.739198
    11055.832000       0.743141
    11068.068600       0.747068
    11080.332400       0.750977
    11092.623400       0.754868
    11104.941700       0.758741
    11117.287400       0.762595
    11129.660500       0.766429
    11142.061300       0.770244
    11154.489700       0.774039
    11166.945800       0.777814
    11179.429800       0.781567
    11191.941800       0.785300
    11204.481800       0.789010
    11217.049900       0.792699
    11229.646300       0.796365
    11242.270900       0.800008
    11254.924000       0.803629
    11267.605600       0.807225
    11280.315800       0.810797
    11293.054800       0.814345
    11305.822500       0.817868
    11318.619100       0.821367
    11331.444800       0.824839
    11344.299500       0.828286
    11357.183400       0.831706
    11370.096600       0.835100
    11383.039300       0.838467
    11396.011400       0.841806
    11409.013100       0.845118
    11422.044500       0.848401
    11435.105800       0.851657
    11448.196900       0.854883
    11461.318100       0.858081
    11474.469300       0.861249
    11487.650800       0.864387
    11500.862600       0.867496
    11514.104800       0.870574
    11527.377500       0.873621
    11540.680900       0.876637
    11554.015000       0.879622
    11567.380000       0.882576
    11580.775900       0.885497
    11594.202900       0.888386
    11607.661100       0.891243
    11621.150500       0.894067
    11634.671300       0.896858
    11648.223600       0.899616
    11661.807600       0.902340
    11675.423200       0.905031
    11689.070700       0.907687
    11702.750100       0.910309
    11716.461600       0.912896
    11730.205300       0.915449
    11743.981200       0.917966
    11757.789500       0.920448
    11771.630400       0.922895
    11785.503800       0.925306
    11799.410000       0.927681
    11813.349100       0.930020
    11827.321100       0.932322
    11841.326200       0.934588
    11855.364600       0.936817
    11869.436200       0.939010
    11883.541300       0.941165
    11897.680000       0.943283
    11911.852300       0.945363
    11926.058400       0.947406
    11940.298500       0.949411
    11954.572600       0.951378
    11968.880900       0.953307
    11983.223500       0.955198
    11997.600500       0.957051
    12012.012000       0.958865
    12026.458200       0.960641
    12040.939200       0.962378
    12055.455100       0.964076
    12070.006000       0.965736
    12084.592100       0.967356
    12099.213600       0.968938
    12113.870400       0.970480
    12128.562800       0.971983
    12143.290800       0.973447
    12158.054700       0.974871
    12172.854500       0.976256
    12187.690400       0.977602
    12202.562500       0.978908
    12217.471000       0.980175
    12232.415900       0.981403
    12247.397400       0.982590
    12262.415700       0.983738
    12277.470800       0.984847
    12292.563000       0.985916
    12307.692300       0.986946
    12322.858900       0.987936
    12338.062900       0.988886
    12353.304500       0.989797
    12368.583800       0.990669
    12383.900900       0.991501
    12399.256000       0.992293
    12414.649300       0.993047
    12430.080800       0.993761
    12445.550700       0.994435
    12461.059200       0.995071
    12476.606400       0.995668
    12492.192400       0.996225
    12507.817400       0.996744
    12523.481500       0.997224
    12539.185000       0.997665
    12554.927800       0.998068
    12570.710200       0.998432
    12586.532400       0.998758
    12602.394500       0.999045
    12618.296500       0.999295
    12634.238800       0.999506
    12650.221400       0.999680
    12666.244500       0.999816
    12682.308200       0.999915
    12698.412700       0.999976
    12714.558200       1.000000
    12730.744700       0.999987
    12746.972600       0.999937
    12763.241900       0.999851
    12779.552700       0.999728
    12795.905300       0.999570
    12812.299800       0.999375
    12828.736400       0.999144
    12845.215200       0.998878
    12861.736300       0.998576
    12878.300100       0.998239
    12894.906500       0.997868
    12911.555800       0.997461
    12928.248200       0.997021
    12944.983800       0.996546
    12961.762800       0.996037
    12978.585300       0.995495
    12995.451600       0.994919
    13012.361700       0.994311
    13029.316000       0.993669
    13046.314400       0.992995
    13063.357300       0.992289
    13080.444700       0.991550
    13097.576900       0.990780
    13114.754100       0.989979
    13131.976400       0.989147
    13149.243900       0.988284
    13166.556900       0.987391
    13183.915600       0.986467
    13201.320100       0.985514
    13218.770700       0.984532
    13236.267400       0.983520
    13253.810500       0.982480
    13271.400100       0.981411
    13289.036500       0.980314
    13306.719900       0.979190
    13324.450400       0.978038
    13342.228200       0.976859
    13360.053400       0.975654
    13377.926400       0.974423
    13395.847300       0.973165
    13413.816200       0.971882
    13431.833400       0.970574
    13449.899100       0.969242
    13468.013500       0.967885
    13486.176700       0.966504
    13504.388900       0.965099
    13522.650400       0.963672
    13540.961400       0.962221
    13559.322000       0.960749
    13577.732500       0.959254
    13596.193100       0.957738
    13614.703900       0.956201
    13633.265200       0.954643
    13651.877100       0.953065
    13670.540000       0.951467
    13689.253900       0.949849
    13708.019200       0.948213
    13726.836000       0.946558
    13745.704500       0.944885
    13764.624900       0.943194
    13783.597500       0.941485
    13802.622500       0.939760
    13821.700100       0.938019
    13840.830400       0.936262
    13860.013900       0.934489
    13879.250500       0.932701
    13898.540700       0.930898
    13917.884500       0.929081
    13937.282200       0.927250
    13956.734100       0.925407
    13976.240400       0.923550
    13995.801300       0.921681
    14015.417000       0.919799
    14035.087700       0.917907
    14054.813800       0.916003
    14074.595400       0.914089
    14094.432700       0.912164
    14114.326000       0.910230
    14134.275600       0.908286
    14154.281700       0.906334
    14174.344400       0.904373
    14194.464200       0.902404
    14214.641100       0.900428
    14234.875400       0.898445
    14255.167500       0.896456
    14275.517500       0.894460
    14295.925700       0.892458
    14316.392300       0.890452
    14336.917600       0.888440
    14357.501800       0.886425
    14378.145200       0.884405
    14398.848100       0.882382
    14419.610700       0.880356
    14440.433200       0.878327
    14461.316000       0.876296
    14482.259200       0.874264
    14503.263200       0.872230
    14524.328200       0.870196
    14545.454500       0.868161
    14566.642400       0.866126
    14587.892000       0.864092
    14609.203800       0.862058
    14630.577900       0.860026
    14652.014700       0.857996
    14673.514300       0.855967
    14695.077100       0.853942
    14716.703500       0.851919
    14738.393500       0.849900
    14760.147600       0.847884
    14781.966000       0.845873
    14803.849000       0.843866
    14825.796900       0.841864
    14847.809900       0.839868
    14869.888500       0.837877
    14892.032800       0.835893
    14914.243100       0.833915
    14936.519800       0.831944
    14958.863100       0.829980
    14981.273400       0.828024
    15003.750900       0.826075
    15026.296000       0.824136
    15048.909000       0.822205
    15071.590100       0.820283
    15094.339600       0.818370
    15117.158000       0.816467
    15140.045400       0.814574
    15163.002300       0.812692
    15186.028900       0.810821
    15209.125500       0.808960
    15232.292500       0.807111
    15255.530100       0.805273
    15278.838800       0.803448
    15302.218800       0.801635
    15325.670500       0.799834
    15349.194200       0.798046
    15372.790200       0.796272
    15396.458800       0.794511
    15420.200500       0.792763
    15444.015400       0.791030
    15467.904100       0.789311
    15491.866800       0.787606
    15515.903800       0.785916
    15540.015500       0.784241
    15564.202300       0.782581
    15588.464500       0.780936
    15612.802500       0.779307
    15637.216600       0.777694
    15661.707100       0.776097
    15686.274500       0.774516
    15710.919100       0.772951
    15735.641200       0.771404
    15760.441300       0.769873
    15785.319700       0.768358
    15810.276700       0.766861
    15835.312700       0.765381
    15860.428200       0.763919
    15885.623500       0.762474
    15910.899000       0.761047
    15936.255000       0.759637
    15961.691900       0.758246
    15987.210200       0.756872
    16012.810200       0.755517
    16038.492400       0.754179
    16064.257000       0.752860
    16090.104600       0.751560
    16116.035500       0.750278
    16142.050000       0.749014
    16168.148700       0.747768
    16194.332000       0.746542
    16220.600200       0.745333
    16246.953700       0.744144
    16273.393000       0.742973
    16299.918500       0.741821
    16326.530600       0.740687
    16353.229800       0.739572
    16380.016400       0.738475
    16406.890900       0.737397
    16433.853700       0.736338
    16460.905300       0.735297
    16488.046200       0.734274
    16515.276600       0.733270
    16542.597200       0.732284
    16570.008300       0.731316
    16597.510400       0.730366
    16625.103900       0.729434
    16652.789300       0.728520
    16680.567100       0.727624
    16708.437800       0.726745
    16736.401700       0.725884
    16764.459300       0.725041
    16792.611300       0.724214
    16820.857900       0.723404
    16849.199700       0.722612
    16877.637100       0.721836
    16906.170800       0.721076
    16934.801000       0.720332
    16963.528400       0.719605
    16992.353400       0.718893
    17021.276600       0.718197
    17050.298400       0.717517
    17079.419300       0.716851
    17108.639900       0.716200
    17137.960600       0.715564
    17167.382000       0.714942
    17196.904600       0.714333
    17226.528900       0.713739
    17256.255400       0.713158
    17286.084700       0.712590
    17316.017300       0.712034
    17346.053800       0.711491
    17376.194600       0.710961
    17406.440400       0.710441
    17436.791600       0.709933
    17467.248900       0.709436
    17497.812800       0.708950
    17528.483800       0.708473
    17559.262500       0.708007
    17590.149500       0.707550
    17621.145400       0.707101
    17652.250700       0.706662
    17683.466000       0.706230
    17714.791900       0.705806
    17746.228900       0.705389
    17777.777800       0.704979
    17809.439000       0.704575
    17841.213200       0.704177
    17873.101000       0.703784
    17905.103000       0.703395
    17937.219700       0.703012
    17969.451900       0.702631
    18001.800200       0.702255
    18034.265100       0.701880
    18066.847300       0.701508
    18099.547500       0.701138
    18132.366300       0.700769
    18165.304300       0.700400
    18198.362100       0.700031
    18231.540600       0.699662
    18264.840200       0.699291
    18298.261700       0.698918
    18331.805700       0.698543
    18365.472900       0.698165
    18399.264000       0.697784
    18433.179700       0.697398
    18467.220700       0.697008
    18501.387600       0.696611
    18535.681200       0.696209
    18570.102100       0.695800
    18604.651200       0.695384
    18639.329000       0.694959
    18674.136300       0.694526
    18709.073900       0.694083
    18744.142500       0.693631
    18779.342700       0.693167
    18814.675400       0.692692
    18850.141400       0.692205
    18885.741300       0.691705
    18921.475900       0.691192
    18957.346000       0.690664
    18993.352300       0.690122
    19029.495700       0.689564
    19065.776900       0.688989
