78,   78, MVIRI VIS channel from srf_MET5_2000348_2000349_1801-Release_S10EL_10.dat
Number of data points:
806
Wavenumber (cm-1)   Filter response
     8350.730700       0.000000
     8357.710000       0.000000
     8364.701000       0.000000
     8371.703600       0.000002
     8378.718100       0.000004
     8385.744200       0.000009
     8392.782200       0.000017
     8399.832000       0.000027
     8406.893700       0.000042
     8413.967200       0.000060
     8421.052600       0.000084
     8428.150000       0.000112
     8435.259400       0.000146
     8442.380800       0.000187
     8449.514200       0.000234
     8456.659600       0.000287
     8463.817200       0.000348
     8470.986900       0.000417
     8478.168700       0.000494
     8485.362700       0.000580
     8492.569000       0.000674
     8499.787500       0.000777
     8507.018300       0.000890
     8514.261400       0.001012
     8521.516800       0.001145
     8528.784600       0.001288
     8536.064900       0.001441
     8543.357500       0.001606
     8550.662700       0.001781
     8557.980300       0.001968
     8565.310500       0.002167
     8572.653200       0.002378
     8580.008600       0.002600
     8587.376600       0.002836
     8594.757200       0.003083
     8602.150500       0.003344
     8609.556600       0.003618
     8616.975400       0.003904
     8624.407100       0.004205
     8631.851500       0.004518
     8639.308900       0.004846
     8646.779100       0.005187
     8654.262200       0.005543
     8661.758300       0.005913
     8669.267400       0.006297
     8676.789600       0.006696
     8684.324800       0.007110
     8691.873100       0.007539
     8699.434500       0.007982
     8707.009100       0.008441
     8714.596900       0.008916
     8722.198000       0.009406
     8729.812300       0.009911
     8737.439900       0.010433
     8745.080900       0.010970
     8752.735200       0.011523
     8760.403000       0.012092
     8768.084200       0.012678
     8775.778900       0.013280
     8783.487000       0.013899
     8791.208800       0.014534
     8798.944100       0.015186
     8806.693100       0.015855
     8814.455700       0.016541
     8822.232000       0.017244
     8830.022100       0.017965
     8837.825900       0.018703
     8845.643500       0.019458
     8853.475000       0.020231
     8861.320300       0.021021
     8869.179600       0.021829
     8877.052800       0.022656
     8884.940000       0.023500
     8892.841300       0.024362
     8900.756600       0.025243
     8908.686000       0.026142
     8916.629500       0.027059
     8924.587200       0.027995
     8932.559200       0.028950
     8940.545400       0.029923
     8948.545900       0.030915
     8956.560700       0.031926
     8964.589900       0.032956
     8972.633500       0.034006
     8980.691500       0.035074
     8988.764000       0.036162
     8996.851100       0.037270
     9004.952700       0.038397
     9013.068900       0.039544
     9021.199800       0.040710
     9029.345400       0.041896
     9037.505600       0.043103
     9045.680700       0.044329
     9053.870500       0.045575
     9062.075200       0.046842
     9070.294800       0.048129
     9078.529300       0.049437
     9086.778700       0.050765
     9095.043200       0.052114
     9103.322700       0.053484
     9111.617300       0.054874
     9119.927000       0.056285
     9128.251900       0.057718
     9136.592100       0.059171
     9144.947400       0.060646
     9153.318100       0.062142
     9161.704100       0.063659
     9170.105500       0.065198
     9178.522300       0.066758
     9186.954500       0.068340
     9195.402300       0.069944
     9203.865600       0.071569
     9212.344500       0.073217
     9220.839100       0.074886
     9229.349300       0.076578
     9237.875300       0.078292
     9246.417000       0.080028
     9254.974500       0.081786
     9263.547900       0.083567
     9272.137200       0.085370
     9280.742500       0.087195
     9289.363700       0.089043
     9298.000900       0.090914
     9306.654300       0.092808
     9315.323700       0.094724
     9324.009300       0.096663
     9332.711200       0.098626
     9341.429200       0.100611
     9350.163600       0.102619
     9358.914400       0.104650
     9367.681500       0.106705
     9376.465100       0.108783
     9385.265100       0.110884
     9394.081700       0.113008
     9402.914900       0.115156
     9411.764700       0.117327
     9420.631200       0.119522
     9429.514400       0.121740
     9438.414300       0.123981
     9447.331100       0.126246
     9456.264800       0.128535
     9465.215300       0.130847
     9474.182900       0.133183
     9483.167400       0.135543
     9492.169000       0.137926
     9501.187600       0.140333
     9510.223500       0.142764
     9519.276500       0.145218
     9528.346800       0.147697
     9537.434400       0.150199
     9546.539400       0.152724
     9555.661700       0.155274
     9564.801500       0.157847
     9573.958800       0.160444
     9583.133700       0.163064
     9592.326100       0.165709
     9601.536200       0.168377
     9610.764100       0.171068
     9620.009600       0.173784
     9629.273000       0.176523
     9638.554200       0.179285
     9647.853400       0.182071
     9657.170400       0.184881
     9666.505600       0.187714
     9675.858700       0.190570
     9685.230000       0.193450
     9694.619500       0.196353
     9704.027200       0.199279
     9713.453100       0.202229
     9722.897400       0.205202
     9732.360100       0.208198
     9741.841200       0.211216
     9751.340800       0.214258
     9760.859000       0.217323
     9770.395700       0.220410
     9779.951100       0.223520
     9789.525200       0.226652
     9799.118100       0.229807
     9808.729800       0.232984
     9818.360300       0.236184
     9828.009800       0.239406
     9837.678300       0.242649
     9847.365800       0.245915
     9857.072400       0.249202
     9866.798200       0.252512
     9876.543200       0.255842
     9886.307500       0.259194
     9896.091000       0.262568
     9905.894000       0.265962
     9915.716400       0.269378
     9925.558300       0.272814
     9935.419800       0.276271
     9945.300800       0.279748
     9955.201600       0.283246
     9965.122100       0.286764
     9975.062300       0.290301
     9985.022500       0.293859
     9995.002500       0.297437
    10005.002500       0.301034
    10015.022500       0.304650
    10025.062700       0.308285
    10035.122900       0.311939
    10045.203400       0.315611
    10055.304200       0.319303
    10065.425300       0.323012
    10075.566800       0.326739
    10085.728700       0.330485
    10095.911200       0.334248
    10106.114200       0.338028
    10116.337900       0.341825
    10126.582300       0.345639
    10136.847400       0.349470
    10147.133400       0.353317
    10157.440300       0.357181
    10167.768200       0.361060
    10178.117000       0.364955
    10188.487000       0.368865
    10198.878100       0.372791
    10209.290500       0.376732
    10219.724100       0.380686
    10230.179000       0.384656
    10240.655400       0.388639
    10251.153300       0.392636
    10261.672700       0.396647
    10272.213700       0.400671
    10282.776300       0.404707
    10293.360800       0.408757
    10303.967000       0.412818
    10314.595200       0.416891
    10325.245200       0.420977
    10335.917300       0.425073
    10346.611500       0.429181
    10357.327800       0.433299
    10368.066400       0.437428
    10378.827200       0.441567
    10389.610400       0.445715
    10400.416000       0.449873
    10411.244100       0.454040
    10422.094800       0.458216
    10432.968200       0.462400
    10443.864200       0.466593
    10454.783100       0.470793
    10465.724800       0.475000
    10476.689400       0.479215
    10487.677000       0.483436
    10498.687700       0.487664
    10509.721500       0.491897
    10520.778500       0.496136
    10531.858900       0.500380
    10542.962600       0.504629
    10554.089700       0.508883
    10565.240400       0.513141
    10576.414600       0.517402
    10587.612500       0.521667
    10598.834100       0.525935
    10610.079600       0.530206
    10621.348900       0.534478
    10632.642200       0.538753
    10643.959600       0.543029
    10655.301000       0.547306
    10666.666700       0.551584
    10678.056600       0.555862
    10689.470900       0.560140
    10700.909600       0.564418
    10712.372800       0.568695
    10723.860600       0.572970
    10735.373100       0.577244
    10746.910300       0.581516
    10758.472300       0.585785
    10770.059200       0.590052
    10781.671200       0.594315
    10793.308100       0.598574
    10804.970300       0.602830
    10816.657700       0.607081
    10828.370300       0.611327
    10840.108400       0.615568
    10851.871900       0.619803
    10863.661100       0.624032
    10875.475800       0.628255
    10887.316300       0.632470
    10899.182600       0.636679
    10911.074700       0.640880
    10922.992900       0.645072
    10934.937100       0.649256
    10946.907500       0.653431
    10958.904100       0.657597
    10970.927000       0.661753
    10982.976400       0.665899
    10995.052200       0.670034
    11007.154700       0.674159
    11019.283700       0.678272
    11031.439600       0.682373
    11043.622300       0.686462
    11055.832000       0.690539
    11068.068600       0.694602
    11080.332400       0.698653
    11092.623400       0.702689
    11104.941700       0.706711
    11117.287400       0.710719
    11129.660500       0.714712
    11142.061300       0.718690
    11154.489700       0.722651
    11166.945800       0.726597
    11179.429800       0.730526
    11191.941800       0.734439
    11204.481800       0.738334
    11217.049900       0.742211
    11229.646300       0.746070
    11242.270900       0.749911
    11254.924000       0.753734
    11267.605600       0.757537
    11280.315800       0.761320
    11293.054800       0.765084
    11305.822500       0.768827
    11318.619100       0.772550
    11331.444800       0.776252
    11344.299500       0.779932
    11357.183400       0.783591
    11370.096600       0.787228
    11383.039300       0.790842
    11396.011400       0.794434
    11409.013100       0.798002
    11422.044500       0.801547
    11435.105800       0.805069
    11448.196900       0.808566
    11461.318100       0.812038
    11474.469300       0.815486
    11487.650800       0.818909
    11500.862600       0.822307
    11514.104800       0.825679
    11527.377500       0.829024
    11540.680900       0.832344
    11554.015000       0.835637
    11567.380000       0.838903
    11580.775900       0.842141
    11594.202900       0.845352
    11607.661100       0.848536
    11621.150500       0.851691
    11634.671300       0.854818
    11648.223600       0.857916
    11661.807600       0.860985
    11675.423200       0.864025
    11689.070700       0.867036
    11702.750100       0.870017
    11716.461600       0.872968
    11730.205300       0.875889
    11743.981200       0.878779
    11757.789500       0.881638
    11771.630400       0.884467
    11785.503800       0.887265
    11799.410000       0.890031
    11813.349100       0.892765
    11827.321100       0.895468
    11841.326200       0.898138
    11855.364600       0.900777
    11869.436200       0.903383
    11883.541300       0.905956
    11897.680000       0.908497
    11911.852300       0.911004
    11926.058400       0.913479
    11940.298500       0.915920
    11954.572600       0.918327
    11968.880900       0.920701
    11983.223500       0.923041
    11997.600500       0.925347
    12012.012000       0.927619
    12026.458200       0.929857
    12040.939200       0.932060
    12055.455100       0.934229
    12070.006000       0.936363
    12084.592100       0.938462
    12099.213600       0.940527
    12113.870400       0.942556
    12128.562800       0.944551
    12143.290800       0.946510
    12158.054700       0.948434
    12172.854500       0.950323
    12187.690400       0.952176
    12202.562500       0.953994
    12217.471000       0.955776
    12232.415900       0.957523
    12247.397400       0.959234
    12262.415700       0.960909
    12277.470800       0.962549
    12292.563000       0.964152
    12307.692300       0.965721
    12322.858900       0.967253
    12338.062900       0.968749
    12353.304500       0.970210
    12368.583800       0.971634
    12383.900900       0.973023
    12399.256000       0.974376
    12414.649300       0.975694
    12430.080800       0.976975
    12445.550700       0.978221
    12461.059200       0.979431
    12476.606400       0.980605
    12492.192400       0.981744
    12507.817400       0.982847
    12523.481500       0.983915
    12539.185000       0.984947
    12554.927800       0.985944
    12570.710200       0.986906
    12586.532400       0.987832
    12602.394500       0.988723
    12618.296500       0.989579
    12634.238800       0.990400
    12650.221400       0.991187
    12666.244500       0.991938
    12682.308200       0.992656
    12698.412700       0.993338
    12714.558200       0.993986
    12730.744700       0.994601
    12746.972600       0.995181
    12763.241900       0.995727
    12779.552700       0.996239
    12795.905300       0.996718
    12812.299800       0.997164
    12828.736400       0.997576
    12845.215200       0.997955
    12861.736300       0.998301
    12878.300100       0.998615
    12894.906500       0.998896
    12911.555800       0.999145
    12928.248200       0.999361
    12944.983800       0.999546
    12961.762800       0.999699
    12978.585300       0.999821
    12995.451600       0.999912
    13012.361700       0.999971
    13029.316000       1.000000
    13046.314400       0.999998
    13063.357300       0.999966
    13080.444700       0.999905
    13097.576900       0.999813
    13114.754100       0.999692
    13131.976400       0.999542
    13149.243900       0.999363
    13166.556900       0.999155
    13183.915600       0.998919
    13201.320100       0.998654
    13218.770700       0.998362
    13236.267400       0.998043
    13253.810500       0.997696
    13271.400100       0.997323
    13289.036500       0.996923
    13306.719900       0.996496
    13324.450400       0.996044
    13342.228200       0.995566
    13360.053400       0.995063
    13377.926400       0.994535
    13395.847300       0.993982
    13413.816200       0.993405
    13431.833400       0.992805
    13449.899100       0.992180
    13468.013500       0.991533
    13486.176700       0.990862
    13504.388900       0.990169
    13522.650400       0.989454
    13540.961400       0.988717
    13559.322000       0.987959
    13577.732500       0.987179
    13596.193100       0.986379
    13614.703900       0.985559
    13633.265200       0.984718
    13651.877100       0.983859
    13670.540000       0.982980
    13689.253900       0.982082
    13708.019200       0.981166
    13726.836000       0.980232
    13745.704500       0.979280
    13764.624900       0.978311
    13783.597500       0.977325
    13802.622500       0.976323
    13821.700100       0.975305
    13840.830400       0.974272
    13860.013900       0.973223
    13879.250500       0.972159
    13898.540700       0.971081
    13917.884500       0.969989
    13937.282200       0.968884
    13956.734100       0.967765
    13976.240400       0.966634
    13995.801300       0.965490
    14015.417000       0.964335
    14035.087700       0.963168
    14054.813800       0.961990
    14074.595400       0.960802
    14094.432700       0.959603
    14114.326000       0.958394
    14134.275600       0.957176
    14154.281700       0.955950
    14174.344400       0.954714
    14194.464200       0.953471
    14214.641100       0.952220
    14234.875400       0.950961
    14255.167500       0.949696
    14275.517500       0.948424
    14295.925700       0.947147
    14316.392300       0.945863
    14336.917600       0.944575
    14357.501800       0.943281
    14378.145200       0.941984
    14398.848100       0.940682
    14419.610700       0.939377
    14440.433200       0.938069
    14461.316000       0.936758
    14482.259200       0.935445
    14503.263200       0.934130
    14524.328200       0.932813
    14545.454500       0.931495
    14566.642400       0.930177
    14587.892000       0.928858
    14609.203800       0.927539
    14630.577900       0.926221
    14652.014700       0.924904
    14673.514300       0.923588
    14695.077100       0.922273
    14716.703500       0.920961
    14738.393500       0.919651
    14760.147600       0.918343
    14781.966000       0.917039
    14803.849000       0.915739
    14825.796900       0.914442
    14847.809900       0.913149
    14869.888500       0.911861
    14892.032800       0.910578
    14914.243100       0.909300
    14936.519800       0.908028
    14958.863100       0.906762
    14981.273400       0.905501
    15003.750900       0.904248
    15026.296000       0.903002
    15048.909000       0.901762
    15071.590100       0.900531
    15094.339600       0.899307
    15117.158000       0.898091
    15140.045400       0.896884
    15163.002300       0.895686
    15186.028900       0.894497
    15209.125500       0.893317
    15232.292500       0.892146
    15255.530100       0.890986
    15278.838800       0.889836
    15302.218800       0.888696
    15325.670500       0.887567
    15349.194200       0.886448
    15372.790200       0.885341
    15396.458800       0.884246
    15420.200500       0.883162
    15444.015400       0.882089
    15467.904100       0.881029
    15491.866800       0.879981
    15515.903800       0.878946
    15540.015500       0.877923
    15564.202300       0.876913
    15588.464500       0.875916
    15612.802500       0.874933
    15637.216600       0.873962
    15661.707100       0.873005
    15686.274500       0.872062
    15710.919100       0.871133
    15735.641200       0.870217
    15760.441300       0.869316
    15785.319700       0.868429
    15810.276700       0.867556
    15835.312700       0.866698
    15860.428200       0.865854
    15885.623500       0.865024
    15910.899000       0.864209
    15936.255000       0.863409
    15961.691900       0.862624
    15987.210200       0.861853
    16012.810200       0.861098
    16038.492400       0.860357
    16064.257000       0.859631
    16090.104600       0.858920
    16116.035500       0.858224
    16142.050000       0.857543
    16168.148700       0.856877
    16194.332000       0.856226
    16220.600200       0.855590
    16246.953700       0.854968
    16273.393000       0.854361
    16299.918500       0.853769
    16326.530600       0.853192
    16353.229800       0.852629
    16380.016400       0.852081
    16406.890900       0.851547
    16433.853700       0.851027
    16460.905300       0.850521
    16488.046200       0.850030
    16515.276600       0.849552
    16542.597200       0.849088
    16570.008300       0.848638
    16597.510400       0.848201
    16625.103900       0.847777
    16652.789300       0.847366
    16680.567100       0.846969
    16708.437800       0.846583
    16736.401700       0.846211
    16764.459300       0.845850
    16792.611300       0.845501
    16820.857900       0.845164
    16849.199700       0.844839
    16877.637100       0.844524
    16906.170800       0.844221
    16934.801000       0.843928
    16963.528400       0.843645
    16992.353400       0.843372
    17021.276600       0.843109
    17050.298400       0.842856
    17079.419300       0.842611
    17108.639900       0.842375
    17137.960600       0.842147
    17167.382000       0.841927
    17196.904600       0.841714
    17226.528900       0.841509
    17256.255400       0.841310
    17286.084700       0.841118
