68,   68, MVIRI VIS channel from srf_MET5_1999258_1999259_1801-Release_S10EL_10.dat
Number of data points:
806
Wavenumber (cm-1)   Filter response
     8350.730700       0.000000
     8357.710000       0.000000
     8364.701000       0.000000
     8371.703600       0.000002
     8378.718100       0.000004
     8385.744200       0.000009
     8392.782200       0.000016
     8399.832000       0.000027
     8406.893700       0.000041
     8413.967200       0.000060
     8421.052600       0.000083
     8428.150000       0.000111
     8435.259400       0.000146
     8442.380800       0.000186
     8449.514200       0.000232
     8456.659600       0.000286
     8463.817200       0.000346
     8470.986900       0.000415
     8478.168700       0.000491
     8485.362700       0.000576
     8492.569000       0.000669
     8499.787500       0.000772
     8507.018300       0.000884
     8514.261400       0.001006
     8521.516800       0.001138
     8528.784600       0.001280
     8536.064900       0.001432
     8543.357500       0.001596
     8550.662700       0.001770
     8557.980300       0.001956
     8565.310500       0.002154
     8572.653200       0.002363
     8580.008600       0.002585
     8587.376600       0.002818
     8594.757200       0.003065
     8602.150500       0.003324
     8609.556600       0.003596
     8616.975400       0.003881
     8624.407100       0.004179
     8631.851500       0.004491
     8639.308900       0.004817
     8646.779100       0.005156
     8654.262200       0.005510
     8661.758300       0.005878
     8669.267400       0.006260
     8676.789600       0.006656
     8684.324800       0.007068
     8691.873100       0.007494
     8699.434500       0.007935
     8707.009100       0.008392
     8714.596900       0.008863
     8722.198000       0.009350
     8729.812300       0.009853
     8737.439900       0.010371
     8745.080900       0.010905
     8752.735200       0.011455
     8760.403000       0.012022
     8768.084200       0.012604
     8775.778900       0.013203
     8783.487000       0.013818
     8791.208800       0.014450
     8798.944100       0.015098
     8806.693100       0.015764
     8814.455700       0.016446
     8822.232000       0.017145
     8830.022100       0.017862
     8837.825900       0.018595
     8845.643500       0.019346
     8853.475000       0.020115
     8861.320300       0.020901
     8869.179600       0.021705
     8877.052800       0.022527
     8884.940000       0.023367
     8892.841300       0.024224
     8900.756600       0.025100
     8908.686000       0.025994
     8916.629500       0.026907
     8924.587200       0.027838
     8932.559200       0.028787
     8940.545400       0.029756
     8948.545900       0.030742
     8956.560700       0.031748
     8964.589900       0.032773
     8972.633500       0.033817
     8980.691500       0.034880
     8988.764000       0.035963
     8996.851100       0.037064
     9004.952700       0.038185
     9013.068900       0.039326
     9021.199800       0.040487
     9029.345400       0.041667
     9037.505600       0.042867
     9045.680700       0.044087
     9053.870500       0.045328
     9062.075200       0.046588
     9070.294800       0.047869
     9078.529300       0.049170
     9086.778700       0.050491
     9095.043200       0.051834
     9103.322700       0.053196
     9111.617300       0.054580
     9119.927000       0.055984
     9128.251900       0.057410
     9136.592100       0.058856
     9144.947400       0.060323
     9153.318100       0.061812
     9161.704100       0.063322
     9170.105500       0.064854
     9178.522300       0.066407
     9186.954500       0.067981
     9195.402300       0.069577
     9203.865600       0.071195
     9212.344500       0.072835
     9220.839100       0.074497
     9229.349300       0.076180
     9237.875300       0.077886
     9246.417000       0.079614
     9254.974500       0.081364
     9263.547900       0.083136
     9272.137200       0.084931
     9280.742500       0.086748
     9289.363700       0.088588
     9298.000900       0.090451
     9306.654300       0.092336
     9315.323700       0.094243
     9324.009300       0.096174
     9332.711200       0.098128
     9341.429200       0.100104
     9350.163600       0.102103
     9358.914400       0.104126
     9367.681500       0.106171
     9376.465100       0.108240
     9385.265100       0.110332
     9394.081700       0.112447
     9402.914900       0.114585
     9411.764700       0.116747
     9420.631200       0.118932
     9429.514400       0.121141
     9438.414300       0.123373
     9447.331100       0.125629
     9456.264800       0.127908
     9465.215300       0.130211
     9474.182900       0.132537
     9483.167400       0.134887
     9492.169000       0.137260
     9501.187600       0.139657
     9510.223500       0.142078
     9519.276500       0.144522
     9528.346800       0.146991
     9537.434400       0.149483
     9546.539400       0.151998
     9555.661700       0.154538
     9564.801500       0.157100
     9573.958800       0.159687
     9583.133700       0.162298
     9592.326100       0.164931
     9601.536200       0.167589
     9610.764100       0.170270
     9620.009600       0.172975
     9629.273000       0.175704
     9638.554200       0.178456
     9647.853400       0.181231
     9657.170400       0.184030
     9666.505600       0.186853
     9675.858700       0.189699
     9685.230000       0.192568
     9694.619500       0.195460
     9704.027200       0.198376
     9713.453100       0.201315
     9722.897400       0.204277
     9732.360100       0.207262
     9741.841200       0.210270
     9751.340800       0.213300
     9760.859000       0.216354
     9770.395700       0.219431
     9779.951100       0.222530
     9789.525200       0.225651
     9799.118100       0.228796
     9808.729800       0.231962
     9818.360300       0.235151
     9828.009800       0.238361
     9837.678300       0.241594
     9847.365800       0.244849
     9857.072400       0.248126
     9866.798200       0.251424
     9876.543200       0.254744
     9886.307500       0.258085
     9896.091000       0.261448
     9905.894000       0.264831
     9915.716400       0.268236
     9925.558300       0.271661
     9935.419800       0.275107
     9945.300800       0.278574
     9955.201600       0.282060
     9965.122100       0.285568
     9975.062300       0.289095
     9985.022500       0.292642
     9995.002500       0.296209
    10005.002500       0.299795
    10015.022500       0.303400
    10025.062700       0.307025
    10035.122900       0.310668
    10045.203400       0.314330
    10055.304200       0.318011
    10065.425300       0.321710
    10075.566800       0.325427
    10085.728700       0.329162
    10095.911200       0.332914
    10106.114200       0.336684
    10116.337900       0.340471
    10126.582300       0.344275
    10136.847400       0.348096
    10147.133400       0.351933
    10157.440300       0.355787
    10167.768200       0.359656
    10178.117000       0.363541
    10188.487000       0.367442
    10198.878100       0.371358
    10209.290500       0.375288
    10219.724100       0.379234
    10230.179000       0.383193
    10240.655400       0.387168
    10251.153300       0.391155
    10261.672700       0.395156
    10272.213700       0.399171
    10282.776300       0.403198
    10293.360800       0.407239
    10303.967000       0.411291
    10314.595200       0.415356
    10325.245200       0.419432
    10335.917300       0.423520
    10346.611500       0.427619
    10357.327800       0.431729
    10368.066400       0.435849
    10378.827200       0.439979
    10389.610400       0.444120
    10400.416000       0.448270
    10411.244100       0.452429
    10422.094800       0.456596
    10432.968200       0.460773
    10443.864200       0.464958
    10454.783100       0.469150
    10465.724800       0.473350
    10476.689400       0.477557
    10487.677000       0.481771
    10498.687700       0.485992
    10509.721500       0.490218
    10520.778500       0.494450
    10531.858900       0.498688
    10542.962600       0.502930
    10554.089700       0.507177
    10565.240400       0.511429
    10576.414600       0.515684
    10587.612500       0.519943
    10598.834100       0.524205
    10610.079600       0.528470
    10621.348900       0.532737
    10632.642200       0.537006
    10643.959600       0.541277
    10655.301000       0.545549
    10666.666700       0.549821
    10678.056600       0.554095
    10689.470900       0.558368
    10700.909600       0.562641
    10712.372800       0.566913
    10723.860600       0.571185
    10735.373100       0.575454
    10746.910300       0.579722
    10758.472300       0.583988
    10770.059200       0.588250
    10781.671200       0.592510
    10793.308100       0.596766
    10804.970300       0.601019
    10816.657700       0.605267
    10828.370300       0.609510
    10840.108400       0.613748
    10851.871900       0.617981
    10863.661100       0.622208
    10875.475800       0.626428
    10887.316300       0.630642
    10899.182600       0.634848
    10911.074700       0.639048
    10922.992900       0.643239
    10934.937100       0.647422
    10946.907500       0.651596
    10958.904100       0.655761
    10970.927000       0.659916
    10982.976400       0.664062
    10995.052200       0.668197
    11007.154700       0.672321
    11019.283700       0.676434
    11031.439600       0.680536
    11043.622300       0.684625
    11055.832000       0.688702
    11068.068600       0.692767
    11080.332400       0.696818
    11092.623400       0.700856
    11104.941700       0.704880
    11117.287400       0.708889
    11129.660500       0.712884
    11142.061300       0.716864
    11154.489700       0.720828
    11166.945800       0.724776
    11179.429800       0.728708
    11191.941800       0.732623
    11204.481800       0.736521
    11217.049900       0.740402
    11229.646300       0.744264
    11242.270900       0.748109
    11254.924000       0.751935
    11267.605600       0.755742
    11280.315800       0.759530
    11293.054800       0.763298
    11305.822500       0.767046
    11318.619100       0.770774
    11331.444800       0.774481
    11344.299500       0.778167
    11357.183400       0.781831
    11370.096600       0.785473
    11383.039300       0.789093
    11396.011400       0.792691
    11409.013100       0.796266
    11422.044500       0.799817
    11435.105800       0.803346
    11448.196900       0.806850
    11461.318100       0.810329
    11474.469300       0.813785
    11487.650800       0.817215
    11500.862600       0.820621
    11514.104800       0.824000
    11527.377500       0.827354
    11540.680900       0.830682
    11554.015000       0.833984
    11567.380000       0.837258
    11580.775900       0.840506
    11594.202900       0.843726
    11607.661100       0.846919
    11621.150500       0.850084
    11634.671300       0.853220
    11648.223600       0.856328
    11661.807600       0.859408
    11675.423200       0.862458
    11689.070700       0.865479
    11702.750100       0.868471
    11716.461600       0.871433
    11730.205300       0.874365
    11743.981200       0.877266
    11757.789500       0.880137
    11771.630400       0.882978
    11785.503800       0.885787
    11799.410000       0.888565
    11813.349100       0.891312
    11827.321100       0.894027
    11841.326200       0.896711
    11855.364600       0.899362
    11869.436200       0.901981
    11883.541300       0.904567
    11897.680000       0.907121
    11911.852300       0.909642
    11926.058400       0.912130
    11940.298500       0.914586
    11954.572600       0.917007
    11968.880900       0.919395
    11983.223500       0.921750
    11997.600500       0.924070
    12012.012000       0.926357
    12026.458200       0.928610
    12040.939200       0.930828
    12055.455100       0.933012
    12070.006000       0.935162
    12084.592100       0.937277
    12099.213600       0.939357
    12113.870400       0.941402
    12128.562800       0.943413
    12143.290800       0.945388
    12158.054700       0.947329
    12172.854500       0.949234
    12187.690400       0.951104
    12202.562500       0.952939
    12217.471000       0.954738
    12232.415900       0.956502
    12247.397400       0.958230
    12262.415700       0.959923
    12277.470800       0.961580
    12292.563000       0.963202
    12307.692300       0.964787
    12322.858900       0.966338
    12338.062900       0.967852
    12353.304500       0.969331
    12368.583800       0.970774
    12383.900900       0.972181
    12399.256000       0.973553
    12414.649300       0.974889
    12430.080800       0.976190
    12445.550700       0.977454
    12461.059200       0.978684
    12476.606400       0.979877
    12492.192400       0.981035
    12507.817400       0.982158
    12523.481500       0.983245
    12539.185000       0.984297
    12554.927800       0.985314
    12570.710200       0.986295
    12586.532400       0.987241
    12602.394500       0.988152
    12618.296500       0.989029
    12634.238800       0.989870
    12650.221400       0.990677
    12666.244500       0.991449
    12682.308200       0.992187
    12698.412700       0.992890
    12714.558200       0.993559
    12730.744700       0.994194
    12746.972600       0.994795
    12763.241900       0.995362
    12779.552700       0.995896
    12795.905300       0.996396
    12812.299800       0.996862
    12828.736400       0.997296
    12845.215200       0.997696
    12861.736300       0.998064
    12878.300100       0.998399
    12894.906500       0.998701
    12911.555800       0.998972
    12928.248200       0.999210
    12944.983800       0.999417
    12961.762800       0.999592
    12978.585300       0.999735
    12995.451600       0.999847
    13012.361700       0.999929
    13029.316000       0.999980
    13046.314400       1.000000
    13063.357300       0.999990
    13080.444700       0.999950
    13097.576900       0.999881
    13114.754100       0.999782
    13131.976400       0.999654
    13149.243900       0.999497
    13166.556900       0.999311
    13183.915600       0.999097
    13201.320100       0.998855
    13218.770700       0.998586
    13236.267400       0.998289
    13253.810500       0.997964
    13271.400100       0.997613
    13289.036500       0.997236
    13306.719900       0.996832
    13324.450400       0.996402
    13342.228200       0.995947
    13360.053400       0.995466
    13377.926400       0.994960
    13395.847300       0.994430
    13413.816200       0.993876
    13431.833400       0.993297
    13449.899100       0.992695
    13468.013500       0.992070
    13486.176700       0.991422
    13504.388900       0.990752
    13522.650400       0.990059
    13540.961400       0.989345
    13559.322000       0.988609
    13577.732500       0.987852
    13596.193100       0.987074
    13614.703900       0.986277
    13633.265200       0.985459
    13651.877100       0.984621
    13670.540000       0.983765
    13689.253900       0.982889
    13708.019200       0.981996
    13726.836000       0.981084
    13745.704500       0.980155
    13764.624900       0.979208
    13783.597500       0.978245
    13802.622500       0.977265
    13821.700100       0.976270
    13840.830400       0.975258
    13860.013900       0.974232
    13879.250500       0.973190
    13898.540700       0.972135
    13917.884500       0.971065
    13937.282200       0.969982
    13956.734100       0.968886
    13976.240400       0.967777
    13995.801300       0.966655
    14015.417000       0.965522
    14035.087700       0.964377
    14054.813800       0.963221
    14074.595400       0.962055
    14094.432700       0.960878
    14114.326000       0.959691
    14134.275600       0.958496
    14154.281700       0.957291
    14174.344400       0.956077
    14194.464200       0.954856
    14214.641100       0.953626
    14234.875400       0.952390
    14255.167500       0.951146
    14275.517500       0.949896
    14295.925700       0.948640
    14316.392300       0.947379
    14336.917600       0.946112
    14357.501800       0.944840
    14378.145200       0.943565
    14398.848100       0.942285
    14419.610700       0.941001
    14440.433200       0.939714
    14461.316000       0.938425
    14482.259200       0.937133
    14503.263200       0.935840
    14524.328200       0.934545
    14545.454500       0.933248
    14566.642400       0.931951
    14587.892000       0.930654
    14609.203800       0.929357
    14630.577900       0.928060
    14652.014700       0.926764
    14673.514300       0.925469
    14695.077100       0.924176
    14716.703500       0.922885
    14738.393500       0.921596
    14760.147600       0.920310
    14781.966000       0.919027
    14803.849000       0.917748
    14825.796900       0.916472
    14847.809900       0.915201
    14869.888500       0.913934
    14892.032800       0.912672
    14914.243100       0.911415
    14936.519800       0.910164
    14958.863100       0.908919
    14981.273400       0.907680
    15003.750900       0.906448
    15026.296000       0.905223
    15048.909000       0.904005
    15071.590100       0.902794
    15094.339600       0.901592
    15117.158000       0.900397
    15140.045400       0.899211
    15163.002300       0.898034
    15186.028900       0.896866
    15209.125500       0.895707
    15232.292500       0.894558
    15255.530100       0.893419
    15278.838800       0.892290
    15302.218800       0.891171
    15325.670500       0.890063
    15349.194200       0.888966
    15372.790200       0.887881
    15396.458800       0.886806
    15420.200500       0.885743
    15444.015400       0.884693
    15467.904100       0.883654
    15491.866800       0.882627
    15515.903800       0.881613
    15540.015500       0.880612
    15564.202300       0.879624
    15588.464500       0.878648
    15612.802500       0.877686
    15637.216600       0.876737
    15661.707100       0.875802
    15686.274500       0.874881
    15710.919100       0.873973
    15735.641200       0.873079
    15760.441300       0.872200
    15785.319700       0.871335
    15810.276700       0.870484
    15835.312700       0.869647
    15860.428200       0.868825
    15885.623500       0.868018
    15910.899000       0.867225
    15936.255000       0.866447
    15961.691900       0.865684
    15987.210200       0.864936
    16012.810200       0.864202
    16038.492400       0.863484
    16064.257000       0.862781
    16090.104600       0.862092
    16116.035500       0.861419
    16142.050000       0.860760
    16168.148700       0.860117
    16194.332000       0.859489
    16220.600200       0.858875
    16246.953700       0.858276
    16273.393000       0.857693
    16299.918500       0.857124
    16326.530600       0.856569
    16353.229800       0.856030
    16380.016400       0.855505
    16406.890900       0.854994
    16433.853700       0.854498
    16460.905300       0.854016
    16488.046200       0.853548
    16515.276600       0.853094
    16542.597200       0.852653
    16570.008300       0.852227
    16597.510400       0.851814
    16625.103900       0.851414
    16652.789300       0.851027
    16680.567100       0.850653
    16708.437800       0.850292
    16736.401700       0.849944
    16764.459300       0.849608
    16792.611300       0.849283
    16820.857900       0.848971
    16849.199700       0.848670
    16877.637100       0.848380
    16906.170800       0.848101
    16934.801000       0.847833
    16963.528400       0.847576
    16992.353400       0.847328
    17021.276600       0.847090
    17050.298400       0.846862
    17079.419300       0.846642
    17108.639900       0.846431
    17137.960600       0.846229
    17167.382000       0.846034
    17196.904600       0.845848
    17226.528900       0.845668
    17256.255400       0.845495
    17286.084700       0.845328
