  12  ,noaa_10_hirs_12.flt
Number of data points:
100
Wavenumber (cm-1)   Filter response
     1379.900000       0.000000
     1390.100000       0.005283
     1396.400000       0.007282
     1402.300000       0.008927
     1409.000000       0.010813
     1413.600000       0.012223
     1417.500000       0.012926
     1420.800000       0.015710
     1422.600000       0.028935
     1425.300000       0.040627
     1427.500000       0.065390
     1429.300000       0.096953
     1430.700000       0.120900
     1431.800000       0.153490
     1433.400000       0.200900
     1434.500000       0.244150
     1435.400000       0.273180
     1436.400000       0.328990
     1437.700000       0.397640
     1439.600000       0.525000
     1440.900000       0.588390
     1442.700000       0.658350
     1444.500000       0.718400
     1445.900000       0.762640
     1447.500000       0.800090
     1448.500000       0.810100
     1450.300000       0.819050
     1452.400000       0.809160
     1454.700000       0.799590
     1456.900000       0.787660
     1459.300000       0.774740
     1462.300000       0.762350
     1464.600000       0.762480
     1466.600000       0.765270
     1468.900000       0.783630
     1470.400000       0.798160
     1471.800000       0.823070
     1473.700000       0.851440
     1475.700000       0.889590
     1477.200000       0.918170
     1479.300000       0.958990
     1480.400000       0.978460
     1481.900000       0.993630
     1483.000000       1.000000
     1484.300000       0.999660
     1485.700000       0.997270
     1487.000000       0.989530
     1488.700000       0.972100
     1489.900000       0.956480
     1491.900000       0.931340
     1493.300000       0.918140
     1495.500000       0.909140
     1498.300000       0.901420
     1500.500000       0.900960
     1501.900000       0.896880
     1503.600000       0.887590
     1505.100000       0.873030
     1506.700000       0.840680
     1507.400000       0.821720
     1508.400000       0.788440
     1509.600000       0.755110
     1510.800000       0.719070
     1511.500000       0.694880
     1512.200000       0.665890
     1514.100000       0.617650
     1515.700000       0.573500
     1517.500000       0.534160
     1519.200000       0.500930
     1520.300000       0.483860
     1521.700000       0.472440
     1522.700000       0.470970
     1523.300000       0.476090
     1523.700000       0.486080
     1524.900000       0.500930
     1526.300000       0.534390
     1527.000000       0.555050
     1527.900000       0.580400
     1528.500000       0.603420
     1529.200000       0.620270
     1530.000000       0.630360
     1530.800000       0.638020
     1531.200000       0.629520
     1531.900000       0.588800
     1532.800000       0.518330
     1533.400000       0.451710
     1534.100000       0.405630
     1534.600000       0.324470
     1535.300000       0.263710
     1536.800000       0.173130
     1538.600000       0.092068
     1539.400000       0.065604
     1541.000000       0.045310
     1542.200000       0.030986
     1543.900000       0.020903
     1545.900000       0.014414
     1548.200000       0.008222
     1550.000000       0.007143
     1557.800000       0.004295
     1566.900000       0.001398
     1580.200000       0.000000
