106,   106, MVIRI VIS channel from srf_MET5_2004168_2004169_1801-Release_S10EL_10.dat
Number of data points:
806
Wavenumber (cm-1)   Filter response
     8350.730700       0.000000
     8357.710000       0.000000
     8364.701000       0.000000
     8371.703600       0.000002
     8378.718100       0.000004
     8385.744200       0.000009
     8392.782200       0.000017
     8399.832000       0.000028
     8406.893700       0.000042
     8413.967200       0.000061
     8421.052600       0.000085
     8428.150000       0.000114
     8435.259400       0.000149
     8442.380800       0.000190
     8449.514200       0.000238
     8456.659600       0.000292
     8463.817200       0.000355
     8470.986900       0.000425
     8478.168700       0.000503
     8485.362700       0.000590
     8492.569000       0.000686
     8499.787500       0.000791
     8507.018300       0.000905
     8514.261400       0.001030
     8521.516800       0.001165
     8528.784600       0.001310
     8536.064900       0.001466
     8543.357500       0.001634
     8550.662700       0.001812
     8557.980300       0.002002
     8565.310500       0.002205
     8572.653200       0.002419
     8580.008600       0.002645
     8587.376600       0.002884
     8594.757200       0.003136
     8602.150500       0.003401
     8609.556600       0.003680
     8616.975400       0.003971
     8624.407100       0.004276
     8631.851500       0.004595
     8639.308900       0.004928
     8646.779100       0.005276
     8654.262200       0.005637
     8661.758300       0.006013
     8669.267400       0.006404
     8676.789600       0.006809
     8684.324800       0.007230
     8691.873100       0.007665
     8699.434500       0.008117
     8707.009100       0.008583
     8714.596900       0.009065
     8722.198000       0.009563
     8729.812300       0.010076
     8737.439900       0.010606
     8745.080900       0.011152
     8752.735200       0.011714
     8760.403000       0.012292
     8768.084200       0.012887
     8775.778900       0.013499
     8783.487000       0.014128
     8791.208800       0.014773
     8798.944100       0.015435
     8806.693100       0.016115
     8814.455700       0.016811
     8822.232000       0.017526
     8830.022100       0.018257
     8837.825900       0.019006
     8845.643500       0.019773
     8853.475000       0.020558
     8861.320300       0.021361
     8869.179600       0.022181
     8877.052800       0.023020
     8884.940000       0.023877
     8892.841300       0.024753
     8900.756600       0.025646
     8908.686000       0.026559
     8916.629500       0.027490
     8924.587200       0.028440
     8932.559200       0.029409
     8940.545400       0.030397
     8948.545900       0.031404
     8956.560700       0.032430
     8964.589900       0.033475
     8972.633500       0.034540
     8980.691500       0.035624
     8988.764000       0.036728
     8996.851100       0.037852
     9004.952700       0.038995
     9013.068900       0.040158
     9021.199800       0.041341
     9029.345400       0.042545
     9037.505600       0.043768
     9045.680700       0.045012
     9053.870500       0.046276
     9062.075200       0.047561
     9070.294800       0.048867
     9078.529300       0.050193
     9086.778700       0.051539
     9095.043200       0.052907
     9103.322700       0.054296
     9111.617300       0.055705
     9119.927000       0.057136
     9128.251900       0.058588
     9136.592100       0.060062
     9144.947400       0.061556
     9153.318100       0.063073
     9161.704100       0.064611
     9170.105500       0.066170
     9178.522300       0.067752
     9186.954500       0.069355
     9195.402300       0.070980
     9203.865600       0.072627
     9212.344500       0.074297
     9220.839100       0.075988
     9229.349300       0.077702
     9237.875300       0.079438
     9246.417000       0.081197
     9254.974500       0.082978
     9263.547900       0.084782
     9272.137200       0.086608
     9280.742500       0.088457
     9289.363700       0.090329
     9298.000900       0.092224
     9306.654300       0.094142
     9315.323700       0.096082
     9324.009300       0.098046
     9332.711200       0.100033
     9341.429200       0.102043
     9350.163600       0.104076
     9358.914400       0.106133
     9367.681500       0.108213
     9376.465100       0.110316
     9385.265100       0.112443
     9394.081700       0.114593
     9402.914900       0.116767
     9411.764700       0.118964
     9420.631200       0.121185
     9429.514400       0.123429
     9438.414300       0.125698
     9447.331100       0.127990
     9456.264800       0.130305
     9465.215300       0.132645
     9474.182900       0.135008
     9483.167400       0.137395
     9492.169000       0.139806
     9501.187600       0.142241
     9510.223500       0.144700
     9519.276500       0.147182
     9528.346800       0.149689
     9537.434400       0.152219
     9546.539400       0.154773
     9555.661700       0.157351
     9564.801500       0.159953
     9573.958800       0.162578
     9583.133700       0.165228
     9592.326100       0.167901
     9601.536200       0.170598
     9610.764100       0.173319
     9620.009600       0.176064
     9629.273000       0.178832
     9638.554200       0.181624
     9647.853400       0.184440
     9657.170400       0.187279
     9666.505600       0.190142
     9675.858700       0.193028
     9685.230000       0.195938
     9694.619500       0.198871
     9704.027200       0.201827
     9713.453100       0.204807
     9722.897400       0.207810
     9732.360100       0.210836
     9741.841200       0.213885
     9751.340800       0.216957
     9760.859000       0.220052
     9770.395700       0.223169
     9779.951100       0.226309
     9789.525200       0.229472
     9799.118100       0.232658
     9808.729800       0.235866
     9818.360300       0.239096
     9828.009800       0.242348
     9837.678300       0.245622
     9847.365800       0.248918
     9857.072400       0.252236
     9866.798200       0.255576
     9876.543200       0.258937
     9886.307500       0.262319
     9896.091000       0.265723
     9905.894000       0.269148
     9915.716400       0.272594
     9925.558300       0.276060
     9935.419800       0.279547
     9945.300800       0.283055
     9955.201600       0.286583
     9965.122100       0.290131
     9975.062300       0.293699
     9985.022500       0.297287
     9995.002500       0.300894
    10005.002500       0.304521
    10015.022500       0.308166
    10025.062700       0.311831
    10035.122900       0.315515
    10045.203400       0.319217
    10055.304200       0.322937
    10065.425300       0.326676
    10075.566800       0.330432
    10085.728700       0.334206
    10095.911200       0.337998
    10106.114200       0.341807
    10116.337900       0.345633
    10126.582300       0.349476
    10136.847400       0.353335
    10147.133400       0.357210
    10157.440300       0.361101
    10167.768200       0.365009
    10178.117000       0.368931
    10188.487000       0.372869
    10198.878100       0.376822
    10209.290500       0.380789
    10219.724100       0.384771
    10230.179000       0.388767
    10240.655400       0.392777
    10251.153300       0.396800
    10261.672700       0.400836
    10272.213700       0.404886
    10282.776300       0.408948
    10293.360800       0.413023
    10303.967000       0.417109
    10314.595200       0.421207
    10325.245200       0.425317
    10335.917300       0.429438
    10346.611500       0.433569
    10357.327800       0.437711
    10368.066400       0.441863
    10378.827200       0.446025
    10389.610400       0.450197
    10400.416000       0.454377
    10411.244100       0.458567
    10422.094800       0.462764
    10432.968200       0.466970
    10443.864200       0.471184
    10454.783100       0.475405
    10465.724800       0.479633
    10476.689400       0.483868
    10487.677000       0.488109
    10498.687700       0.492356
    10509.721500       0.496609
    10520.778500       0.500867
    10531.858900       0.505130
    10542.962600       0.509397
    10554.089700       0.513668
    10565.240400       0.517944
    10576.414600       0.522222
    10587.612500       0.526504
    10598.834100       0.530788
    10610.079600       0.535074
    10621.348900       0.539362
    10632.642200       0.543652
    10643.959600       0.547943
    10655.301000       0.552234
    10666.666700       0.556526
    10678.056600       0.560817
    10689.470900       0.565108
    10700.909600       0.569399
    10712.372800       0.573688
    10723.860600       0.577975
    10735.373100       0.582260
    10746.910300       0.586542
    10758.472300       0.590822
    10770.059200       0.595098
    10781.671200       0.599370
    10793.308100       0.603639
    10804.970300       0.607903
    10816.657700       0.612161
    10828.370300       0.616415
    10840.108400       0.620663
    10851.871900       0.624904
    10863.661100       0.629139
    10875.475800       0.633367
    10887.316300       0.637588
    10899.182600       0.641801
    10911.074700       0.646005
    10922.992900       0.650201
    10934.937100       0.654388
    10946.907500       0.658566
    10958.904100       0.662733
    10970.927000       0.666891
    10982.976400       0.671037
    10995.052200       0.675173
    11007.154700       0.679297
    11019.283700       0.683409
    11031.439600       0.687509
    11043.622300       0.691596
    11055.832000       0.695670
    11068.068600       0.699731
    11080.332400       0.703778
    11092.623400       0.707810
    11104.941700       0.711828
    11117.287400       0.715830
    11129.660500       0.719817
    11142.061300       0.723789
    11154.489700       0.727744
    11166.945800       0.731682
    11179.429800       0.735603
    11191.941800       0.739507
    11204.481800       0.743393
    11217.049900       0.747260
    11229.646300       0.751109
    11242.270900       0.754939
    11254.924000       0.758750
    11267.605600       0.762541
    11280.315800       0.766312
    11293.054800       0.770063
    11305.822500       0.773792
    11318.619100       0.777501
    11331.444800       0.781188
    11344.299500       0.784853
    11357.183400       0.788495
    11370.096600       0.792116
    11383.039300       0.795713
    11396.011400       0.799286
    11409.013100       0.802837
    11422.044500       0.806363
    11435.105800       0.809865
    11448.196900       0.813342
    11461.318100       0.816794
    11474.469300       0.820220
    11487.650800       0.823622
    11500.862600       0.826997
    11514.104800       0.830346
    11527.377500       0.833668
    11540.680900       0.836963
    11554.015000       0.840232
    11567.380000       0.843472
    11580.775900       0.846685
    11594.202900       0.849870
    11607.661100       0.853026
    11621.150500       0.856154
    11634.671300       0.859253
    11648.223600       0.862323
    11661.807600       0.865363
    11675.423200       0.868373
    11689.070700       0.871354
    11702.750100       0.874304
    11716.461600       0.877223
    11730.205300       0.880112
    11743.981200       0.882970
    11757.789500       0.885797
    11771.630400       0.888592
    11785.503800       0.891355
    11799.410000       0.894087
    11813.349100       0.896786
    11827.321100       0.899453
    11841.326200       0.902088
    11855.364600       0.904690
    11869.436200       0.907259
    11883.541300       0.909794
    11897.680000       0.912297
    11911.852300       0.914765
    11926.058400       0.917201
    11940.298500       0.919602
    11954.572600       0.921970
    11968.880900       0.924303
    11983.223500       0.926602
    11997.600500       0.928866
    12012.012000       0.931096
    12026.458200       0.933291
    12040.939200       0.935451
    12055.455100       0.937577
    12070.006000       0.939667
    12084.592100       0.941722
    12099.213600       0.943741
    12113.870400       0.945726
    12128.562800       0.947674
    12143.290800       0.949588
    12158.054700       0.951465
    12172.854500       0.953307
    12187.690400       0.955112
    12202.562500       0.956882
    12217.471000       0.958617
    12232.415900       0.960315
    12247.397400       0.961976
    12262.415700       0.963602
    12277.470800       0.965192
    12292.563000       0.966746
    12307.692300       0.968263
    12322.858900       0.969744
    12338.062900       0.971189
    12353.304500       0.972598
    12368.583800       0.973971
    12383.900900       0.975308
    12399.256000       0.976608
    12414.649300       0.977872
    12430.080800       0.979100
    12445.550700       0.980292
    12461.059200       0.981448
    12476.606400       0.982568
    12492.192400       0.983652
    12507.817400       0.984700
    12523.481500       0.985713
    12539.185000       0.986689
    12554.927800       0.987630
    12570.710200       0.988535
    12586.532400       0.989405
    12602.394500       0.990240
    12618.296500       0.991039
    12634.238800       0.991803
    12650.221400       0.992532
    12666.244500       0.993225
    12682.308200       0.993885
    12698.412700       0.994509
    12714.558200       0.995099
    12730.744700       0.995654
    12746.972600       0.996175
    12763.241900       0.996662
    12779.552700       0.997115
    12795.905300       0.997535
    12812.299800       0.997920
    12828.736400       0.998273
    12845.215200       0.998592
    12861.736300       0.998878
    12878.300100       0.999131
    12894.906500       0.999351
    12911.555800       0.999539
    12928.248200       0.999695
    12944.983800       0.999819
    12961.762800       0.999911
    12978.585300       0.999971
    12995.451600       1.000000
    13012.361700       0.999998
    13029.316000       0.999965
    13046.314400       0.999901
    13063.357300       0.999808
    13080.444700       0.999684
    13097.576900       0.999530
    13114.754100       0.999346
    13131.976400       0.999134
    13149.243900       0.998892
    13166.556900       0.998622
    13183.915600       0.998323
    13201.320100       0.997996
    13218.770700       0.997641
    13236.267400       0.997259
    13253.810500       0.996849
    13271.400100       0.996413
    13289.036500       0.995950
    13306.719900       0.995461
    13324.450400       0.994945
    13342.228200       0.994404
    13360.053400       0.993838
    13377.926400       0.993247
    13395.847300       0.992631
    13413.816200       0.991991
    13431.833400       0.991327
    13449.899100       0.990640
    13468.013500       0.989929
    13486.176700       0.989195
    13504.388900       0.988439
    13522.650400       0.987660
    13540.961400       0.986860
    13559.322000       0.986039
    13577.732500       0.985196
    13596.193100       0.984333
    13614.703900       0.983450
    13633.265200       0.982546
    13651.877100       0.981624
    13670.540000       0.980682
    13689.253900       0.979721
    13708.019200       0.978742
    13726.836000       0.977745
    13745.704500       0.976730
    13764.624900       0.975699
    13783.597500       0.974650
    13802.622500       0.973586
    13821.700100       0.972505
    13840.830400       0.971409
    13860.013900       0.970298
    13879.250500       0.969172
    13898.540700       0.968031
    13917.884500       0.966877
    13937.282200       0.965710
    13956.734100       0.964529
    13976.240400       0.963336
    13995.801300       0.962130
    14015.417000       0.960913
    14035.087700       0.959684
    14054.813800       0.958445
    14074.595400       0.957194
    14094.432700       0.955934
    14114.326000       0.954664
    14134.275600       0.953385
    14154.281700       0.952096
    14174.344400       0.950800
    14194.464200       0.949495
    14214.641100       0.948183
    14234.875400       0.946864
    14255.167500       0.945537
    14275.517500       0.944205
    14295.925700       0.942866
    14316.392300       0.941522
    14336.917600       0.940173
    14357.501800       0.938819
    14378.145200       0.937461
    14398.848100       0.936099
    14419.610700       0.934734
    14440.433200       0.933366
    14461.316000       0.931994
    14482.259200       0.930621
    14503.263200       0.929246
    14524.328200       0.927869
    14545.454500       0.926492
    14566.642400       0.925114
    14587.892000       0.923735
    14609.203800       0.922357
    14630.577900       0.920979
    14652.014700       0.919602
    14673.514300       0.918227
    14695.077100       0.916853
    14716.703500       0.915481
    14738.393500       0.914112
    14760.147600       0.912745
    14781.966000       0.911382
    14803.849000       0.910022
    14825.796900       0.908666
    14847.809900       0.907314
    14869.888500       0.905967
    14892.032800       0.904625
    14914.243100       0.903288
    14936.519800       0.901957
    14958.863100       0.900631
    14981.273400       0.899313
    15003.750900       0.898000
    15026.296000       0.896695
    15048.909000       0.895397
    15071.590100       0.894106
    15094.339600       0.892823
    15117.158000       0.891549
    15140.045400       0.890283
    15163.002300       0.889026
    15186.028900       0.887778
    15209.125500       0.886539
    15232.292500       0.885309
    15255.530100       0.884090
    15278.838800       0.882881
    15302.218800       0.881682
    15325.670500       0.880494
    15349.194200       0.879316
    15372.790200       0.878150
    15396.458800       0.876995
    15420.200500       0.875852
    15444.015400       0.874720
    15467.904100       0.873601
    15491.866800       0.872493
    15515.903800       0.871399
    15540.015500       0.870316
    15564.202300       0.869247
    15588.464500       0.868190
    15612.802500       0.867146
    15637.216600       0.866116
    15661.707100       0.865099
    15686.274500       0.864096
    15710.919100       0.863106
    15735.641200       0.862131
    15760.441300       0.861169
    15785.319700       0.860221
    15810.276700       0.859287
    15835.312700       0.858368
    15860.428200       0.857463
    15885.623500       0.856572
    15910.899000       0.855696
    15936.255000       0.854835
    15961.691900       0.853988
    15987.210200       0.853156
    16012.810200       0.852338
    16038.492400       0.851536
    16064.257000       0.850748
    16090.104600       0.849974
    16116.035500       0.849216
    16142.050000       0.848472
    16168.148700       0.847743
    16194.332000       0.847029
    16220.600200       0.846329
    16246.953700       0.845644
    16273.393000       0.844974
    16299.918500       0.844318
    16326.530600       0.843677
    16353.229800       0.843050
    16380.016400       0.842437
    16406.890900       0.841838
    16433.853700       0.841254
    16460.905300       0.840683
    16488.046200       0.840127
    16515.276600       0.839583
    16542.597200       0.839054
    16570.008300       0.838538
    16597.510400       0.838035
    16625.103900       0.837544
    16652.789300       0.837067
    16680.567100       0.836603
    16708.437800       0.836150
    16736.401700       0.835710
    16764.459300       0.835282
    16792.611300       0.834866
    16820.857900       0.834461
    16849.199700       0.834067
    16877.637100       0.833685
    16906.170800       0.833313
    16934.801000       0.832951
    16963.528400       0.832599
    16992.353400       0.832257
    17021.276600       0.831925
    17050.298400       0.831602
    17079.419300       0.831287
    17108.639900       0.830981
    17137.960600       0.830683
    17167.382000       0.830393
    17196.904600       0.830109
    17226.528900       0.829833
    17256.255400       0.829564
    17286.084700       0.829300
