10,    channel 10 SRF extracted from SRF_FY4B_AGRI.zip (FY4B_AGRI_SRF_CH10_Pub.txt)
Number of data points:
2544
Wavenumber (cm-1)   Filter response
     1312.249900       0.000600
     1312.336000       0.000600
     1312.422100       0.000600
     1312.508200       0.000500
     1312.594300       0.000500
     1312.680500       0.000500
     1312.766700       0.000500
     1312.852800       0.000500
     1312.939000       0.000500
     1313.025200       0.000500
     1313.111400       0.000500
     1313.197600       0.000400
     1313.283900       0.000400
     1313.370100       0.000400
     1313.456400       0.000400
     1313.542600       0.000400
     1313.628900       0.000400
     1313.715200       0.000400
     1313.801500       0.000400
     1313.887800       0.000300
     1313.974100       0.000300
     1314.060400       0.000300
     1314.146800       0.000300
     1314.233100       0.000300
     1314.319500       0.000300
     1314.405900       0.000300
     1314.492300       0.000300
     1314.578700       0.000300
     1314.665100       0.000300
     1314.751500       0.000300
     1314.837900       0.000200
     1314.924400       0.000200
     1315.010800       0.000200
     1315.097300       0.000200
     1315.183800       0.000200
     1315.270300       0.000200
     1315.356800       0.000200
     1315.443300       0.000300
     1315.529800       0.000300
     1315.616400       0.000300
     1315.702900       0.000300
     1315.789500       0.000300
     1315.876000       0.000300
     1315.962600       0.000300
     1316.049200       0.000300
     1316.135800       0.000300
     1316.222400       0.000300
     1316.309100       0.000400
     1316.395700       0.000400
     1316.482400       0.000400
     1316.569000       0.000400
     1316.655700       0.000400
     1316.742400       0.000400
     1316.829100       0.000500
     1316.915800       0.000500
     1317.002500       0.000500
     1317.089200       0.000500
     1317.176000       0.000500
     1317.262700       0.000500
     1317.349500       0.000600
     1317.436300       0.000600
     1317.523100       0.000600
     1317.609900       0.000600
     1317.696700       0.000600
     1317.783500       0.000600
     1317.870300       0.000700
     1317.957200       0.000700
     1318.044000       0.000700
     1318.130900       0.000700
     1318.217800       0.000700
     1318.304700       0.000700
     1318.391600       0.000800
     1318.478500       0.000800
     1318.565400       0.000800
     1318.652300       0.000800
     1318.739300       0.000800
     1318.826200       0.000800
     1318.913200       0.000800
     1319.000200       0.000800
     1319.087200       0.000800
     1319.174200       0.000800
     1319.261200       0.000800
     1319.348200       0.000800
     1319.435300       0.000800
     1319.522300       0.000800
     1319.609400       0.000800
     1319.696500       0.000800
     1319.783600       0.000800
     1319.870700       0.000800
     1319.957800       0.000800
     1320.044900       0.000800
     1320.132000       0.000800
     1320.219200       0.000800
     1320.306300       0.000700
     1320.393500       0.000700
     1320.480700       0.000700
     1320.567800       0.000700
     1320.655000       0.000700
     1320.742300       0.000700
     1320.829500       0.000700
     1320.916700       0.000700
     1321.004000       0.000600
     1321.091200       0.000600
     1321.178500       0.000600
     1321.265800       0.000600
     1321.353100       0.000600
     1321.440400       0.000600
     1321.527700       0.000600
     1321.615000       0.000600
     1321.702400       0.000600
     1321.789700       0.000500
     1321.877100       0.000500
     1321.964400       0.000500
     1322.051800       0.000500
     1322.139200       0.000500
     1322.226600       0.000500
     1322.314000       0.000500
     1322.401500       0.000500
     1322.488900       0.000500
     1322.576400       0.000500
     1322.663800       0.000500
     1322.751300       0.000500
     1322.838800       0.000500
     1322.926300       0.000500
     1323.013800       0.000500
     1323.101300       0.000500
     1323.188900       0.000500
     1323.276400       0.000500
     1323.364000       0.000500
     1323.451600       0.000500
     1323.539100       0.000500
     1323.626700       0.000600
     1323.714300       0.000600
     1323.802000       0.000600
     1323.889600       0.000600
     1323.977200       0.000600
     1324.064900       0.000600
     1324.152500       0.000700
     1324.240200       0.000700
     1324.327900       0.000700
     1324.415600       0.000700
     1324.503300       0.000700
     1324.591000       0.000700
     1324.678800       0.000800
     1324.766500       0.000800
     1324.854300       0.000800
     1324.942000       0.000800
     1325.029800       0.000800
     1325.117600       0.000900
     1325.205400       0.000900
     1325.293200       0.000900
     1325.381000       0.000900
     1325.468900       0.000900
     1325.556700       0.001000
     1325.644600       0.001000
     1325.732500       0.001000
     1325.820400       0.001000
     1325.908200       0.001000
     1325.996200       0.001000
     1326.084100       0.001000
     1326.172000       0.001100
     1326.259900       0.001100
     1326.347900       0.001100
     1326.435900       0.001100
     1326.523800       0.001100
     1326.611800       0.001100
     1326.699800       0.001100
     1326.787800       0.001100
     1326.875900       0.001100
     1326.963900       0.001100
     1327.052000       0.001100
     1327.140000       0.001100
     1327.228100       0.001100
     1327.316200       0.001100
     1327.404300       0.001100
     1327.492400       0.001100
     1327.580500       0.001100
     1327.668600       0.001100
     1327.756800       0.001100
     1327.844900       0.001000
     1327.933100       0.001000
     1328.021200       0.001000
     1328.109400       0.001000
     1328.197600       0.001000
     1328.285800       0.001000
     1328.374100       0.001000
     1328.462300       0.001000
     1328.550600       0.000900
     1328.638800       0.000900
     1328.727100       0.000900
     1328.815400       0.000900
     1328.903700       0.000900
     1328.992000       0.000900
     1329.080300       0.000900
     1329.168600       0.000800
     1329.256900       0.000800
     1329.345300       0.000800
     1329.433700       0.000800
     1329.522000       0.000800
     1329.610400       0.000800
     1329.698800       0.000800
     1329.787200       0.000800
     1329.875700       0.000800
     1329.964100       0.000700
     1330.052500       0.000700
     1330.141000       0.000700
     1330.229500       0.000700
     1330.317900       0.000700
     1330.406400       0.000700
     1330.494900       0.000700
     1330.583500       0.000700
     1330.672000       0.000700
     1330.760500       0.000700
     1330.849100       0.000700
     1330.937600       0.000700
     1331.026200       0.000800
     1331.114800       0.000800
     1331.203400       0.000800
     1331.292000       0.000800
     1331.380600       0.000800
     1331.469300       0.000800
     1331.557900       0.000800
     1331.646600       0.000800
     1331.735300       0.000900
     1331.823900       0.000900
     1331.912600       0.000900
     1332.001300       0.000900
     1332.090000       0.000900
     1332.178800       0.001000
     1332.267500       0.001000
     1332.356300       0.001000
     1332.445000       0.001000
     1332.533800       0.001000
     1332.622600       0.001100
     1332.711400       0.001100
     1332.800200       0.001100
     1332.889000       0.001100
     1332.977900       0.001100
     1333.066700       0.001200
     1333.155600       0.001200
     1333.244500       0.001200
     1333.333300       0.001200
     1333.422200       0.001200
     1333.511100       0.001200
     1333.600100       0.001300
     1333.689000       0.001300
     1333.777900       0.001300
     1333.866900       0.001300
     1333.955800       0.001300
     1334.044800       0.001300
     1334.133800       0.001300
     1334.222800       0.001400
     1334.311800       0.001400
     1334.400900       0.001400
     1334.489900       0.001400
     1334.578900       0.001400
     1334.668000       0.001400
     1334.757100       0.001400
     1334.846200       0.001400
     1334.935300       0.001400
     1335.024400       0.001400
     1335.113500       0.001400
     1335.202600       0.001400
     1335.291800       0.001400
     1335.380900       0.001400
     1335.470100       0.001400
     1335.559300       0.001300
     1335.648500       0.001300
     1335.737700       0.001300
     1335.826900       0.001300
     1335.916100       0.001300
     1336.005300       0.001300
     1336.094600       0.001300
     1336.183900       0.001300
     1336.273100       0.001300
     1336.362400       0.001300
     1336.451700       0.001200
     1336.541000       0.001200
     1336.630400       0.001200
     1336.719700       0.001200
     1336.809000       0.001200
     1336.898400       0.001200
     1336.987800       0.001200
     1337.077100       0.001200
     1337.166500       0.001200
     1337.256000       0.001200
     1337.345400       0.001200
     1337.434800       0.001200
     1337.524200       0.001100
     1337.613700       0.001100
     1337.703200       0.001100
     1337.792600       0.001100
     1337.882100       0.001100
     1337.971600       0.001100
     1338.061100       0.001100
     1338.150700       0.001100
     1338.240200       0.001200
     1338.329800       0.001200
     1338.419300       0.001200
     1338.508900       0.001200
     1338.598500       0.001200
     1338.688100       0.001200
     1338.777700       0.001200
     1338.867300       0.001200
     1338.957000       0.001300
     1339.046600       0.001300
     1339.136300       0.001300
     1339.225900       0.001300
     1339.315600       0.001300
     1339.405300       0.001400
     1339.495000       0.001400
     1339.584700       0.001400
     1339.674500       0.001400
     1339.764200       0.001500
     1339.854000       0.001500
     1339.943700       0.001500
     1340.033500       0.001500
     1340.123300       0.001600
     1340.213100       0.001600
     1340.302900       0.001600
     1340.392700       0.001700
     1340.482600       0.001700
     1340.572400       0.001700
     1340.662300       0.001700
     1340.752200       0.001800
     1340.842000       0.001800
     1340.931900       0.001800
     1341.021900       0.001800
     1341.111800       0.001900
     1341.201700       0.001900
     1341.291700       0.001900
     1341.381600       0.001900
     1341.471600       0.002000
     1341.561600       0.002000
     1341.651600       0.002000
     1341.741600       0.002000
     1341.831600       0.002000
     1341.921600       0.002100
     1342.011700       0.002100
     1342.101700       0.002100
     1342.191800       0.002100
     1342.281900       0.002100
     1342.372000       0.002100
     1342.462100       0.002100
     1342.552200       0.002100
     1342.642300       0.002100
     1342.732500       0.002100
     1342.822600       0.002100
     1342.912800       0.002100
     1343.003000       0.002100
     1343.093100       0.002100
     1343.183300       0.002100
     1343.273600       0.002100
     1343.363800       0.002100
     1343.454000       0.002100
     1343.544300       0.002100
     1343.634500       0.002100
     1343.724800       0.002100
     1343.815100       0.002000
     1343.905400       0.002000
     1343.995700       0.002000
     1344.086000       0.002000
     1344.176400       0.002000
     1344.266700       0.002000
     1344.357100       0.002000
     1344.447400       0.002000
     1344.537800       0.002000
     1344.628200       0.001900
     1344.718600       0.001900
     1344.809000       0.001900
     1344.899500       0.001900
     1344.989900       0.001900
     1345.080400       0.001900
     1345.170800       0.001900
     1345.261300       0.001900
     1345.351800       0.001900
     1345.442300       0.001900
     1345.532800       0.001900
     1345.623400       0.001900
     1345.713900       0.001900
     1345.804500       0.001900
     1345.895000       0.001900
     1345.985600       0.001900
     1346.076200       0.001900
     1346.166800       0.001900
     1346.257400       0.001900
     1346.348000       0.001900
     1346.438700       0.002000
     1346.529300       0.002000
     1346.620000       0.002000
     1346.710700       0.002000
     1346.801300       0.002000
     1346.892000       0.002100
     1346.982800       0.002100
     1347.073500       0.002100
     1347.164200       0.002100
     1347.255000       0.002200
     1347.345700       0.002200
     1347.436500       0.002200
     1347.527300       0.002200
     1347.618100       0.002300
     1347.708900       0.002300
     1347.799700       0.002300
     1347.890600       0.002400
     1347.981400       0.002400
     1348.072300       0.002400
     1348.163100       0.002400
     1348.254000       0.002500
     1348.344900       0.002500
     1348.435800       0.002500
     1348.526700       0.002600
     1348.617700       0.002600
     1348.708600       0.002600
     1348.799600       0.002700
     1348.890500       0.002700
     1348.981500       0.002700
     1349.072500       0.002700
     1349.163500       0.002800
     1349.254500       0.002800
     1349.345600       0.002800
     1349.436600       0.002800
     1349.527700       0.002900
     1349.618700       0.002900
     1349.709800       0.002900
     1349.800900       0.002900
     1349.892000       0.002900
     1349.983100       0.003000
     1350.074300       0.003000
     1350.165400       0.003000
     1350.256500       0.003000
     1350.347700       0.003000
     1350.438900       0.003000
     1350.530100       0.003000
     1350.621300       0.003000
     1350.712500       0.003000
     1350.803700       0.003000
     1350.895000       0.003000
     1350.986200       0.003000
     1351.077500       0.003000
     1351.168800       0.003000
     1351.260000       0.003000
     1351.351400       0.003000
     1351.442700       0.003000
     1351.534000       0.003000
     1351.625300       0.003000
     1351.716700       0.003000
     1351.808000       0.003000
     1351.899400       0.003000
     1351.990800       0.003000
     1352.082200       0.003000
     1352.173600       0.003000
     1352.265000       0.003000
     1352.356500       0.003100
     1352.447900       0.003100
     1352.539400       0.003100
     1352.630900       0.003100
     1352.722400       0.003100
     1352.813900       0.003100
     1352.905400       0.003100
     1352.996900       0.003100
     1353.088400       0.003100
     1353.180000       0.003100
     1353.271500       0.003100
     1353.363100       0.003100
     1353.454700       0.003100
     1353.546300       0.003200
     1353.637900       0.003200
     1353.729500       0.003200
     1353.821200       0.003200
     1353.912800       0.003200
     1354.004500       0.003300
     1354.096100       0.003300
     1354.187800       0.003300
     1354.279500       0.003300
     1354.371200       0.003400
     1354.463000       0.003400
     1354.554700       0.003400
     1354.646400       0.003500
     1354.738200       0.003500
     1354.830000       0.003500
     1354.921800       0.003600
     1355.013600       0.003600
     1355.105400       0.003700
     1355.197200       0.003700
     1355.289000       0.003700
     1355.380900       0.003800
     1355.472700       0.003800
     1355.564600       0.003900
     1355.656500       0.003900
     1355.748400       0.004000
     1355.840300       0.004000
     1355.932200       0.004000
     1356.024100       0.004100
     1356.116100       0.004100
     1356.208000       0.004200
     1356.300000       0.004200
     1356.392000       0.004300
     1356.484000       0.004300
     1356.576000       0.004300
     1356.668000       0.004400
     1356.760100       0.004400
     1356.852100       0.004500
     1356.944200       0.004500
     1357.036200       0.004500
     1357.128300       0.004600
     1357.220400       0.004600
     1357.312500       0.004600
     1357.404600       0.004700
     1357.496800       0.004700
     1357.588900       0.004700
     1357.681100       0.004700
     1357.773300       0.004800
     1357.865400       0.004800
     1357.957600       0.004800
     1358.049800       0.004800
     1358.142100       0.004900
     1358.234300       0.004900
     1358.326500       0.004900
     1358.418800       0.004900
     1358.511100       0.004900
     1358.603400       0.004900
     1358.695700       0.005000
     1358.788000       0.005000
     1358.880300       0.005000
     1358.972600       0.005000
     1359.065000       0.005000
     1359.157300       0.005000
     1359.249700       0.005000
     1359.342100       0.005000
     1359.434500       0.005100
     1359.526900       0.005100
     1359.619300       0.005100
     1359.711700       0.005100
     1359.804200       0.005100
     1359.896600       0.005100
     1359.989100       0.005100
     1360.081600       0.005200
     1360.174100       0.005200
     1360.266600       0.005200
     1360.359100       0.005200
     1360.451700       0.005200
     1360.544200       0.005300
     1360.636800       0.005300
     1360.729400       0.005300
     1360.821900       0.005300
     1360.914500       0.005400
     1361.007100       0.005400
     1361.099800       0.005400
     1361.192400       0.005400
     1361.285100       0.005500
     1361.377700       0.005500
     1361.470400       0.005600
     1361.563100       0.005600
     1361.655800       0.005600
     1361.748500       0.005700
     1361.841200       0.005700
     1361.933900       0.005800
     1362.026700       0.005800
     1362.119500       0.005900
     1362.212200       0.005900
     1362.305000       0.006000
     1362.397800       0.006100
     1362.490600       0.006100
     1362.583500       0.006200
     1362.676300       0.006300
     1362.769100       0.006300
     1362.862000       0.006400
     1362.954900       0.006400
     1363.047800       0.006500
     1363.140700       0.006600
     1363.233600       0.006700
     1363.326500       0.006700
     1363.419500       0.006800
     1363.512400       0.006900
     1363.605400       0.006900
     1363.698300       0.007000
     1363.791300       0.007100
     1363.884300       0.007100
     1363.977400       0.007200
     1364.070400       0.007300
     1364.163400       0.007400
     1364.256500       0.007400
     1364.349500       0.007500
     1364.442600       0.007600
     1364.535700       0.007600
     1364.628800       0.007700
     1364.721900       0.007800
     1364.815100       0.007800
     1364.908200       0.007900
     1365.001400       0.007900
     1365.094500       0.008000
     1365.187700       0.008100
     1365.280900       0.008100
     1365.374100       0.008200
     1365.467300       0.008200
     1365.560600       0.008300
     1365.653800       0.008300
     1365.747100       0.008400
     1365.840300       0.008400
     1365.933600       0.008500
     1366.026900       0.008500
     1366.120200       0.008600
     1366.213500       0.008600
     1366.306900       0.008600
     1366.400200       0.008700
     1366.493600       0.008700
     1366.586900       0.008800
     1366.680300       0.008800
     1366.773700       0.008900
     1366.867100       0.008900
     1366.960600       0.008900
     1367.054000       0.009000
     1367.147400       0.009000
     1367.240900       0.009100
     1367.334400       0.009100
     1367.427900       0.009100
     1367.521400       0.009200
     1367.614900       0.009200
     1367.708400       0.009300
     1367.801900       0.009300
