17,   17, MVIRI VIS channel from srf_MET4_1991213_1991214_1801-Release_S10EL_10.dat
Number of data points:
752
Wavenumber (cm-1)   Filter response
     8745.080900       0.000000
     8752.735200       0.000000
     8760.403000       0.000001
     8768.084200       0.000059
     8775.778900       0.000199
     8783.487000       0.000419
     8791.208800       0.000717
     8798.944100       0.001090
     8806.693100       0.001536
     8814.455700       0.002053
     8822.232000       0.002639
     8830.022100       0.003291
     8837.825900       0.004008
     8845.643500       0.004788
     8853.475000       0.005629
     8861.320300       0.006529
     8869.179600       0.007486
     8877.052800       0.008498
     8884.940000       0.009565
     8892.841300       0.010683
     8900.756600       0.011853
     8908.686000       0.013071
     8916.629500       0.014337
     8924.587200       0.015649
     8932.559200       0.017006
     8940.545400       0.018407
     8948.545900       0.019851
     8956.560700       0.021335
     8964.589900       0.022859
     8972.633500       0.024421
     8980.691500       0.026022
     8988.764000       0.027659
     8996.851100       0.029332
     9004.952700       0.031039
     9013.068900       0.032780
     9021.199800       0.034554
     9029.345400       0.036359
     9037.505600       0.038196
     9045.680700       0.040062
     9053.870500       0.041958
     9062.075200       0.043883
     9070.294800       0.045836
     9078.529300       0.047815
     9086.778700       0.049822
     9095.043200       0.051855
     9103.322700       0.053912
     9111.617300       0.055995
     9119.927000       0.058102
     9128.251900       0.060233
     9136.592100       0.062387
     9144.947400       0.064564
     9153.318100       0.066763
     9161.704100       0.068984
     9170.105500       0.071227
     9178.522300       0.073491
     9186.954500       0.075775
     9195.402300       0.078080
     9203.865600       0.080405
     9212.344500       0.082750
     9220.839100       0.085115
     9229.349300       0.087498
     9237.875300       0.089901
     9246.417000       0.092322
     9254.974500       0.094762
     9263.547900       0.097221
     9272.137200       0.099697
     9280.742500       0.102192
     9289.363700       0.104704
     9298.000900       0.107234
     9306.654300       0.109781
     9315.323700       0.112346
     9324.009300       0.114928
     9332.711200       0.117527
     9341.429200       0.120143
     9350.163600       0.122777
     9358.914400       0.125426
     9367.681500       0.128093
     9376.465100       0.130777
     9385.265100       0.133477
     9394.081700       0.136194
     9402.914900       0.138928
     9411.764700       0.141678
     9420.631200       0.144445
     9429.514400       0.147228
     9438.414300       0.150028
     9447.331100       0.152844
     9456.264800       0.155677
     9465.215300       0.158527
     9474.182900       0.161392
     9483.167400       0.164275
     9492.169000       0.167173
     9501.187600       0.170089
     9510.223500       0.173021
     9519.276500       0.175969
     9528.346800       0.178934
     9537.434400       0.181916
     9546.539400       0.184914
     9555.661700       0.187929
     9564.801500       0.190961
     9573.958800       0.194009
     9583.133700       0.197074
     9592.326100       0.200156
     9601.536200       0.203254
     9610.764100       0.206369
     9620.009600       0.209502
     9629.273000       0.212651
     9638.554200       0.215816
     9647.853400       0.218999
     9657.170400       0.222199
     9666.505600       0.225415
     9675.858700       0.228649
     9685.230000       0.231899
     9694.619500       0.235166
     9704.027200       0.238450
     9713.453100       0.241752
     9722.897400       0.245070
     9732.360100       0.248405
     9741.841200       0.251757
     9751.340800       0.255126
     9760.859000       0.258512
     9770.395700       0.261915
     9779.951100       0.265335
     9789.525200       0.268772
     9799.118100       0.272225
     9808.729800       0.275695
     9818.360300       0.279183
     9828.009800       0.282686
     9837.678300       0.286207
     9847.365800       0.289745
     9857.072400       0.293298
     9866.798200       0.296869
     9876.543200       0.300456
     9886.307500       0.304059
     9896.091000       0.307679
     9905.894000       0.311315
     9915.716400       0.314967
     9925.558300       0.318635
     9935.419800       0.322320
     9945.300800       0.326020
     9955.201600       0.329736
     9965.122100       0.333468
     9975.062300       0.337215
     9985.022500       0.340978
     9995.002500       0.344757
    10005.002500       0.348550
    10015.022500       0.352359
    10025.062700       0.356182
    10035.122900       0.360021
    10045.203400       0.363874
    10055.304200       0.367741
    10065.425300       0.371623
    10075.566800       0.375519
    10085.728700       0.379429
    10095.911200       0.383353
    10106.114200       0.387291
    10116.337900       0.391242
    10126.582300       0.395206
    10136.847400       0.399183
    10147.133400       0.403174
    10157.440300       0.407176
    10167.768200       0.411192
    10178.117000       0.415219
    10188.487000       0.419258
    10198.878100       0.423310
    10209.290500       0.427372
    10219.724100       0.431446
    10230.179000       0.435531
    10240.655400       0.439627
    10251.153300       0.443733
    10261.672700       0.447849
    10272.213700       0.451976
    10282.776300       0.456112
    10293.360800       0.460257
    10303.967000       0.464412
    10314.595200       0.468575
    10325.245200       0.472747
    10335.917300       0.476928
    10346.611500       0.481116
    10357.327800       0.485312
    10368.066400       0.489515
    10378.827200       0.493725
    10389.610400       0.497942
    10400.416000       0.502165
    10411.244100       0.506394
    10422.094800       0.510629
    10432.968200       0.514869
    10443.864200       0.519115
    10454.783100       0.523365
    10465.724800       0.527619
    10476.689400       0.531877
    10487.677000       0.536139
    10498.687700       0.540405
    10509.721500       0.544673
    10520.778500       0.548943
    10531.858900       0.553216
    10542.962600       0.557490
    10554.089700       0.561766
    10565.240400       0.566043
    10576.414600       0.570320
    10587.612500       0.574598
    10598.834100       0.578876
    10610.079600       0.583153
    10621.348900       0.587429
    10632.642200       0.591704
    10643.959600       0.595977
    10655.301000       0.600248
    10666.666700       0.604516
    10678.056600       0.608781
    10689.470900       0.613043
    10700.909600       0.617302
    10712.372800       0.621556
    10723.860600       0.625805
    10735.373100       0.630050
    10746.910300       0.634289
    10758.472300       0.638522
    10770.059200       0.642749
    10781.671200       0.646969
    10793.308100       0.651183
    10804.970300       0.655388
    10816.657700       0.659586
    10828.370300       0.663775
    10840.108400       0.667956
    10851.871900       0.672127
    10863.661100       0.676289
    10875.475800       0.680440
    10887.316300       0.684581
    10899.182600       0.688711
    10911.074700       0.692830
    10922.992900       0.696936
    10934.937100       0.701031
    10946.907500       0.705113
    10958.904100       0.709182
    10970.927000       0.713237
    10982.976400       0.717278
    10995.052200       0.721305
    11007.154700       0.725317
    11019.283700       0.729314
    11031.439600       0.733296
    11043.622300       0.737261
    11055.832000       0.741209
    11068.068600       0.745141
    11080.332400       0.749056
    11092.623400       0.752952
    11104.941700       0.756831
    11117.287400       0.760691
    11129.660500       0.764532
    11142.061300       0.768353
    11154.489700       0.772155
    11166.945800       0.775936
    11179.429800       0.779697
    11191.941800       0.783437
    11204.481800       0.787155
    11217.049900       0.790852
    11229.646300       0.794526
    11242.270900       0.798177
    11254.924000       0.801806
    11267.605600       0.805411
    11280.315800       0.808993
    11293.054800       0.812550
    11305.822500       0.816082
    11318.619100       0.819590
    11331.444800       0.823073
    11344.299500       0.826529
    11357.183400       0.829960
    11370.096600       0.833364
    11383.039300       0.836742
    11396.011400       0.840092
    11409.013100       0.843415
    11422.044500       0.846710
    11435.105800       0.849977
    11448.196900       0.853215
    11461.318100       0.856425
    11474.469300       0.859605
    11487.650800       0.862756
    11500.862600       0.865877
    11514.104800       0.868968
    11527.377500       0.872028
    11540.680900       0.875058
    11554.015000       0.878057
    11567.380000       0.881024
    11580.775900       0.883959
    11594.202900       0.886862
    11607.661100       0.889733
    11621.150500       0.892572
    11634.671300       0.895378
    11648.223600       0.898150
    11661.807600       0.900890
    11675.423200       0.903595
    11689.070700       0.906267
    11702.750100       0.908905
    11716.461600       0.911508
    11730.205300       0.914076
    11743.981200       0.916610
    11757.789500       0.919109
    11771.630400       0.921572
    11785.503800       0.924000
    11799.410000       0.926391
    11813.349100       0.928748
    11827.321100       0.931067
    11841.326200       0.933351
    11855.364600       0.935597
    11869.436200       0.937808
    11883.541300       0.939981
    11897.680000       0.942117
    11911.852300       0.944215
    11926.058400       0.946277
    11940.298500       0.948300
    11954.572600       0.950286
    11968.880900       0.952234
    11983.223500       0.954144
    11997.600500       0.956016
    12012.012000       0.957850
    12026.458200       0.959645
    12040.939200       0.961402
    12055.455100       0.963120
    12070.006000       0.964799
    12084.592100       0.966439
    12099.213600       0.968041
    12113.870400       0.969604
    12128.562800       0.971127
    12143.290800       0.972612
    12158.054700       0.974057
    12172.854500       0.975463
    12187.690400       0.976829
    12202.562500       0.978157
    12217.471000       0.979445
    12232.415900       0.980693
    12247.397400       0.981902
    12262.415700       0.983072
    12277.470800       0.984202
    12292.563000       0.985293
    12307.692300       0.986344
    12322.858900       0.987356
    12338.062900       0.988328
    12353.304500       0.989261
    12368.583800       0.990155
    12383.900900       0.991009
    12399.256000       0.991824
    12414.649300       0.992600
    12430.080800       0.993336
    12445.550700       0.994034
    12461.059200       0.994692
    12476.606400       0.995311
    12492.192400       0.995891
    12507.817400       0.996433
    12523.481500       0.996936
    12539.185000       0.997400
    12554.927800       0.997825
    12570.710200       0.998212
    12586.532400       0.998561
    12602.394500       0.998872
    12618.296500       0.999145
    12634.238800       0.999379
    12650.221400       0.999576
    12666.244500       0.999736
    12682.308200       0.999857
    12698.412700       0.999942
    12714.558200       0.999990
    12730.744700       1.000000
    12746.972600       0.999974
    12763.241900       0.999911
    12779.552700       0.999812
    12795.905300       0.999676
    12812.299800       0.999505
    12828.736400       0.999297
    12845.215200       0.999055
    12861.736300       0.998777
    12878.300100       0.998463
    12894.906500       0.998115
    12911.555800       0.997732
    12928.248200       0.997315
    12944.983800       0.996864
    12961.762800       0.996379
    12978.585300       0.995860
    12995.451600       0.995308
    13012.361700       0.994722
    13029.316000       0.994104
    13046.314400       0.993453
    13063.357300       0.992771
    13080.444700       0.992056
    13097.576900       0.991309
    13114.754100       0.990531
    13131.976400       0.989722
    13149.243900       0.988883
    13166.556900       0.988012
    13183.915600       0.987112
    13201.320100       0.986182
    13218.770700       0.985223
    13236.267400       0.984234
    13253.810500       0.983217
    13271.400100       0.982171
    13289.036500       0.981097
    13306.719900       0.979996
    13324.450400       0.978867
    13342.228200       0.977711
    13360.053400       0.976528
    13377.926400       0.975319
    13395.847300       0.974084
    13413.816200       0.972824
    13431.833400       0.971538
    13449.899100       0.970228
    13468.013500       0.968893
    13486.176700       0.967535
    13504.388900       0.966152
    13522.650400       0.964747
    13540.961400       0.963319
    13559.322000       0.961868
    13577.732500       0.960395
    13596.193100       0.958901
    13614.703900       0.957385
    13633.265200       0.955849
    13651.877100       0.954293
    13670.540000       0.952716
    13689.253900       0.951120
    13708.019200       0.949505
    13726.836000       0.947871
    13745.704500       0.946219
    13764.624900       0.944549
    13783.597500       0.942862
    13802.622500       0.941158
    13821.700100       0.939438
    13840.830400       0.937701
    13860.013900       0.935949
    13879.250500       0.934181
    13898.540700       0.932399
    13917.884500       0.930603
    13937.282200       0.928792
    13956.734100       0.926969
    13976.240400       0.925132
    13995.801300       0.923283
    14015.417000       0.921422
    14035.087700       0.919549
    14054.813800       0.917665
    14074.595400       0.915770
    14094.432700       0.913865
    14114.326000       0.911950
    14134.275600       0.910026
    14154.281700       0.908093
    14174.344400       0.906152
    14194.464200       0.904202
    14214.641100       0.902245
    14234.875400       0.900281
    14255.167500       0.898310
    14275.517500       0.896333
    14295.925700       0.894351
    14316.392300       0.892362
    14336.917600       0.890370
    14357.501800       0.888372
    14378.145200       0.886371
    14398.848100       0.884366
    14419.610700       0.882358
    14440.433200       0.880348
    14461.316000       0.878335
    14482.259200       0.876320
    14503.263200       0.874304
    14524.328200       0.872288
    14545.454500       0.870270
    14566.642400       0.868253
    14587.892000       0.866236
    14609.203800       0.864220
    14630.577900       0.862205
    14652.014700       0.860192
    14673.514300       0.858181
    14695.077100       0.856173
    14716.703500       0.854167
    14738.393500       0.852165
    14760.147600       0.850166
    14781.966000       0.848171
    14803.849000       0.846181
    14825.796900       0.844196
    14847.809900       0.842216
    14869.888500       0.840242
    14892.032800       0.838274
    14914.243100       0.836313
    14936.519800       0.834358
    14958.863100       0.832411
    14981.273400       0.830471
    15003.750900       0.828539
    15026.296000       0.826615
    15048.909000       0.824700
    15071.590100       0.822794
    15094.339600       0.820898
    15117.158000       0.819011
    15140.045400       0.817134
    15163.002300       0.815267
    15186.028900       0.813412
    15209.125500       0.811567
    15232.292500       0.809733
    15255.530100       0.807912
    15278.838800       0.806102
    15302.218800       0.804304
    15325.670500       0.802519
    15349.194200       0.800747
    15372.790200       0.798988
    15396.458800       0.797242
    15420.200500       0.795510
    15444.015400       0.793792
    15467.904100       0.792089
    15491.866800       0.790399
    15515.903800       0.788724
    15540.015500       0.787065
    15564.202300       0.785420
    15588.464500       0.783791
    15612.802500       0.782177
    15637.216600       0.780579
    15661.707100       0.778998
    15686.274500       0.777432
    15710.919100       0.775883
    15735.641200       0.774350
    15760.441300       0.772835
    15785.319700       0.771336
    15810.276700       0.769854
    15835.312700       0.768389
    15860.428200       0.766942
    15885.623500       0.765513
    15910.899000       0.764101
    15936.255000       0.762707
    15961.691900       0.761331
    15987.210200       0.759973
    16012.810200       0.758633
    16038.492400       0.757311
    16064.257000       0.756007
    16090.104600       0.754722
    16116.035500       0.753455
    16142.050000       0.752207
    16168.148700       0.750977
    16194.332000       0.749766
    16220.600200       0.748574
    16246.953700       0.747400
    16273.393000       0.746245
    16299.918500       0.745108
    16326.530600       0.743990
    16353.229800       0.742891
    16380.016400       0.741810
    16406.890900       0.740748
    16433.853700       0.739705
    16460.905300       0.738680
    16488.046200       0.737673
    16515.276600       0.736685
    16542.597200       0.735715
    16570.008300       0.734764
    16597.510400       0.733830
    16625.103900       0.732915
    16652.789300       0.732017
    16680.567100       0.731138
    16708.437800       0.730276
    16736.401700       0.729431
    16764.459300       0.728604
    16792.611300       0.727794
    16820.857900       0.727001
    16849.199700       0.726225
    16877.637100       0.725466
    16906.170800       0.724723
    16934.801000       0.723997
    16963.528400       0.723287
    16992.353400       0.722592
    17021.276600       0.721913
    17050.298400       0.721250
    17079.419300       0.720601
    17108.639900       0.719968
    17137.960600       0.719349
    17167.382000       0.718744
    17196.904600       0.718154
    17226.528900       0.717577
    17256.255400       0.717014
    17286.084700       0.716463
    17316.017300       0.715926
    17346.053800       0.715401
    17376.194600       0.714888
    17406.440400       0.714386
    17436.791600       0.713896
    17467.248900       0.713417
    17497.812800       0.712949
    17528.483800       0.712491
    17559.262500       0.712043
    17590.149500       0.711604
    17621.145400       0.711174
    17652.250700       0.710752
    17683.466000       0.710339
    17714.791900       0.709933
    17746.228900       0.709535
    17777.777800       0.709143
    17809.439000       0.708758
    17841.213200       0.708378
    17873.101000       0.708004
    17905.103000       0.707635
    17937.219700       0.707270
    17969.451900       0.706908
    18001.800200       0.706550
    18034.265100       0.706195
    18066.847300       0.705841
    18099.547500       0.705490
    18132.366300       0.705139
    18165.304300       0.704789
    18198.362100       0.704439
    18231.540600       0.704088
    18264.840200       0.703736
    18298.261700       0.703383
    18331.805700       0.703026
    18365.472900       0.702667
    18399.264000       0.702304
    18433.179700       0.701937
    18467.220700       0.701565
    18501.387600       0.701188
    18535.681200       0.700804
    18570.102100       0.700414
    18604.651200       0.700016
    18639.329000       0.699610
    18674.136300       0.699195
    18709.073900       0.698770
    18744.142500       0.698336
    18779.342700       0.697891
    18814.675400       0.697434
    18850.141400       0.696965
    18885.741300       0.696483
    18921.475900       0.695987
    18957.346000       0.695477
    18993.352300       0.694952
    19029.495700       0.694412
    19065.776900       0.693855
