11,    channel 11 SRF extracted from SRF_FY-4A_AGRI.zip (10.3.txt) (received April 2018)
Number of data points:
539
Wavenumber (cm-1)   Filter response
      813.338800       0.005792
      813.669700       0.007664
      814.000800       0.007663
      814.332200       0.006754
      814.664000       0.006890
      814.995900       0.005964
      815.328200       0.006253
      815.660700       0.007424
      815.993500       0.008172
      816.326500       0.006037
      816.659900       0.008244
      816.993500       0.006270
      817.327300       0.006550
      817.661500       0.005757
      817.995900       0.007815
      818.330600       0.007516
      818.665600       0.007713
      819.000800       0.006787
      819.336300       0.006025
      819.672100       0.005551
      820.008200       0.007062
      820.344500       0.005811
      820.681200       0.004905
      821.018100       0.007374
      821.355200       0.007381
      821.692700       0.006416
      822.030400       0.008144
      822.368400       0.006929
      822.706700       0.005182
      823.045300       0.005938
      823.384100       0.005277
      823.723200       0.007308
      824.062600       0.006050
      824.402300       0.006778
      824.742300       0.003794
      825.082500       0.005041
      825.423000       0.006727
      825.763800       0.005800
      826.104900       0.007039
      826.446300       0.006614
      826.787900       0.005857
      827.129900       0.007148
      827.472100       0.004460
      827.814600       0.004943
      828.157300       0.006359
      828.500400       0.007200
      828.843800       0.006710
      829.187400       0.005114
      829.531300       0.005197
      829.875500       0.003421
      830.220000       0.005352
      830.564800       0.004923
      830.909800       0.005352
      831.255200       0.009481
      831.600800       0.006560
      831.946800       0.005439
      832.293000       0.007354
      832.639500       0.006074
      832.986300       0.008251
      833.333300       0.007047
      833.680700       0.007468
      834.028400       0.005111
      834.376300       0.006766
      834.724500       0.004861
      835.073100       0.006794
      835.421900       0.006896
      835.771000       0.005431
      836.120400       0.004072
      836.470100       0.004660
      836.820100       0.007528
      837.170400       0.006187
      837.520900       0.007148
      837.871800       0.005905
      838.223000       0.005049
      838.574400       0.005624
      838.926200       0.007907
      839.278200       0.008755
      839.630600       0.007450
      839.983200       0.005586
      840.336100       0.004350
      840.689400       0.007650
      841.042900       0.007579
      841.396700       0.008305
      841.750800       0.005180
      842.105300       0.006229
      842.460000       0.008234
      842.815000       0.008341
      843.170300       0.005696
      843.525900       0.007728
      843.881900       0.006815
      844.238100       0.007715
      844.594600       0.006944
      844.951400       0.006793
      845.308500       0.008728
      845.666000       0.005345
      846.023700       0.005350
      846.381700       0.007089
      846.740100       0.012075
      847.098700       0.006080
      847.457600       0.007465
      847.816900       0.008866
      848.176400       0.005931
      848.536300       0.009503
      848.896400       0.009259
      849.256900       0.010218
      849.617700       0.012078
      849.978800       0.007786
      850.340100       0.012025
      850.701800       0.007645
      851.063800       0.008668
      851.426100       0.008046
      851.788800       0.009811
      852.151700       0.011341
      852.514900       0.007812
      852.878500       0.011853
      853.242300       0.014097
      853.606500       0.013573
      853.971000       0.013702
      854.335800       0.013108
      854.700900       0.012621
      855.066300       0.021406
      855.432000       0.019071
      855.798000       0.021355
      856.164400       0.025674
      856.531000       0.029327
      856.898000       0.035810
      857.265300       0.037202
      857.632900       0.031945
      858.000900       0.044610
      858.369100       0.037812
      858.737700       0.050478
      859.106500       0.047914
      859.475700       0.044719
      859.845200       0.052276
      860.215100       0.048618
      860.585200       0.052527
      860.955700       0.058561
      861.326400       0.056709
      861.697500       0.048771
      862.069000       0.053617
      862.440700       0.069269
      862.812800       0.070812
      863.185200       0.067204
      863.557900       0.069313
      863.930900       0.080031
      864.304200       0.076422
      864.677900       0.086295
      865.051900       0.086149
      865.426200       0.083465
      865.800900       0.090264
      866.175800       0.091867
      866.551100       0.095931
      866.926700       0.096855
      867.302700       0.107578
      867.679000       0.100606
      868.055600       0.113383
      868.432500       0.116009
      868.809700       0.120811
      869.187300       0.113607
      869.565200       0.128719
      869.943500       0.132385
      870.322000       0.144666
      870.700900       0.140501
      871.080100       0.149471
      871.459700       0.154044
      871.839600       0.155188
      872.219800       0.159433
      872.600300       0.162405
      872.981200       0.178256
      873.362400       0.184547
      873.744000       0.197457
      874.125900       0.197824
      874.508100       0.200243
      874.890600       0.211945
      875.273500       0.229971
      875.656700       0.229584
      876.040300       0.239113
      876.424200       0.248937
      876.808400       0.257630
      877.193000       0.273776
      877.577900       0.283497
      877.963100       0.297250
      878.348700       0.305944
      878.734600       0.319354
      879.120900       0.330647
      879.507500       0.342106
      879.894400       0.353086
      880.281700       0.374046
      880.669300       0.380937
      881.057300       0.376765
      881.445600       0.403909
      881.834200       0.407525
      882.223200       0.425370
      882.612500       0.440377
      883.002200       0.451653
      883.392200       0.462880
      883.782600       0.475945
      884.173300       0.486981
      884.564400       0.504573
      884.955800       0.508413
      885.347500       0.542906
      885.739600       0.553083
      886.132000       0.575220
      886.524800       0.579530
      886.918000       0.597134
      887.311400       0.611443
      887.705300       0.630997
      888.099500       0.645195
      888.494000       0.663648
      888.888900       0.678149
      889.284100       0.696381
      889.679700       0.709063
      890.075700       0.724483
      890.472000       0.739040
      890.868600       0.750374
      891.265600       0.769822
      891.663000       0.787541
      892.060700       0.799670
      892.458700       0.813803
      892.857100       0.824604
      893.255900       0.833259
      893.655000       0.837556
      894.054500       0.847705
      894.454400       0.851183
      894.854600       0.859677
      895.255100       0.869588
      895.656100       0.873294
      896.057300       0.881255
      896.459000       0.888067
      896.861000       0.886260
      897.263300       0.891445
      897.666100       0.904986
      898.069200       0.882579
      898.472600       0.904019
      898.876400       0.889565
      899.280600       0.901270
      899.685100       0.913609
      900.090000       0.901645
      900.495300       0.909321
      900.900900       0.919064
      901.306900       0.916331
      901.713300       0.924645
      902.120000       0.929946
      902.527100       0.932869
      902.934500       0.926540
      903.342400       0.931315
      903.750600       0.934274
      904.159100       0.946860
      904.568100       0.951126
      904.977400       0.951326
      905.387100       0.955445
      905.797100       0.940276
      906.207500       0.956125
      906.618300       0.952168
      907.029500       0.964318
      907.441000       0.954691
      907.852900       0.963391
      908.265200       0.950176
      908.677900       0.956190
      909.090900       0.966141
      909.504300       0.960433
      909.918100       0.966329
      910.332300       0.966595
      910.746800       0.962545
      911.161700       0.957306
      911.577000       0.955737
      911.992700       0.960220
      912.408800       0.956105
      912.825200       0.955452
      913.242000       0.955249
      913.659200       0.962924
      914.076800       0.962115
      914.494700       0.955324
      914.913100       0.941876
      915.331800       0.948433
      915.750900       0.956314
      916.170400       0.960591
      916.590300       0.955171
      917.010500       0.954496
      917.431200       0.958230
      917.852200       0.964293
      918.273600       0.960688
      918.695500       0.965281
      919.117600       0.966047
      919.540200       0.971915
      919.963200       0.971704
      920.386600       0.976556
      920.810300       0.982342
      921.234500       0.985009
      921.659000       0.985867
      922.083900       0.990663
      922.509200       0.997557
      922.934900       0.992621
      923.361000       0.977926
      923.787500       0.981958
      924.214400       0.986145
      924.641700       0.979026
      925.069400       0.983332
      925.497500       0.985603
      925.925900       0.986308
      926.354800       0.986249
      926.784100       0.990822
      927.213700       0.982752
      927.643800       0.978985
      928.074200       0.985569
      928.505100       0.975575
      928.936400       0.983856
      929.368000       0.971980
      929.800100       0.978918
      930.232600       0.972796
      930.665400       0.977703
      931.098700       0.978383
      931.532400       0.981127
      931.966400       0.973767
      932.400900       0.975399
      932.835800       0.971146
      933.271100       0.981597
      933.706800       0.987475
      934.142900       0.972333
      934.579400       0.974918
      935.016400       0.983461
      935.453700       0.987639
      935.891400       0.986379
      936.329600       0.985342
      936.768100       0.975993
      937.207100       0.982985
      937.646500       0.979348
      938.086300       1.000000
      938.526500       0.980423
      938.967100       0.980419
      939.408200       0.974429
      939.849600       0.975168
      940.291500       0.979448
      940.733800       0.977066
      941.176500       0.970471
      941.619600       0.966607
      942.063100       0.962881
      942.507100       0.955671
      942.951400       0.954273
      943.396200       0.946060
      943.841400       0.940535
      944.287100       0.947149
      944.733100       0.936673
      945.179600       0.935071
      945.626500       0.932145
      946.073800       0.916420
      946.521500       0.911925
      946.969700       0.902397
      947.418300       0.893084
      947.867300       0.884708
      948.316700       0.884575
      948.766600       0.864069
      949.216900       0.857814
      949.667600       0.848165
      950.118800       0.834041
      950.570300       0.836467
      951.022300       0.813264
      951.474800       0.819281
      951.927700       0.807213
      952.381000       0.792812
      952.834700       0.780035
      953.288800       0.771647
      953.743400       0.751212
      954.198500       0.740238
      954.653900       0.740059
      955.109800       0.724202
      955.566200       0.709395
      956.022900       0.692504
      956.480200       0.674889
      956.937800       0.666931
      957.395900       0.658160
      957.854400       0.645128
      958.313400       0.623678
      958.772800       0.612483
      959.232600       0.595192
      959.692900       0.580294
      960.153600       0.565008
      960.614800       0.556737
      961.076400       0.531728
      961.538500       0.513410
      962.001000       0.502878
      962.463900       0.480425
      962.927300       0.472409
      963.391100       0.455812
      963.855400       0.439445
      964.320200       0.425542
      964.785300       0.405735
      965.251000       0.394481
      965.717000       0.382484
      966.183600       0.373365
      966.650600       0.359795
      967.118000       0.349263
      967.585900       0.334740
      968.054200       0.316921
      968.523000       0.308846
      968.992200       0.302517
      969.461900       0.288856
      969.932100       0.282749
      970.402700       0.263393
      970.873800       0.253418
      971.345300       0.246547
      971.817300       0.243622
      972.289700       0.224959
      972.762600       0.216600
      973.236000       0.212470
      973.709800       0.204834
      974.184100       0.196904
      974.658900       0.183681
      975.134100       0.178898
      975.609800       0.174796
      976.085900       0.167470
      976.562500       0.161475
      977.039600       0.153713
      977.517100       0.148763
      977.995100       0.135593
      978.473600       0.136848
      978.952500       0.126318
      979.431900       0.115907
      979.911800       0.120513
      980.392200       0.109775
      980.873000       0.108392
      981.354300       0.107348
      981.836000       0.098562
      982.318300       0.094628
      982.801000       0.088461
      983.284200       0.079696
      983.767800       0.085368
      984.252000       0.083038
      984.736600       0.073828
      985.221700       0.067462
      985.707200       0.069049
      986.193300       0.069638
      986.679800       0.066952
      987.166800       0.064932
      987.654300       0.063390
      988.142300       0.056601
      988.630700       0.051286
      989.119700       0.054689
      989.609100       0.054266
      990.099000       0.045485
      990.589400       0.048426
      991.080300       0.044483
      991.571600       0.044783
      992.063500       0.041967
      992.555800       0.042785
      993.048700       0.038587
      993.542000       0.034450
      994.035800       0.033049
      994.530100       0.032528
      995.024900       0.035086
      995.520200       0.028989
      996.015900       0.030191
      996.512200       0.029753
      997.009000       0.026333
      997.506200       0.024060
      998.004000       0.023787
      998.502200       0.021820
      999.001000       0.027555
      999.500200       0.024061
     1000.000000       0.016390
     1000.500300       0.019786
     1001.001000       0.020961
     1001.502300       0.018423
     1002.004000       0.019134
     1002.506300       0.021572
     1003.009000       0.016427
     1003.512300       0.018997
     1004.016100       0.016457
     1004.520300       0.014161
     1005.025100       0.019522
     1005.530400       0.017324
     1006.036200       0.016816
     1006.542500       0.009541
     1007.049300       0.014099
     1007.556700       0.012495
     1008.064500       0.013259
     1008.572900       0.012344
     1009.081700       0.010907
     1009.591100       0.011332
     1010.101000       0.015868
     1010.611400       0.015846
     1011.122300       0.013113
     1011.633800       0.008963
     1012.145700       0.012294
     1012.658200       0.011889
     1013.171200       0.009396
     1013.684700       0.009847
     1014.198800       0.005598
     1014.713300       0.009753
     1015.228400       0.009459
     1015.744000       0.009301
     1016.260200       0.009259
     1016.776800       0.010021
     1017.294000       0.011331
     1017.811700       0.009458
     1018.329900       0.011252
     1018.848700       0.010521
     1019.368000       0.008895
     1019.887800       0.010339
     1020.408200       0.007916
     1020.929000       0.008229
     1021.450500       0.008497
     1021.972400       0.008419
     1022.494900       0.008587
     1023.017900       0.007425
     1023.541500       0.007936
     1024.065500       0.006189
     1024.590200       0.014357
     1025.115300       0.009099
     1025.641000       0.008008
     1026.167300       0.003801
     1026.694000       0.006406
     1027.221400       0.007854
     1027.749200       0.004811
     1028.277600       0.006249
     1028.806600       0.007870
     1029.336100       0.004791
     1029.866100       0.008587
     1030.396700       0.005949
     1030.927800       0.006208
     1031.459500       0.006176
     1031.991700       0.004738
     1032.524500       0.005174
     1033.057900       0.005294
     1033.591700       0.006315
     1034.126200       0.008186
     1034.661100       0.007328
     1035.196700       0.006441
     1035.732800       0.006927
     1036.269400       0.007783
     1036.806600       0.006040
     1037.344400       0.005828
     1037.882700       0.006888
     1038.421600       0.007144
     1038.961000       0.005354
     1039.501000       0.004379
     1040.041600       0.006364
     1040.582700       0.008797
     1041.124400       0.007378
