25,   25, MVIRI VIS channel from srf_MET5_1994123_1994124_1801-Release_S10EL_10.dat
Number of data points:
806
Wavenumber (cm-1)   Filter response
     8350.730700       0.000000
     8357.710000       0.000000
     8364.701000       0.000000
     8371.703600       0.000001
     8378.718100       0.000004
     8385.744200       0.000009
     8392.782200       0.000016
     8399.832000       0.000026
     8406.893700       0.000040
     8413.967200       0.000058
     8421.052600       0.000081
     8428.150000       0.000108
     8435.259400       0.000142
     8442.380800       0.000181
     8449.514200       0.000226
     8456.659600       0.000278
     8463.817200       0.000337
     8470.986900       0.000404
     8478.168700       0.000478
     8485.362700       0.000561
     8492.569000       0.000652
     8499.787500       0.000752
     8507.018300       0.000861
     8514.261400       0.000979
     8521.516800       0.001107
     8528.784600       0.001246
     8536.064900       0.001394
     8543.357500       0.001554
     8550.662700       0.001724
     8557.980300       0.001905
     8565.310500       0.002097
     8572.653200       0.002301
     8580.008600       0.002517
     8587.376600       0.002745
     8594.757200       0.002985
     8602.150500       0.003237
     8609.556600       0.003502
     8616.975400       0.003780
     8624.407100       0.004071
     8631.851500       0.004375
     8639.308900       0.004692
     8646.779100       0.005023
     8654.262200       0.005368
     8661.758300       0.005727
     8669.267400       0.006099
     8676.789600       0.006486
     8684.324800       0.006887
     8691.873100       0.007303
     8699.434500       0.007733
     8707.009100       0.008178
     8714.596900       0.008638
     8722.198000       0.009113
     8729.812300       0.009604
     8737.439900       0.010109
     8745.080900       0.010630
     8752.735200       0.011167
     8760.403000       0.011720
     8768.084200       0.012288
     8775.778900       0.012872
     8783.487000       0.013473
     8791.208800       0.014089
     8798.944100       0.014722
     8806.693100       0.015372
     8814.455700       0.016038
     8822.232000       0.016721
     8830.022100       0.017420
     8837.825900       0.018137
     8845.643500       0.018870
     8853.475000       0.019621
     8861.320300       0.020389
     8869.179600       0.021174
     8877.052800       0.021976
     8884.940000       0.022797
     8892.841300       0.023635
     8900.756600       0.024490
     8908.686000       0.025364
     8916.629500       0.026256
     8924.587200       0.027165
     8932.559200       0.028093
     8940.545400       0.029039
     8948.545900       0.030004
     8956.560700       0.030987
     8964.589900       0.031989
     8972.633500       0.033009
     8980.691500       0.034049
     8988.764000       0.035107
     8996.851100       0.036184
     9004.952700       0.037281
     9013.068900       0.038397
     9021.199800       0.039531
     9029.345400       0.040686
     9037.505600       0.041860
     9045.680700       0.043054
     9053.870500       0.044267
     9062.075200       0.045500
     9070.294800       0.046753
     9078.529300       0.048026
     9086.778700       0.049320
     9095.043200       0.050633
     9103.322700       0.051967
     9111.617300       0.053321
     9119.927000       0.054696
     9128.251900       0.056091
     9136.592100       0.057507
     9144.947400       0.058944
     9153.318100       0.060402
     9161.704100       0.061880
     9170.105500       0.063380
     9178.522300       0.064901
     9186.954500       0.066443
     9195.402300       0.068007
     9203.865600       0.069592
     9212.344500       0.071198
     9220.839100       0.072826
     9229.349300       0.074476
     9237.875300       0.076148
     9246.417000       0.077841
     9254.974500       0.079556
     9263.547900       0.081293
     9272.137200       0.083053
     9280.742500       0.084834
     9289.363700       0.086638
     9298.000900       0.088464
     9306.654300       0.090312
     9315.323700       0.092183
     9324.009300       0.094076
     9332.711200       0.095992
     9341.429200       0.097931
     9350.163600       0.099892
     9358.914400       0.101876
     9367.681500       0.103883
     9376.465100       0.105913
     9385.265100       0.107965
     9394.081700       0.110041
     9402.914900       0.112139
     9411.764700       0.114261
     9420.631200       0.116406
     9429.514400       0.118574
     9438.414300       0.120765
     9447.331100       0.122980
     9456.264800       0.125218
     9465.215300       0.127479
     9474.182900       0.129763
     9483.167400       0.132071
     9492.169000       0.134402
     9501.187600       0.136757
     9510.223500       0.139135
     9519.276500       0.141537
     9528.346800       0.143962
     9537.434400       0.146411
     9546.539400       0.148882
     9555.661700       0.151378
     9564.801500       0.153897
     9573.958800       0.156440
     9583.133700       0.159006
     9592.326100       0.161595
     9601.536200       0.164208
     9610.764100       0.166845
     9620.009600       0.169505
     9629.273000       0.172188
     9638.554200       0.174895
     9647.853400       0.177625
     9657.170400       0.180378
     9666.505600       0.183155
     9675.858700       0.185955
     9685.230000       0.188778
     9694.619500       0.191625
     9704.027200       0.194494
     9713.453100       0.197387
     9722.897400       0.200303
     9732.360100       0.203241
     9741.841200       0.206202
     9751.340800       0.209186
     9760.859000       0.212194
     9770.395700       0.215223
     9779.951100       0.218275
     9789.525200       0.221350
     9799.118100       0.224448
     9808.729800       0.227567
     9818.360300       0.230709
     9828.009800       0.233872
     9837.678300       0.237058
     9847.365800       0.240266
     9857.072400       0.243495
     9866.798200       0.246747
     9876.543200       0.250019
     9886.307500       0.253313
     9896.091000       0.256629
     9905.894000       0.259965
     9915.716400       0.263323
     9925.558300       0.266701
     9935.419800       0.270101
     9945.300800       0.273521
     9955.201600       0.276961
     9965.122100       0.280421
     9975.062300       0.283902
     9985.022500       0.287403
     9995.002500       0.290923
    10005.002500       0.294463
    10015.022500       0.298022
    10025.062700       0.301601
    10035.122900       0.305198
    10045.203400       0.308815
    10055.304200       0.312450
    10065.425300       0.316103
    10075.566800       0.319775
    10085.728700       0.323465
    10095.911200       0.327173
    10106.114200       0.330898
    10116.337900       0.334641
    10126.582300       0.338400
    10136.847400       0.342177
    10147.133400       0.345970
    10157.440300       0.349780
    10167.768200       0.353606
    10178.117000       0.357448
    10188.487000       0.361306
    10198.878100       0.365179
    10209.290500       0.369068
    10219.724100       0.372971
    10230.179000       0.376889
    10240.655400       0.380822
    10251.153300       0.384769
    10261.672700       0.388729
    10272.213700       0.392703
    10282.776300       0.396690
    10293.360800       0.400691
    10303.967000       0.404704
    10314.595200       0.408730
    10325.245200       0.412768
    10335.917300       0.416817
    10346.611500       0.420878
    10357.327800       0.424951
    10368.066400       0.429034
    10378.827200       0.433128
    10389.610400       0.437232
    10400.416000       0.441346
    10411.244100       0.445470
    10422.094800       0.449603
    10432.968200       0.453745
    10443.864200       0.457896
    10454.783100       0.462055
    10465.724800       0.466222
    10476.689400       0.470397
    10487.677000       0.474579
    10498.687700       0.478768
    10509.721500       0.482964
    10520.778500       0.487165
    10531.858900       0.491373
    10542.962600       0.495587
    10554.089700       0.499805
    10565.240400       0.504028
    10576.414600       0.508256
    10587.612500       0.512488
    10598.834100       0.516724
    10610.079600       0.520963
    10621.348900       0.525204
    10632.642200       0.529449
    10643.959600       0.533696
    10655.301000       0.537945
    10666.666700       0.542195
    10678.056600       0.546446
    10689.470900       0.550698
    10700.909600       0.554950
    10712.372800       0.559202
    10723.860600       0.563454
    10735.373100       0.567705
    10746.910300       0.571955
    10758.472300       0.576203
    10770.059200       0.580449
    10781.671200       0.584693
    10793.308100       0.588934
    10804.970300       0.593172
    10816.657700       0.597406
    10828.370300       0.601636
    10840.108400       0.605862
    10851.871900       0.610083
    10863.661100       0.614299
    10875.475800       0.618509
    10887.316300       0.622714
    10899.182600       0.626912
    10911.074700       0.631103
    10922.992900       0.635287
    10934.937100       0.639464
    10946.907500       0.643633
    10958.904100       0.647793
    10970.927000       0.651944
    10982.976400       0.656087
    10995.052200       0.660220
    11007.154700       0.664342
    11019.283700       0.668455
    11031.439600       0.672557
    11043.622300       0.676647
    11055.832000       0.680726
    11068.068600       0.684793
    11080.332400       0.688848
    11092.623400       0.692891
    11104.941700       0.696919
    11117.287400       0.700935
    11129.660500       0.704936
    11142.061300       0.708924
    11154.489700       0.712897
    11166.945800       0.716854
    11179.429800       0.720796
    11191.941800       0.724723
    11204.481800       0.728633
    11217.049900       0.732526
    11229.646300       0.736403
    11242.270900       0.740262
    11254.924000       0.744104
    11267.605600       0.747927
    11280.315800       0.751732
    11293.054800       0.755519
    11305.822500       0.759286
    11318.619100       0.763033
    11331.444800       0.766761
    11344.299500       0.770468
    11357.183400       0.774155
    11370.096600       0.777821
    11383.039300       0.781466
    11396.011400       0.785088
    11409.013100       0.788689
    11422.044500       0.792268
    11435.105800       0.795824
    11448.196900       0.799357
    11461.318100       0.802866
    11474.469300       0.806352
    11487.650800       0.809814
    11500.862600       0.813251
    11514.104800       0.816664
    11527.377500       0.820052
    11540.680900       0.823415
    11554.015000       0.826752
    11567.380000       0.830063
    11580.775900       0.833348
    11594.202900       0.836607
    11607.661100       0.839839
    11621.150500       0.843044
    11634.671300       0.846222
    11648.223600       0.849371
    11661.807600       0.852494
    11675.423200       0.855587
    11689.070700       0.858653
    11702.750100       0.861690
    11716.461600       0.864698
    11730.205300       0.867677
    11743.981200       0.870626
    11757.789500       0.873546
    11771.630400       0.876436
    11785.503800       0.879295
    11799.410000       0.882124
    11813.349100       0.884923
    11827.321100       0.887691
    11841.326200       0.890428
    11855.364600       0.893133
    11869.436200       0.895807
    11883.541300       0.898450
    11897.680000       0.901060
    11911.852300       0.903639
    11926.058400       0.906185
    11940.298500       0.908699
    11954.572600       0.911181
    11968.880900       0.913629
    11983.223500       0.916045
    11997.600500       0.918428
    12012.012000       0.920777
    12026.458200       0.923094
    12040.939200       0.925376
    12055.455100       0.927625
    12070.006000       0.929841
    12084.592100       0.932022
    12099.213600       0.934169
    12113.870400       0.936282
    12128.562800       0.938362
    12143.290800       0.940406
    12158.054700       0.942417
    12172.854500       0.944392
    12187.690400       0.946333
    12202.562500       0.948240
    12217.471000       0.950112
    12232.415900       0.951949
    12247.397400       0.953751
    12262.415700       0.955518
    12277.470800       0.957250
    12292.563000       0.958947
    12307.692300       0.960610
    12322.858900       0.962237
    12338.062900       0.963828
    12353.304500       0.965385
    12368.583800       0.966907
    12383.900900       0.968394
    12399.256000       0.969845
    12414.649300       0.971261
    12430.080800       0.972642
    12445.550700       0.973988
    12461.059200       0.975299
    12476.606400       0.976575
    12492.192400       0.977816
    12507.817400       0.979022
    12523.481500       0.980193
    12539.185000       0.981329
    12554.927800       0.982431
    12570.710200       0.983497
    12586.532400       0.984529
    12602.394500       0.985527
    12618.296500       0.986489
    12634.238800       0.987418
    12650.221400       0.988312
    12666.244500       0.989172
    12682.308200       0.989998
    12698.412700       0.990790
    12714.558200       0.991548
    12730.744700       0.992272
    12746.972600       0.992963
    12763.241900       0.993620
    12779.552700       0.994244
    12795.905300       0.994834
    12812.299800       0.995392
    12828.736400       0.995917
    12845.215200       0.996409
    12861.736300       0.996868
    12878.300100       0.997296
    12894.906500       0.997691
    12911.555800       0.998054
    12928.248200       0.998386
    12944.983800       0.998685
    12961.762800       0.998954
    12978.585300       0.999191
    12995.451600       0.999398
    13012.361700       0.999574
    13029.316000       0.999719
    13046.314400       0.999834
    13063.357300       0.999919
    13080.444700       0.999974
    13097.576900       1.000000
    13114.754100       0.999997
    13131.976400       0.999964
    13149.243900       0.999903
    13166.556900       0.999813
    13183.915600       0.999695
    13201.320100       0.999550
    13218.770700       0.999376
    13236.267400       0.999176
    13253.810500       0.998948
    13271.400100       0.998694
    13289.036500       0.998413
    13306.719900       0.998106
    13324.450400       0.997773
    13342.228200       0.997415
    13360.053400       0.997031
    13377.926400       0.996623
    13395.847300       0.996190
    13413.816200       0.995733
    13431.833400       0.995252
    13449.899100       0.994747
    13468.013500       0.994219
    13486.176700       0.993669
    13504.388900       0.993096
    13522.650400       0.992500
    13540.961400       0.991883
    13559.322000       0.991245
    13577.732500       0.990586
    13596.193100       0.989905
    13614.703900       0.989205
    13633.265200       0.988485
    13651.877100       0.987745
    13670.540000       0.986985
    13689.253900       0.986207
    13708.019200       0.985411
    13726.836000       0.984597
    13745.704500       0.983764
    13764.624900       0.982915
    13783.597500       0.982049
    13802.622500       0.981166
    13821.700100       0.980267
    13840.830400       0.979353
    13860.013900       0.978423
    13879.250500       0.977479
    13898.540700       0.976520
    13917.884500       0.975547
    13937.282200       0.974560
    13956.734100       0.973560
    13976.240400       0.972548
    13995.801300       0.971522
    14015.417000       0.970485
    14035.087700       0.969437
    14054.813800       0.968377
    14074.595400       0.967306
    14094.432700       0.966225
    14114.326000       0.965135
    14134.275600       0.964034
    14154.281700       0.962925
    14174.344400       0.961807
    14194.464200       0.960681
    14214.641100       0.959546
    14234.875400       0.958405
    14255.167500       0.957257
    14275.517500       0.956102
    14295.925700       0.954940
    14316.392300       0.953774
    14336.917600       0.952601
    14357.501800       0.951424
    14378.145200       0.950243
    14398.848100       0.949057
    14419.610700       0.947868
    14440.433200       0.946675
    14461.316000       0.945480
    14482.259200       0.944282
    14503.263200       0.943083
    14524.328200       0.941881
    14545.454500       0.940679
    14566.642400       0.939475
    14587.892000       0.938272
    14609.203800       0.937068
    14630.577900       0.935864
    14652.014700       0.934662
    14673.514300       0.933460
    14695.077100       0.932260
    14716.703500       0.931062
    14738.393500       0.929866
    14760.147600       0.928673
    14781.966000       0.927483
    14803.849000       0.926297
    14825.796900       0.925114
    14847.809900       0.923936
    14869.888500       0.922762
    14892.032800       0.921593
    14914.243100       0.920429
    14936.519800       0.919270
    14958.863100       0.918118
    14981.273400       0.916972
    15003.750900       0.915832
    15026.296000       0.914700
    15048.909000       0.913574
    15071.590100       0.912457
    15094.339600       0.911347
    15117.158000       0.910245
    15140.045400       0.909152
    15163.002300       0.908068
    15186.028900       0.906992
    15209.125500       0.905927
    15232.292500       0.904870
    15255.530100       0.903824
    15278.838800       0.902788
    15302.218800       0.901763
    15325.670500       0.900748
    15349.194200       0.899745
    15372.790200       0.898753
    15396.458800       0.897772
    15420.200500       0.896803
    15444.015400       0.895846
    15467.904100       0.894901
    15491.866800       0.893968
    15515.903800       0.893048
    15540.015500       0.892141
    15564.202300       0.891247
    15588.464500       0.890367
    15612.802500       0.889499
    15637.216600       0.888646
    15661.707100       0.887805
    15686.274500       0.886979
    15710.919100       0.886167
    15735.641200       0.885369
    15760.441300       0.884585
    15785.319700       0.883816
    15810.276700       0.883061
    15835.312700       0.882321
    15860.428200       0.881596
    15885.623500       0.880886
    15910.899000       0.880190
    15936.255000       0.879510
    15961.691900       0.878844
    15987.210200       0.878194
    16012.810200       0.877559
    16038.492400       0.876939
    16064.257000       0.876335
    16090.104600       0.875745
    16116.035500       0.875171
    16142.050000       0.874613
    16168.148700       0.874069
    16194.332000       0.873541
    16220.600200       0.873028
    16246.953700       0.872530
    16273.393000       0.872048
    16299.918500       0.871581
    16326.530600       0.871128
    16353.229800       0.870691
    16380.016400       0.870268
    16406.890900       0.869860
    16433.853700       0.869467
    16460.905300       0.869089
    16488.046200       0.868725
    16515.276600       0.868375
    16542.597200       0.868040
    16570.008300       0.867718
    16597.510400       0.867411
    16625.103900       0.867117
    16652.789300       0.866836
    16680.567100       0.866569
    16708.437800       0.866315
    16736.401700       0.866074
    16764.459300       0.865845
    16792.611300       0.865629
    16820.857900       0.865425
    16849.199700       0.865233
    16877.637100       0.865052
    16906.170800       0.864883
    16934.801000       0.864725
    16963.528400       0.864577
    16992.353400       0.864440
    17021.276600       0.864314
    17050.298400       0.864196
    17079.419300       0.864089
    17108.639900       0.863990
    17137.960600       0.863900
    17167.382000       0.863819
    17196.904600       0.863745
    17226.528900       0.863679
    17256.255400       0.863620
    17286.084700       0.863568
