26,   26, MVIRI VIS channel from srf_MET5_1994168_1994169_1801-Release_S10EL_10.dat
Number of data points:
806
Wavenumber (cm-1)   Filter response
     8350.730700       0.000000
     8357.710000       0.000000
     8364.701000       0.000000
     8371.703600       0.000001
     8378.718100       0.000004
     8385.744200       0.000009
     8392.782200       0.000016
     8399.832000       0.000026
     8406.893700       0.000040
     8413.967200       0.000058
     8421.052600       0.000081
     8428.150000       0.000109
     8435.259400       0.000142
     8442.380800       0.000181
     8449.514200       0.000226
     8456.659600       0.000278
     8463.817200       0.000337
     8470.986900       0.000404
     8478.168700       0.000478
     8485.362700       0.000561
     8492.569000       0.000652
     8499.787500       0.000752
     8507.018300       0.000861
     8514.261400       0.000980
     8521.516800       0.001108
     8528.784600       0.001247
     8536.064900       0.001395
     8543.357500       0.001555
     8550.662700       0.001725
     8557.980300       0.001906
     8565.310500       0.002099
     8572.653200       0.002303
     8580.008600       0.002519
     8587.376600       0.002746
     8594.757200       0.002987
     8602.150500       0.003239
     8609.556600       0.003504
     8616.975400       0.003782
     8624.407100       0.004073
     8631.851500       0.004378
     8639.308900       0.004695
     8646.779100       0.005026
     8654.262200       0.005371
     8661.758300       0.005730
     8669.267400       0.006103
     8676.789600       0.006490
     8684.324800       0.006891
     8691.873100       0.007307
     8699.434500       0.007738
     8707.009100       0.008183
     8714.596900       0.008643
     8722.198000       0.009119
     8729.812300       0.009609
     8737.439900       0.010115
     8745.080900       0.010637
     8752.735200       0.011174
     8760.403000       0.011727
     8768.084200       0.012295
     8775.778900       0.012880
     8783.487000       0.013481
     8791.208800       0.014098
     8798.944100       0.014731
     8806.693100       0.015381
     8814.455700       0.016047
     8822.232000       0.016730
     8830.022100       0.017430
     8837.825900       0.018147
     8845.643500       0.018881
     8853.475000       0.019632
     8861.320300       0.020400
     8869.179600       0.021186
     8877.052800       0.021989
     8884.940000       0.022810
     8892.841300       0.023648
     8900.756600       0.024504
     8908.686000       0.025378
     8916.629500       0.026270
     8924.587200       0.027181
     8932.559200       0.028109
     8940.545400       0.029056
     8948.545900       0.030021
     8956.560700       0.031005
     8964.589900       0.032007
     8972.633500       0.033028
     8980.691500       0.034068
     8988.764000       0.035127
     8996.851100       0.036204
     9004.952700       0.037302
     9013.068900       0.038418
     9021.199800       0.039553
     9029.345400       0.040708
     9037.505600       0.041883
     9045.680700       0.043077
     9053.870500       0.044291
     9062.075200       0.045525
     9070.294800       0.046779
     9078.529300       0.048052
     9086.778700       0.049346
     9095.043200       0.050660
     9103.322700       0.051995
     9111.617300       0.053350
     9119.927000       0.054725
     9128.251900       0.056121
     9136.592100       0.057538
     9144.947400       0.058976
     9153.318100       0.060434
     9161.704100       0.061913
     9170.105500       0.063414
     9178.522300       0.064936
     9186.954500       0.066478
     9195.402300       0.068043
     9203.865600       0.069628
     9212.344500       0.071236
     9220.839100       0.072864
     9229.349300       0.074515
     9237.875300       0.076187
     9246.417000       0.077881
     9254.974500       0.079597
     9263.547900       0.081335
     9272.137200       0.083095
     9280.742500       0.084878
     9289.363700       0.086682
     9298.000900       0.088509
     9306.654300       0.090358
     9315.323700       0.092230
     9324.009300       0.094124
     9332.711200       0.096041
     9341.429200       0.097980
     9350.163600       0.099942
     9358.914400       0.101927
     9367.681500       0.103935
     9376.465100       0.105966
     9385.265100       0.108019
     9394.081700       0.110096
     9402.914900       0.112195
     9411.764700       0.114318
     9420.631200       0.116464
     9429.514400       0.118633
     9438.414300       0.120825
     9447.331100       0.123040
     9456.264800       0.125279
     9465.215300       0.127541
     9474.182900       0.129826
     9483.167400       0.132135
     9492.169000       0.134467
     9501.187600       0.136823
     9510.223500       0.139202
     9519.276500       0.141605
     9528.346800       0.144031
     9537.434400       0.146481
     9546.539400       0.148954
     9555.661700       0.151450
     9564.801500       0.153970
     9573.958800       0.156514
     9583.133700       0.159081
     9592.326100       0.161671
     9601.536200       0.164286
     9610.764100       0.166923
     9620.009600       0.169584
     9629.273000       0.172268
     9638.554200       0.174976
     9647.853400       0.177707
     9657.170400       0.180462
     9666.505600       0.183240
     9675.858700       0.186041
     9685.230000       0.188865
     9694.619500       0.191712
     9704.027200       0.194583
     9713.453100       0.197477
     9722.897400       0.200393
     9732.360100       0.203333
     9741.841200       0.206295
     9751.340800       0.209281
     9760.859000       0.212289
     9770.395700       0.215320
     9779.951100       0.218373
     9789.525200       0.221449
     9799.118100       0.224547
     9808.729800       0.227667
     9818.360300       0.230810
     9828.009800       0.233975
     9837.678300       0.237162
     9847.365800       0.240371
     9857.072400       0.243601
     9866.798200       0.246854
     9876.543200       0.250127
     9886.307500       0.253423
     9896.091000       0.256739
     9905.894000       0.260077
     9915.716400       0.263436
     9925.558300       0.266815
     9935.419800       0.270215
     9945.300800       0.273636
     9955.201600       0.277078
     9965.122100       0.280539
     9975.062300       0.284021
     9985.022500       0.287523
     9995.002500       0.291044
    10005.002500       0.294585
    10015.022500       0.298145
    10025.062700       0.301725
    10035.122900       0.305324
    10045.203400       0.308941
    10055.304200       0.312577
    10065.425300       0.316232
    10075.566800       0.319905
    10085.728700       0.323595
    10095.911200       0.327304
    10106.114200       0.331030
    10116.337900       0.334774
    10126.582300       0.338535
    10136.847400       0.342313
    10147.133400       0.346107
    10157.440300       0.349918
    10167.768200       0.353745
    10178.117000       0.357588
    10188.487000       0.361447
    10198.878100       0.365321
    10209.290500       0.369210
    10219.724100       0.373115
    10230.179000       0.377034
    10240.655400       0.380967
    10251.153300       0.384915
    10261.672700       0.388876
    10272.213700       0.392851
    10282.776300       0.396840
    10293.360800       0.400841
    10303.967000       0.404855
    10314.595200       0.408882
    10325.245200       0.412920
    10335.917300       0.416971
    10346.611500       0.421033
    10357.327800       0.425106
    10368.066400       0.429190
    10378.827200       0.433285
    10389.610400       0.437390
    10400.416000       0.441505
    10411.244100       0.445630
    10422.094800       0.449764
    10432.968200       0.453907
    10443.864200       0.458058
    10454.783100       0.462218
    10465.724800       0.466386
    10476.689400       0.470561
    10487.677000       0.474744
    10498.687700       0.478934
    10509.721500       0.483130
    10520.778500       0.487333
    10531.858900       0.491541
    10542.962600       0.495755
    10554.089700       0.499974
    10565.240400       0.504198
    10576.414600       0.508427
    10587.612500       0.512659
    10598.834100       0.516896
    10610.079600       0.521135
    10621.348900       0.525378
    10632.642200       0.529623
    10643.959600       0.533870
    10655.301000       0.538119
    10666.666700       0.542370
    10678.056600       0.546622
    10689.470900       0.550874
    10700.909600       0.555127
    10712.372800       0.559380
    10723.860600       0.563632
    10735.373100       0.567883
    10746.910300       0.572134
    10758.472300       0.576382
    10770.059200       0.580629
    10781.671200       0.584873
    10793.308100       0.589114
    10804.970300       0.593352
    10816.657700       0.597587
    10828.370300       0.601817
    10840.108400       0.606043
    10851.871900       0.610265
    10863.661100       0.614481
    10875.475800       0.618692
    10887.316300       0.622896
    10899.182600       0.627095
    10911.074700       0.631286
    10922.992900       0.635470
    10934.937100       0.639647
    10946.907500       0.643816
    10958.904100       0.647976
    10970.927000       0.652128
    10982.976400       0.656270
    10995.052200       0.660403
    11007.154700       0.664526
    11019.283700       0.668639
    11031.439600       0.672741
    11043.622300       0.676831
    11055.832000       0.680910
    11068.068600       0.684977
    11080.332400       0.689032
    11092.623400       0.693074
    11104.941700       0.697103
    11117.287400       0.701118
    11129.660500       0.705120
    11142.061300       0.709107
    11154.489700       0.713080
    11166.945800       0.717037
    11179.429800       0.720979
    11191.941800       0.724905
    11204.481800       0.728815
    11217.049900       0.732708
    11229.646300       0.736584
    11242.270900       0.740443
    11254.924000       0.744285
    11267.605600       0.748108
    11280.315800       0.751913
    11293.054800       0.755698
    11305.822500       0.759465
    11318.619100       0.763212
    11331.444800       0.766939
    11344.299500       0.770646
    11357.183400       0.774333
    11370.096600       0.777998
    11383.039300       0.781642
    11396.011400       0.785264
    11409.013100       0.788864
    11422.044500       0.792442
    11435.105800       0.795998
    11448.196900       0.799530
    11461.318100       0.803039
    11474.469300       0.806524
    11487.650800       0.809985
    11500.862600       0.813422
    11514.104800       0.816834
    11527.377500       0.820221
    11540.680900       0.823583
    11554.015000       0.826920
    11567.380000       0.830230
    11580.775900       0.833514
    11594.202900       0.836772
    11607.661100       0.840003
    11621.150500       0.843207
    11634.671300       0.846384
    11648.223600       0.849533
    11661.807600       0.852654
    11675.423200       0.855747
    11689.070700       0.858812
    11702.750100       0.861847
    11716.461600       0.864854
    11730.205300       0.867832
    11743.981200       0.870780
    11757.789500       0.873699
    11771.630400       0.876588
    11785.503800       0.879446
    11799.410000       0.882274
    11813.349100       0.885072
    11827.321100       0.887838
    11841.326200       0.890574
    11855.364600       0.893278
    11869.436200       0.895951
    11883.541300       0.898592
    11897.680000       0.901202
    11911.852300       0.903779
    11926.058400       0.906324
    11940.298500       0.908837
    11954.572600       0.911317
    11968.880900       0.913764
    11983.223500       0.916178
    11997.600500       0.918559
    12012.012000       0.920908
    12026.458200       0.923222
    12040.939200       0.925504
    12055.455100       0.927751
    12070.006000       0.929965
    12084.592100       0.932145
    12099.213600       0.934291
    12113.870400       0.936402
    12128.562800       0.938480
    12143.290800       0.940523
    12158.054700       0.942532
    12172.854500       0.944506
    12187.690400       0.946445
    12202.562500       0.948350
    12217.471000       0.950220
    12232.415900       0.952056
    12247.397400       0.953856
    12262.415700       0.955621
    12277.470800       0.957352
    12292.563000       0.959047
    12307.692300       0.960708
    12322.858900       0.962333
    12338.062900       0.963923
    12353.304500       0.965478
    12368.583800       0.966998
    12383.900900       0.968483
    12399.256000       0.969933
    12414.649300       0.971347
    12430.080800       0.972726
    12445.550700       0.974071
    12461.059200       0.975380
    12476.606400       0.976654
    12492.192400       0.977893
    12507.817400       0.979097
    12523.481500       0.980266
    12539.185000       0.981400
    12554.927800       0.982499
    12570.710200       0.983564
    12586.532400       0.984594
    12602.394500       0.985589
    12618.296500       0.986550
    12634.238800       0.987477
    12650.221400       0.988369
    12666.244500       0.989227
    12682.308200       0.990051
    12698.412700       0.990841
    12714.558200       0.991596
    12730.744700       0.992319
    12746.972600       0.993007
    12763.241900       0.993662
    12779.552700       0.994284
    12795.905300       0.994873
    12812.299800       0.995428
    12828.736400       0.995951
    12845.215200       0.996441
    12861.736300       0.996899
    12878.300100       0.997324
    12894.906500       0.997717
    12911.555800       0.998078
    12928.248200       0.998407
    12944.983800       0.998705
    12961.762800       0.998971
    12978.585300       0.999207
    12995.451600       0.999411
    13012.361700       0.999584
    13029.316000       0.999728
    13046.314400       0.999840
    13063.357300       0.999923
    13080.444700       0.999976
    13097.576900       1.000000
    13114.754100       0.999994
    13131.976400       0.999960
    13149.243900       0.999896
    13166.556900       0.999805
    13183.915600       0.999685
    13201.320100       0.999537
    13218.770700       0.999361
    13236.267400       0.999158
    13253.810500       0.998928
    13271.400100       0.998672
    13289.036500       0.998388
    13306.719900       0.998079
    13324.450400       0.997744
    13342.228200       0.997384
    13360.053400       0.996998
    13377.926400       0.996587
    13395.847300       0.996152
    13413.816200       0.995693
    13431.833400       0.995209
    13449.899100       0.994703
    13468.013500       0.994173
    13486.176700       0.993620
    13504.388900       0.993044
    13522.650400       0.992447
    13540.961400       0.991828
    13559.322000       0.991187
    13577.732500       0.990525
    13596.193100       0.989843
    13614.703900       0.989140
    13633.265200       0.988418
    13651.877100       0.987675
    13670.540000       0.986914
    13689.253900       0.986134
    13708.019200       0.985335
    13726.836000       0.984518
    13745.704500       0.983684
    13764.624900       0.982833
    13783.597500       0.981964
    13802.622500       0.981079
    13821.700100       0.980178
    13840.830400       0.979262
    13860.013900       0.978330
    13879.250500       0.977383
    13898.540700       0.976422
    13917.884500       0.975446
    13937.282200       0.974457
    13956.734100       0.973455
    13976.240400       0.972440
    13995.801300       0.971413
    14015.417000       0.970374
    14035.087700       0.969323
    14054.813800       0.968261
    14074.595400       0.967188
    14094.432700       0.966105
    14114.326000       0.965012
    14134.275600       0.963909
    14154.281700       0.962798
    14174.344400       0.961678
    14194.464200       0.960549
    14214.641100       0.959413
    14234.875400       0.958269
    14255.167500       0.957119
    14275.517500       0.955961
    14295.925700       0.954798
    14316.392300       0.953629
    14336.917600       0.952455
    14357.501800       0.951275
    14378.145200       0.950092
    14398.848100       0.948904
    14419.610700       0.947712
    14440.433200       0.946518
    14461.316000       0.945320
    14482.259200       0.944120
    14503.263200       0.942918
    14524.328200       0.941715
    14545.454500       0.940510
    14566.642400       0.939305
    14587.892000       0.938099
    14609.203800       0.936893
    14630.577900       0.935687
    14652.014700       0.934482
    14673.514300       0.933279
    14695.077100       0.932076
    14716.703500       0.930876
    14738.393500       0.929678
    14760.147600       0.928483
    14781.966000       0.927291
    14803.849000       0.926102
    14825.796900       0.924917
    14847.809900       0.923737
    14869.888500       0.922561
    14892.032800       0.921389
    14914.243100       0.920223
    14936.519800       0.919063
    14958.863100       0.917908
    14981.273400       0.916760
    15003.750900       0.915618
    15026.296000       0.914484
    15048.909000       0.913356
    15071.590100       0.912236
    15094.339600       0.911124
    15117.158000       0.910020
    15140.045400       0.908925
    15163.002300       0.907839
    15186.028900       0.906761
    15209.125500       0.905693
    15232.292500       0.904635
    15255.530100       0.903587
    15278.838800       0.902549
    15302.218800       0.901521
    15325.670500       0.900504
    15349.194200       0.899498
    15372.790200       0.898504
    15396.458800       0.897521
    15420.200500       0.896550
    15444.015400       0.895590
    15467.904100       0.894643
    15491.866800       0.893709
    15515.903800       0.892787
    15540.015500       0.891878
    15564.202300       0.890981
    15588.464500       0.890098
    15612.802500       0.889229
    15637.216600       0.888373
    15661.707100       0.887531
    15686.274500       0.886702
    15710.919100       0.885888
    15735.641200       0.885088
    15760.441300       0.884302
    15785.319700       0.883530
    15810.276700       0.882773
    15835.312700       0.882031
    15860.428200       0.881303
    15885.623500       0.880591
    15910.899000       0.879893
    15936.255000       0.879210
    15961.691900       0.878543
    15987.210200       0.877890
    16012.810200       0.877253
    16038.492400       0.876631
    16064.257000       0.876024
    16090.104600       0.875432
    16116.035500       0.874856
    16142.050000       0.874295
    16168.148700       0.873749
    16194.332000       0.873218
    16220.600200       0.872703
    16246.953700       0.872203
    16273.393000       0.871718
    16299.918500       0.871248
    16326.530600       0.870794
    16353.229800       0.870354
    16380.016400       0.869929
    16406.890900       0.869519
    16433.853700       0.869123
    16460.905300       0.868742
    16488.046200       0.868376
    16515.276600       0.868024
    16542.597200       0.867686
    16570.008300       0.867362
    16597.510400       0.867052
    16625.103900       0.866755
    16652.789300       0.866472
    16680.567100       0.866203
    16708.437800       0.865946
    16736.401700       0.865702
    16764.459300       0.865471
    16792.611300       0.865253
    16820.857900       0.865046
    16849.199700       0.864851
    16877.637100       0.864668
    16906.170800       0.864497
    16934.801000       0.864336
    16963.528400       0.864186
    16992.353400       0.864046
    17021.276600       0.863917
    17050.298400       0.863797
    17079.419300       0.863687
    17108.639900       0.863586
    17137.960600       0.863493
    17167.382000       0.863409
    17196.904600       0.863332
    17226.528900       0.863264
    17256.255400       0.863202
    17286.084700       0.863147
