69,   69, MVIRI VIS channel from srf_MET7_2006078_2006079_1801-Release_S10EE_10.dat
Number of data points:
793
Wavenumber (cm-1)   Filter response
     8442.380800       0.000000
     8449.514200       0.000000
     8456.659600       0.000004
     8463.817200       0.000055
     8470.986900       0.000163
     8478.168700       0.000326
     8485.362700       0.000543
     8492.569000       0.000811
     8499.787500       0.001130
     8507.018300       0.001498
     8514.261400       0.001914
     8521.516800       0.002376
     8528.784600       0.002883
     8536.064900       0.003434
     8543.357500       0.004027
     8550.662700       0.004662
     8557.980300       0.005337
     8565.310500       0.006050
     8572.653200       0.006802
     8580.008600       0.007591
     8587.376600       0.008416
     8594.757200       0.009277
     8602.150500       0.010171
     8609.556600       0.011099
     8616.975400       0.012060
     8624.407100       0.013052
     8631.851500       0.014076
     8639.308900       0.015130
     8646.779100       0.016213
     8654.262200       0.017326
     8661.758300       0.018468
     8669.267400       0.019637
     8676.789600       0.020833
     8684.324800       0.022056
     8691.873100       0.023306
     8699.434500       0.024581
     8707.009100       0.025882
     8714.596900       0.027208
     8722.198000       0.028558
     8729.812300       0.029932
     8737.439900       0.031330
     8745.080900       0.032752
     8752.735200       0.034197
     8760.403000       0.035665
     8768.084200       0.037155
     8775.778900       0.038668
     8783.487000       0.040203
     8791.208800       0.041760
     8798.944100       0.043338
     8806.693100       0.044938
     8814.455700       0.046560
     8822.232000       0.048203
     8830.022100       0.049866
     8837.825900       0.051551
     8845.643500       0.053257
     8853.475000       0.054983
     8861.320300       0.056731
     8869.179600       0.058498
     8877.052800       0.060287
     8884.940000       0.062096
     8892.841300       0.063925
     8900.756600       0.065775
     8908.686000       0.067646
     8916.629500       0.069537
     8924.587200       0.071448
     8932.559200       0.073380
     8940.545400       0.075333
     8948.545900       0.077306
     8956.560700       0.079299
     8964.589900       0.081313
     8972.633500       0.083348
     8980.691500       0.085403
     8988.764000       0.087480
     8996.851100       0.089577
     9004.952700       0.091695
     9013.068900       0.093834
     9021.199800       0.095993
     9029.345400       0.098175
     9037.505600       0.100377
     9045.680700       0.102600
     9053.870500       0.104845
     9062.075200       0.107112
     9070.294800       0.109399
     9078.529300       0.111709
     9086.778700       0.114040
     9095.043200       0.116393
     9103.322700       0.118768
     9111.617300       0.121165
     9119.927000       0.123583
     9128.251900       0.126025
     9136.592100       0.128488
     9144.947400       0.130974
     9153.318100       0.133482
     9161.704100       0.136012
     9170.105500       0.138566
     9178.522300       0.141142
     9186.954500       0.143740
     9195.402300       0.146362
     9203.865600       0.149006
     9212.344500       0.151674
     9220.839100       0.154364
     9229.349300       0.157078
     9237.875300       0.159815
     9246.417000       0.162574
     9254.974500       0.165358
     9263.547900       0.168165
     9272.137200       0.170995
     9280.742500       0.173849
     9289.363700       0.176726
     9298.000900       0.179626
     9306.654300       0.182551
     9315.323700       0.185498
     9324.009300       0.188470
     9332.711200       0.191465
     9341.429200       0.194484
     9350.163600       0.197526
     9358.914400       0.200592
     9367.681500       0.203682
     9376.465100       0.206796
     9385.265100       0.209933
     9394.081700       0.213093
     9402.914900       0.216277
     9411.764700       0.219485
     9420.631200       0.222717
     9429.514400       0.225971
     9438.414300       0.229250
     9447.331100       0.232551
     9456.264800       0.235876
     9465.215300       0.239225
     9474.182900       0.242596
     9483.167400       0.245991
     9492.169000       0.249408
     9501.187600       0.252849
     9510.223500       0.256312
     9519.276500       0.259798
     9528.346800       0.263307
     9537.434400       0.266838
     9546.539400       0.270391
     9555.661700       0.273967
     9564.801500       0.277565
     9573.958800       0.281185
     9583.133700       0.284827
     9592.326100       0.288490
     9601.536200       0.292175
     9610.764100       0.295880
     9620.009600       0.299608
     9629.273000       0.303356
     9638.554200       0.307125
     9647.853400       0.310915
     9657.170400       0.314725
     9666.505600       0.318555
     9675.858700       0.322406
     9685.230000       0.326276
     9694.619500       0.330165
     9704.027200       0.334074
     9713.453100       0.338002
     9722.897400       0.341949
     9732.360100       0.345914
     9741.841200       0.349898
     9751.340800       0.353899
     9760.859000       0.357919
     9770.395700       0.361956
     9779.951100       0.366010
     9789.525200       0.370082
     9799.118100       0.374170
     9808.729800       0.378274
     9818.360300       0.382394
     9828.009800       0.386530
     9837.678300       0.390682
     9847.365800       0.394849
     9857.072400       0.399030
     9866.798200       0.403226
     9876.543200       0.407436
     9886.307500       0.411660
     9896.091000       0.415898
     9905.894000       0.420148
     9915.716400       0.424412
     9925.558300       0.428688
     9935.419800       0.432976
     9945.300800       0.437275
     9955.201600       0.441586
     9965.122100       0.445908
     9975.062300       0.450240
     9985.022500       0.454583
     9995.002500       0.458935
    10005.002500       0.463297
    10015.022500       0.467668
    10025.062700       0.472047
    10035.122900       0.476435
    10045.203400       0.480830
    10055.304200       0.485233
    10065.425300       0.489643
    10075.566800       0.494059
    10085.728700       0.498481
    10095.911200       0.502909
    10106.114200       0.507343
    10116.337900       0.511781
    10126.582300       0.516224
    10136.847400       0.520670
    10147.133400       0.525121
    10157.440300       0.529574
    10167.768200       0.534030
    10178.117000       0.538488
    10188.487000       0.542948
    10198.878100       0.547409
    10209.290500       0.551872
    10219.724100       0.556334
    10230.179000       0.560797
    10240.655400       0.565259
    10251.153300       0.569720
    10261.672700       0.574180
    10272.213700       0.578637
    10282.776300       0.583093
    10293.360800       0.587546
    10303.967000       0.591995
    10314.595200       0.596441
    10325.245200       0.600882
    10335.917300       0.605319
    10346.611500       0.609751
    10357.327800       0.614177
    10368.066400       0.618597
    10378.827200       0.623010
    10389.610400       0.627417
    10400.416000       0.631816
    10411.244100       0.636207
    10422.094800       0.640590
    10432.968200       0.644964
    10443.864200       0.649328
    10454.783100       0.653683
    10465.724800       0.658027
    10476.689400       0.662361
    10487.677000       0.666684
    10498.687700       0.670994
    10509.721500       0.675293
    10520.778500       0.679579
    10531.858900       0.683852
    10542.962600       0.688111
    10554.089700       0.692357
    10565.240400       0.696588
    10576.414600       0.700804
    10587.612500       0.705005
    10598.834100       0.709190
    10610.079600       0.713359
    10621.348900       0.717511
    10632.642200       0.721646
    10643.959600       0.725763
    10655.301000       0.729863
    10666.666700       0.733944
    10678.056600       0.738006
    10689.470900       0.742048
    10700.909600       0.746071
    10712.372800       0.750074
    10723.860600       0.754056
    10735.373100       0.758017
    10746.910300       0.761957
    10758.472300       0.765875
    10770.059200       0.769770
    10781.671200       0.773643
    10793.308100       0.777493
    10804.970300       0.781320
    10816.657700       0.785122
    10828.370300       0.788900
    10840.108400       0.792654
    10851.871900       0.796382
    10863.661100       0.800085
    10875.475800       0.803762
    10887.316300       0.807413
    10899.182600       0.811038
    10911.074700       0.814635
    10922.992900       0.818206
    10934.937100       0.821748
    10946.907500       0.825263
    10958.904100       0.828749
    10970.927000       0.832207
    10982.976400       0.835635
    10995.052200       0.839034
    11007.154700       0.842404
    11019.283700       0.845743
    11031.439600       0.849053
    11043.622300       0.852331
    11055.832000       0.855579
    11068.068600       0.858795
    11080.332400       0.861980
    11092.623400       0.865133
    11104.941700       0.868254
    11117.287400       0.871343
    11129.660500       0.874398
    11142.061300       0.877421
    11154.489700       0.880411
    11166.945800       0.883367
    11179.429800       0.886289
    11191.941800       0.889178
    11204.481800       0.892032
    11217.049900       0.894852
    11229.646300       0.897637
    11242.270900       0.900387
    11254.924000       0.903102
    11267.605600       0.905782
    11280.315800       0.908426
    11293.054800       0.911035
    11305.822500       0.913607
    11318.619100       0.916144
    11331.444800       0.918644
    11344.299500       0.921107
    11357.183400       0.923534
    11370.096600       0.925924
    11383.039300       0.928278
    11396.011400       0.930594
    11409.013100       0.932872
    11422.044500       0.935114
    11435.105800       0.937318
    11448.196900       0.939484
    11461.318100       0.941613
    11474.469300       0.943703
    11487.650800       0.945756
    11500.862600       0.947771
    11514.104800       0.949747
    11527.377500       0.951686
    11540.680900       0.953586
    11554.015000       0.955447
    11567.380000       0.957270
    11580.775900       0.959055
    11594.202900       0.960801
    11607.661100       0.962508
    11621.150500       0.964177
    11634.671300       0.965807
    11648.223600       0.967399
    11661.807600       0.968952
    11675.423200       0.970466
    11689.070700       0.971941
    11702.750100       0.973378
    11716.461600       0.974776
    11730.205300       0.976135
    11743.981200       0.977455
    11757.789500       0.978737
    11771.630400       0.979981
    11785.503800       0.981186
    11799.410000       0.982352
    11813.349100       0.983480
    11827.321100       0.984570
    11841.326200       0.985621
    11855.364600       0.986634
    11869.436200       0.987609
    11883.541300       0.988546
    11897.680000       0.989444
    11911.852300       0.990306
    11926.058400       0.991129
    11940.298500       0.991915
    11954.572600       0.992663
    11968.880900       0.993374
    11983.223500       0.994047
    11997.600500       0.994684
    12012.012000       0.995283
    12026.458200       0.995846
    12040.939200       0.996372
    12055.455100       0.996862
    12070.006000       0.997316
    12084.592100       0.997733
    12099.213600       0.998115
    12113.870400       0.998460
    12128.562800       0.998771
    12143.290800       0.999046
    12158.054700       0.999285
    12172.854500       0.999490
    12187.690400       0.999661
    12202.562500       0.999796
    12217.471000       0.999898
    12232.415900       0.999966
    12247.397400       1.000000
    12262.415700       1.000000
    12277.470800       0.999967
    12292.563000       0.999902
    12307.692300       0.999803
    12322.858900       0.999672
    12338.062900       0.999509
    12353.304500       0.999315
    12368.583800       0.999088
    12383.900900       0.998831
    12399.256000       0.998542
    12414.649300       0.998223
    12430.080800       0.997873
    12445.550700       0.997494
    12461.059200       0.997084
    12476.606400       0.996645
    12492.192400       0.996177
    12507.817400       0.995681
    12523.481500       0.995156
    12539.185000       0.994603
    12554.927800       0.994022
    12570.710200       0.993414
    12586.532400       0.992778
    12602.394500       0.992117
    12618.296500       0.991428
    12634.238800       0.990714
    12650.221400       0.989975
    12666.244500       0.989210
    12682.308200       0.988420
    12698.412700       0.987606
    12714.558200       0.986768
    12730.744700       0.985906
    12746.972600       0.985021
    12763.241900       0.984113
    12779.552700       0.983183
    12795.905300       0.982230
    12812.299800       0.981256
    12828.736400       0.980261
    12845.215200       0.979244
    12861.736300       0.978208
    12878.300100       0.977151
    12894.906500       0.976075
    12911.555800       0.974979
    12928.248200       0.973865
    12944.983800       0.972732
    12961.762800       0.971582
    12978.585300       0.970414
    12995.451600       0.969229
    13012.361700       0.968028
    13029.316000       0.966810
    13046.314400       0.965576
    13063.357300       0.964328
    13080.444700       0.963064
    13097.576900       0.961786
    13114.754100       0.960494
    13131.976400       0.959188
    13149.243900       0.957870
    13166.556900       0.956539
    13183.915600       0.955195
    13201.320100       0.953840
    13218.770700       0.952474
    13236.267400       0.951097
    13253.810500       0.949709
    13271.400100       0.948311
    13289.036500       0.946904
    13306.719900       0.945488
    13324.450400       0.944064
    13342.228200       0.942631
    13360.053400       0.941191
    13377.926400       0.939743
    13395.847300       0.938289
    13413.816200       0.936828
    13431.833400       0.935361
    13449.899100       0.933890
    13468.013500       0.932413
    13486.176700       0.930931
    13504.388900       0.929446
    13522.650400       0.927957
    13540.961400       0.926464
    13559.322000       0.924969
    13577.732500       0.923472
    13596.193100       0.921973
    13614.703900       0.920472
    13633.265200       0.918971
    13651.877100       0.917469
    13670.540000       0.915966
    13689.253900       0.914464
    13708.019200       0.912963
    13726.836000       0.911463
    13745.704500       0.909965
    13764.624900       0.908469
    13783.597500       0.906975
    13802.622500       0.905484
    13821.700100       0.903996
    13840.830400       0.902512
    13860.013900       0.901032
    13879.250500       0.899557
    13898.540700       0.898086
    13917.884500       0.896621
    13937.282200       0.895162
    13956.734100       0.893708
    13976.240400       0.892261
    13995.801300       0.890821
    14015.417000       0.889388
    14035.087700       0.887963
    14054.813800       0.886546
    14074.595400       0.885137
    14094.432700       0.883737
    14114.326000       0.882346
    14134.275600       0.880964
    14154.281700       0.879593
    14174.344400       0.878231
    14194.464200       0.876880
    14214.641100       0.875539
    14234.875400       0.874210
    14255.167500       0.872892
    14275.517500       0.871586
    14295.925700       0.870292
    14316.392300       0.869011
    14336.917600       0.867742
    14357.501800       0.866486
    14378.145200       0.865244
    14398.848100       0.864015
    14419.610700       0.862800
    14440.433200       0.861599
    14461.316000       0.860413
    14482.259200       0.859241
    14503.263200       0.858084
    14524.328200       0.856943
    14545.454500       0.855817
    14566.642400       0.854706
    14587.892000       0.853612
    14609.203800       0.852533
    14630.577900       0.851471
    14652.014700       0.850426
    14673.514300       0.849397
    14695.077100       0.848385
    14716.703500       0.847390
    14738.393500       0.846413
    14760.147600       0.845453
    14781.966000       0.844511
    14803.849000       0.843586
    14825.796900       0.842680
    14847.809900       0.841792
    14869.888500       0.840922
    14892.032800       0.840070
    14914.243100       0.839237
    14936.519800       0.838422
    14958.863100       0.837627
    14981.273400       0.836850
    15003.750900       0.836092
    15026.296000       0.835353
    15048.909000       0.834633
    15071.590100       0.833932
    15094.339600       0.833250
    15117.158000       0.832588
    15140.045400       0.831945
    15163.002300       0.831321
    15186.028900       0.830716
    15209.125500       0.830131
    15232.292500       0.829566
    15255.530100       0.829019
    15278.838800       0.828492
    15302.218800       0.827984
    15325.670500       0.827496
    15349.194200       0.827027
    15372.790200       0.826577
    15396.458800       0.826146
    15420.200500       0.825734
    15444.015400       0.825341
    15467.904100       0.824967
    15491.866800       0.824612
    15515.903800       0.824276
    15540.015500       0.823958
    15564.202300       0.823659
    15588.464500       0.823378
    15612.802500       0.823115
    15637.216600       0.822871
    15661.707100       0.822644
    15686.274500       0.822435
    15710.919100       0.822244
    15735.641200       0.822069
    15760.441300       0.821913
    15785.319700       0.821773
    15810.276700       0.821650
    15835.312700       0.821543
    15860.428200       0.821453
    15885.623500       0.821379
    15910.899000       0.821320
    15936.255000       0.821277
    15961.691900       0.821250
    15987.210200       0.821237
    16012.810200       0.821239
    16038.492400       0.821256
    16064.257000       0.821286
    16090.104600       0.821330
    16116.035500       0.821388
    16142.050000       0.821459
    16168.148700       0.821543
    16194.332000       0.821639
    16220.600200       0.821747
    16246.953700       0.821867
    16273.393000       0.821998
    16299.918500       0.822139
    16326.530600       0.822292
    16353.229800       0.822454
    16380.016400       0.822626
    16406.890900       0.822807
    16433.853700       0.822997
    16460.905300       0.823196
    16488.046200       0.823402
    16515.276600       0.823616
    16542.597200       0.823836
    16570.008300       0.824063
    16597.510400       0.824296
    16625.103900       0.824535
    16652.789300       0.824778
    16680.567100       0.825026
    16708.437800       0.825277
    16736.401700       0.825532
    16764.459300       0.825790
    16792.611300       0.826050
    16820.857900       0.826312
    16849.199700       0.826575
    16877.637100       0.826838
    16906.170800       0.827101
    16934.801000       0.827364
    16963.528400       0.827626
    16992.353400       0.827885
    17021.276600       0.828143
    17050.298400       0.828397
    17079.419300       0.828647
    17108.639900       0.828894
    17137.960600       0.829135
    17167.382000       0.829371
    17196.904600       0.829600
    17226.528900       0.829822
    17256.255400       0.830037
    17286.084700       0.830243
    17316.017300       0.830441
    17346.053800       0.830629
    17376.194600       0.830806
    17406.440400       0.830973
    17436.791600       0.831127
    17467.248900       0.831269
    17497.812800       0.831398
    17528.483800       0.831513
    17559.262500       0.831613
    17590.149500       0.831698
    17621.145400       0.831767
    17652.250700       0.831819
    17683.466000       0.831853
