19,   19, MVIRI VIS channel from srf_MET5_1993213_1993214_1801-Release_S10EL_10.dat
Number of data points:
806
Wavenumber (cm-1)   Filter response
     8350.730700       0.000000
     8357.710000       0.000000
     8364.701000       0.000000
     8371.703600       0.000001
     8378.718100       0.000004
     8385.744200       0.000009
     8392.782200       0.000016
     8399.832000       0.000026
     8406.893700       0.000040
     8413.967200       0.000058
     8421.052600       0.000081
     8428.150000       0.000108
     8435.259400       0.000141
     8442.380800       0.000180
     8449.514200       0.000225
     8456.659600       0.000277
     8463.817200       0.000336
     8470.986900       0.000402
     8478.168700       0.000476
     8485.362700       0.000558
     8492.569000       0.000649
     8499.787500       0.000749
     8507.018300       0.000857
     8514.261400       0.000975
     8521.516800       0.001103
     8528.784600       0.001241
     8536.064900       0.001389
     8543.357500       0.001548
     8550.662700       0.001717
     8557.980300       0.001898
     8565.310500       0.002089
     8572.653200       0.002293
     8580.008600       0.002508
     8587.376600       0.002735
     8594.757200       0.002974
     8602.150500       0.003225
     8609.556600       0.003489
     8616.975400       0.003766
     8624.407100       0.004056
     8631.851500       0.004359
     8639.308900       0.004675
     8646.779100       0.005005
     8654.262200       0.005348
     8661.758300       0.005706
     8669.267400       0.006077
     8676.789600       0.006462
     8684.324800       0.006862
     8691.873100       0.007276
     8699.434500       0.007705
     8707.009100       0.008148
     8714.596900       0.008607
     8722.198000       0.009080
     8729.812300       0.009569
     8737.439900       0.010073
     8745.080900       0.010592
     8752.735200       0.011127
     8760.403000       0.011678
     8768.084200       0.012244
     8775.778900       0.012826
     8783.487000       0.013425
     8791.208800       0.014039
     8798.944100       0.014670
     8806.693100       0.015317
     8814.455700       0.015981
     8822.232000       0.016662
     8830.022100       0.017359
     8837.825900       0.018073
     8845.643500       0.018804
     8853.475000       0.019552
     8861.320300       0.020317
     8869.179600       0.021100
     8877.052800       0.021900
     8884.940000       0.022717
     8892.841300       0.023552
     8900.756600       0.024405
     8908.686000       0.025276
     8916.629500       0.026165
     8924.587200       0.027072
     8932.559200       0.027996
     8940.545400       0.028940
     8948.545900       0.029901
     8956.560700       0.030881
     8964.589900       0.031880
     8972.633500       0.032897
     8980.691500       0.033933
     8988.764000       0.034988
     8996.851100       0.036062
     9004.952700       0.037155
     9013.068900       0.038267
     9021.199800       0.039398
     9029.345400       0.040549
     9037.505600       0.041719
     9045.680700       0.042909
     9053.870500       0.044119
     9062.075200       0.045348
     9070.294800       0.046598
     9078.529300       0.047867
     9086.778700       0.049156
     9095.043200       0.050466
     9103.322700       0.051795
     9111.617300       0.053146
     9119.927000       0.054516
     9128.251900       0.055907
     9136.592100       0.057319
     9144.947400       0.058752
     9153.318100       0.060205
     9161.704100       0.061679
     9170.105500       0.063175
     9178.522300       0.064691
     9186.954500       0.066229
     9195.402300       0.067788
     9203.865600       0.069368
     9212.344500       0.070970
     9220.839100       0.072593
     9229.349300       0.074238
     9237.875300       0.075905
     9246.417000       0.077593
     9254.974500       0.079304
     9263.547900       0.081036
     9272.137200       0.082790
     9280.742500       0.084567
     9289.363700       0.086365
     9298.000900       0.088186
     9306.654300       0.090029
     9315.323700       0.091895
     9324.009300       0.093783
     9332.711200       0.095694
     9341.429200       0.097627
     9350.163600       0.099583
     9358.914400       0.101561
     9367.681500       0.103563
     9376.465100       0.105587
     9385.265100       0.107634
     9394.081700       0.109705
     9402.914900       0.111797
     9411.764700       0.113914
     9420.631200       0.116053
     9429.514400       0.118215
     9438.414300       0.120401
     9447.331100       0.122609
     9456.264800       0.124842
     9465.215300       0.127097
     9474.182900       0.129375
     9483.167400       0.131677
     9492.169000       0.134003
     9501.187600       0.136351
     9510.223500       0.138724
     9519.276500       0.141119
     9528.346800       0.143538
     9537.434400       0.145981
     9546.539400       0.148447
     9555.661700       0.150936
     9564.801500       0.153449
     9573.958800       0.155985
     9583.133700       0.158545
     9592.326100       0.161128
     9601.536200       0.163735
     9610.764100       0.166365
     9620.009600       0.169019
     9629.273000       0.171696
     9638.554200       0.174396
     9647.853400       0.177120
     9657.170400       0.179867
     9666.505600       0.182637
     9675.858700       0.185431
     9685.230000       0.188248
     9694.619500       0.191088
     9704.027200       0.193951
     9713.453100       0.196837
     9722.897400       0.199746
     9732.360100       0.202678
     9741.841200       0.205633
     9751.340800       0.208610
     9760.859000       0.211611
     9770.395700       0.214634
     9779.951100       0.217680
     9789.525200       0.220748
     9799.118100       0.223838
     9808.729800       0.226951
     9818.360300       0.230086
     9828.009800       0.233243
     9837.678300       0.236423
     9847.365800       0.239624
     9857.072400       0.242846
     9866.798200       0.246091
     9876.543200       0.249357
     9886.307500       0.252645
     9896.091000       0.255954
     9905.894000       0.259283
     9915.716400       0.262634
     9925.558300       0.266006
     9935.419800       0.269399
     9945.300800       0.272812
     9955.201600       0.276246
     9965.122100       0.279700
     9975.062300       0.283174
     9985.022500       0.286668
     9995.002500       0.290182
    10005.002500       0.293715
    10015.022500       0.297268
    10025.062700       0.300840
    10035.122900       0.304431
    10045.203400       0.308041
    10055.304200       0.311670
    10065.425300       0.315317
    10075.566800       0.318982
    10085.728700       0.322665
    10095.911200       0.326367
    10106.114200       0.330086
    10116.337900       0.333822
    10126.582300       0.337575
    10136.847400       0.341346
    10147.133400       0.345133
    10157.440300       0.348937
    10167.768200       0.352757
    10178.117000       0.356593
    10188.487000       0.360444
    10198.878100       0.364312
    10209.290500       0.368194
    10219.724100       0.372091
    10230.179000       0.376004
    10240.655400       0.379930
    10251.153300       0.383871
    10261.672700       0.387826
    10272.213700       0.391794
    10282.776300       0.395776
    10293.360800       0.399771
    10303.967000       0.403778
    10314.595200       0.407798
    10325.245200       0.411830
    10335.917300       0.415875
    10346.611500       0.419931
    10357.327800       0.423998
    10368.066400       0.428075
    10378.827200       0.432164
    10389.610400       0.436263
    10400.416000       0.440372
    10411.244100       0.444491
    10422.094800       0.448619
    10432.968200       0.452756
    10443.864200       0.456902
    10454.783100       0.461057
    10465.724800       0.465219
    10476.689400       0.469389
    10487.677000       0.473567
    10498.687700       0.477751
    10509.721500       0.481942
    10520.778500       0.486140
    10531.858900       0.490343
    10542.962600       0.494552
    10554.089700       0.498767
    10565.240400       0.502986
    10576.414600       0.507209
    10587.612500       0.511437
    10598.834100       0.515669
    10610.079600       0.519904
    10621.348900       0.524143
    10632.642200       0.528384
    10643.959600       0.532627
    10655.301000       0.536872
    10666.666700       0.541119
    10678.056600       0.545367
    10689.470900       0.549616
    10700.909600       0.553865
    10712.372800       0.558115
    10723.860600       0.562363
    10735.373100       0.566612
    10746.910300       0.570859
    10758.472300       0.575104
    10770.059200       0.579348
    10781.671200       0.583589
    10793.308100       0.587828
    10804.970300       0.592064
    10816.657700       0.596296
    10828.370300       0.600524
    10840.108400       0.604748
    10851.871900       0.608967
    10863.661100       0.613182
    10875.475800       0.617391
    10887.316300       0.621593
    10899.182600       0.625790
    10911.074700       0.629980
    10922.992900       0.634163
    10934.937100       0.638339
    10946.907500       0.642506
    10958.904100       0.646666
    10970.927000       0.650817
    10982.976400       0.654959
    10995.052200       0.659091
    11007.154700       0.663213
    11019.283700       0.667326
    11031.439600       0.671427
    11043.622300       0.675518
    11055.832000       0.679597
    11068.068600       0.683664
    11080.332400       0.687720
    11092.623400       0.691762
    11104.941700       0.695792
    11117.287400       0.699808
    11129.660500       0.703810
    11142.061300       0.707799
    11154.489700       0.711772
    11166.945800       0.715731
    11179.429800       0.719675
    11191.941800       0.723602
    11204.481800       0.727514
    11217.049900       0.731409
    11229.646300       0.735288
    11242.270900       0.739149
    11254.924000       0.742993
    11267.605600       0.746818
    11280.315800       0.750625
    11293.054800       0.754414
    11305.822500       0.758184
    11318.619100       0.761934
    11331.444800       0.765664
    11344.299500       0.769374
    11357.183400       0.773064
    11370.096600       0.776733
    11383.039300       0.780381
    11396.011400       0.784007
    11409.013100       0.787612
    11422.044500       0.791194
    11435.105800       0.794753
    11448.196900       0.798290
    11461.318100       0.801804
    11474.469300       0.805293
    11487.650800       0.808760
    11500.862600       0.812202
    11514.104800       0.815619
    11527.377500       0.819011
    11540.680900       0.822379
    11554.015000       0.825721
    11567.380000       0.829037
    11580.775900       0.832327
    11594.202900       0.835591
    11607.661100       0.838829
    11621.150500       0.842039
    11634.671300       0.845222
    11648.223600       0.848378
    11661.807600       0.851506
    11675.423200       0.854606
    11689.070700       0.857677
    11702.750100       0.860720
    11716.461600       0.863735
    11730.205300       0.866720
    11743.981200       0.869676
    11757.789500       0.872602
    11771.630400       0.875499
    11785.503800       0.878365
    11799.410000       0.881201
    11813.349100       0.884007
    11827.321100       0.886782
    11841.326200       0.889526
    11855.364600       0.892239
    11869.436200       0.894921
    11883.541300       0.897571
    11897.680000       0.900190
    11911.852300       0.902776
    11926.058400       0.905331
    11940.298500       0.907853
    11954.572600       0.910342
    11968.880900       0.912799
    11983.223500       0.915224
    11997.600500       0.917615
    12012.012000       0.919973
    12026.458200       0.922298
    12040.939200       0.924590
    12055.455100       0.926848
    12070.006000       0.929072
    12084.592100       0.931263
    12099.213600       0.933419
    12113.870400       0.935542
    12128.562800       0.937630
    12143.290800       0.939685
    12158.054700       0.941705
    12172.854500       0.943690
    12187.690400       0.945641
    12202.562500       0.947558
    12217.471000       0.949440
    12232.415900       0.951287
    12247.397400       0.953099
    12262.415700       0.954876
    12277.470800       0.956619
    12292.563000       0.958327
    12307.692300       0.959999
    12322.858900       0.961637
    12338.062900       0.963240
    12353.304500       0.964808
    12368.583800       0.966340
    12383.900900       0.967838
    12399.256000       0.969300
    12414.649300       0.970728
    12430.080800       0.972120
    12445.550700       0.973477
    12461.059200       0.974800
    12476.606400       0.976087
    12492.192400       0.977340
    12507.817400       0.978557
    12523.481500       0.979740
    12539.185000       0.980888
    12554.927800       0.982001
    12570.710200       0.983079
    12586.532400       0.984123
    12602.394500       0.985133
    12618.296500       0.986108
    12634.238800       0.987048
    12650.221400       0.987955
    12666.244500       0.988827
    12682.308200       0.989665
    12698.412700       0.990469
    12714.558200       0.991239
    12730.744700       0.991976
    12746.972600       0.992679
    12763.241900       0.993349
    12779.552700       0.993986
    12795.905300       0.994589
    12812.299800       0.995159
    12828.736400       0.995697
    12845.215200       0.996202
    12861.736300       0.996674
    12878.300100       0.997115
    12894.906500       0.997523
    12911.555800       0.997899
    12928.248200       0.998243
    12944.983800       0.998556
    12961.762800       0.998838
    12978.585300       0.999088
    12995.451600       0.999308
    13012.361700       0.999497
    13029.316000       0.999656
    13046.314400       0.999784
    13063.357300       0.999882
    13080.444700       0.999951
    13097.576900       0.999990
    13114.754100       1.000000
    13131.976400       0.999981
    13149.243900       0.999933
    13166.556900       0.999857
    13183.915600       0.999753
    13201.320100       0.999621
    13218.770700       0.999461
    13236.267400       0.999274
    13253.810500       0.999059
    13271.400100       0.998819
    13289.036500       0.998551
    13306.719900       0.998258
    13324.450400       0.997939
    13342.228200       0.997594
    13360.053400       0.997224
    13377.926400       0.996829
    13395.847300       0.996410
    13413.816200       0.995967
    13431.833400       0.995499
    13449.899100       0.995008
    13468.013500       0.994494
    13486.176700       0.993958
    13504.388900       0.993398
    13522.650400       0.992817
    13540.961400       0.992214
    13559.322000       0.991589
    13577.732500       0.990943
    13596.193100       0.990277
    13614.703900       0.989590
    13633.265200       0.988883
    13651.877100       0.988157
    13670.540000       0.987412
    13689.253900       0.986647
    13708.019200       0.985865
    13726.836000       0.985064
    13745.704500       0.984245
    13764.624900       0.983410
    13783.597500       0.982557
    13802.622500       0.981688
    13821.700100       0.980803
    13840.830400       0.979903
    13860.013900       0.978987
    13879.250500       0.978056
    13898.540700       0.977110
    13917.884500       0.976151
    13937.282200       0.975178
    13956.734100       0.974192
    13976.240400       0.973193
    13995.801300       0.972181
    14015.417000       0.971158
    14035.087700       0.970122
    14054.813800       0.969076
    14074.595400       0.968019
    14094.432700       0.966952
    14114.326000       0.965875
    14134.275600       0.964788
    14154.281700       0.963692
    14174.344400       0.962587
    14194.464200       0.961475
    14214.641100       0.960354
    14234.875400       0.959226
    14255.167500       0.958091
    14275.517500       0.956950
    14295.925700       0.955802
    14316.392300       0.954648
    14336.917600       0.953490
    14357.501800       0.952326
    14378.145200       0.951158
    14398.848100       0.949986
    14419.610700       0.948810
    14440.433200       0.947631
    14461.316000       0.946449
    14482.259200       0.945264
    14503.263200       0.944078
    14524.328200       0.942890
    14545.454500       0.941700
    14566.642400       0.940510
    14587.892000       0.939320
    14609.203800       0.938129
    14630.577900       0.936939
    14652.014700       0.935750
    14673.514300       0.934561
    14695.077100       0.933375
    14716.703500       0.932190
    14738.393500       0.931007
    14760.147600       0.929828
    14781.966000       0.928651
    14803.849000       0.927477
    14825.796900       0.926308
    14847.809900       0.925143
    14869.888500       0.923982
    14892.032800       0.922826
    14914.243100       0.921675
    14936.519800       0.920530
    14958.863100       0.919391
    14981.273400       0.918258
    15003.750900       0.917131
    15026.296000       0.916012
    15048.909000       0.914900
    15071.590100       0.913795
    15094.339600       0.912699
    15117.158000       0.911610
    15140.045400       0.910530
    15163.002300       0.909459
    15186.028900       0.908397
    15209.125500       0.907345
    15232.292500       0.906302
    15255.530100       0.905269
    15278.838800       0.904246
    15302.218800       0.903234
    15325.670500       0.902233
    15349.194200       0.901243
    15372.790200       0.900264
    15396.458800       0.899296
    15420.200500       0.898341
    15444.015400       0.897397
    15467.904100       0.896465
    15491.866800       0.895546
    15515.903800       0.894640
    15540.015500       0.893746
    15564.202300       0.892866
    15588.464500       0.891999
    15612.802500       0.891145
    15637.216600       0.890305
    15661.707100       0.889478
    15686.274500       0.888665
    15710.919100       0.887867
    15735.641200       0.887083
    15760.441300       0.886313
    15785.319700       0.885557
    15810.276700       0.884816
    15835.312700       0.884090
    15860.428200       0.883379
    15885.623500       0.882682
    15910.899000       0.882000
    15936.255000       0.881334
    15961.691900       0.880682
    15987.210200       0.880046
    16012.810200       0.879425
    16038.492400       0.878819
    16064.257000       0.878229
    16090.104600       0.877654
    16116.035500       0.877094
    16142.050000       0.876550
    16168.148700       0.876021
    16194.332000       0.875507
    16220.600200       0.875008
    16246.953700       0.874525
    16273.393000       0.874057
    16299.918500       0.873604
    16326.530600       0.873166
    16353.229800       0.872743
    16380.016400       0.872336
    16406.890900       0.871943
    16433.853700       0.871564
    16460.905300       0.871201
    16488.046200       0.870852
    16515.276600       0.870517
    16542.597200       0.870196
    16570.008300       0.869890
    16597.510400       0.869597
    16625.103900       0.869319
    16652.789300       0.869053
    16680.567100       0.868801
    16708.437800       0.868563
    16736.401700       0.868337
    16764.459300       0.868124
    16792.611300       0.867923
    16820.857900       0.867734
    16849.199700       0.867558
    16877.637100       0.867393
    16906.170800       0.867240
    16934.801000       0.867097
    16963.528400       0.866966
    16992.353400       0.866845
    17021.276600       0.866734
    17050.298400       0.866633
    17079.419300       0.866541
    17108.639900       0.866458
    17137.960600       0.866385
    17167.382000       0.866319
    17196.904600       0.866262
    17226.528900       0.866212
    17256.255400       0.866169
    17286.084700       0.866133
