30,   30, MVIRI VIS channel from srf_MET4_1993078_1993079_1801-Release_S10EL_10.dat
Number of data points:
752
Wavenumber (cm-1)   Filter response
     8745.080900       0.000000
     8752.735200       0.000000
     8760.403000       0.000001
     8768.084200       0.000059
     8775.778900       0.000201
     8783.487000       0.000424
     8791.208800       0.000725
     8798.944100       0.001102
     8806.693100       0.001553
     8814.455700       0.002076
     8822.232000       0.002668
     8830.022100       0.003328
     8837.825900       0.004053
     8845.643500       0.004842
     8853.475000       0.005691
     8861.320300       0.006601
     8869.179600       0.007568
     8877.052800       0.008592
     8884.940000       0.009670
     8892.841300       0.010800
     8900.756600       0.011982
     8908.686000       0.013213
     8916.629500       0.014492
     8924.587200       0.015818
     8932.559200       0.017190
     8940.545400       0.018605
     8948.545900       0.020064
     8956.560700       0.021563
     8964.589900       0.023103
     8972.633500       0.024682
     8980.691500       0.026299
     8988.764000       0.027952
     8996.851100       0.029642
     9004.952700       0.031366
     9013.068900       0.033125
     9021.199800       0.034916
     9029.345400       0.036739
     9037.505600       0.038594
     9045.680700       0.040479
     9053.870500       0.042393
     9062.075200       0.044337
     9070.294800       0.046309
     9078.529300       0.048308
     9086.778700       0.050334
     9095.043200       0.052386
     9103.322700       0.054463
     9111.617300       0.056565
     9119.927000       0.058692
     9128.251900       0.060843
     9136.592100       0.063017
     9144.947400       0.065214
     9153.318100       0.067434
     9161.704100       0.069675
     9170.105500       0.071938
     9178.522300       0.074223
     9186.954500       0.076528
     9195.402300       0.078854
     9203.865600       0.081199
     9212.344500       0.083565
     9220.839100       0.085950
     9229.349300       0.088355
     9237.875300       0.090779
     9246.417000       0.093221
     9254.974500       0.095682
     9263.547900       0.098162
     9272.137200       0.100659
     9280.742500       0.103175
     9289.363700       0.105708
     9298.000900       0.108259
     9306.654300       0.110828
     9315.323700       0.113414
     9324.009300       0.116017
     9332.711200       0.118638
     9341.429200       0.121275
     9350.163600       0.123930
     9358.914400       0.126601
     9367.681500       0.129289
     9376.465100       0.131994
     9385.265100       0.134716
     9394.081700       0.137454
     9402.914900       0.140209
     9411.764700       0.142980
     9420.631200       0.145769
     9429.514400       0.148573
     9438.414300       0.151394
     9447.331100       0.154231
     9456.264800       0.157086
     9465.215300       0.159956
     9474.182900       0.162843
     9483.167400       0.165747
     9492.169000       0.168666
     9501.187600       0.171603
     9510.223500       0.174556
     9519.276500       0.177525
     9528.346800       0.180512
     9537.434400       0.183514
     9546.539400       0.186533
     9555.661700       0.189569
     9564.801500       0.192622
     9573.958800       0.195691
     9583.133700       0.198777
     9592.326100       0.201879
     9601.536200       0.204998
     9610.764100       0.208134
     9620.009600       0.211287
     9629.273000       0.214457
     9638.554200       0.217643
     9647.853400       0.220846
     9657.170400       0.224066
     9666.505600       0.227303
     9675.858700       0.230557
     9685.230000       0.233827
     9694.619500       0.237115
     9704.027200       0.240419
     9713.453100       0.243740
     9722.897400       0.247078
     9732.360100       0.250433
     9741.841200       0.253805
     9751.340800       0.257194
     9760.859000       0.260600
     9770.395700       0.264023
     9779.951100       0.267462
     9789.525200       0.270918
     9799.118100       0.274391
     9808.729800       0.277881
     9818.360300       0.281387
     9828.009800       0.284910
     9837.678300       0.288450
     9847.365800       0.292006
     9857.072400       0.295579
     9866.798200       0.299168
     9876.543200       0.302774
     9886.307500       0.306396
     9896.091000       0.310034
     9905.894000       0.313688
     9915.716400       0.317359
     9925.558300       0.321045
     9935.419800       0.324748
     9945.300800       0.328466
     9955.201600       0.332200
     9965.122100       0.335949
     9975.062300       0.339714
     9985.022500       0.343495
     9995.002500       0.347290
    10005.002500       0.351101
    10015.022500       0.354926
    10025.062700       0.358767
    10035.122900       0.362622
    10045.203400       0.366492
    10055.304200       0.370376
    10065.425300       0.374274
    10075.566800       0.378186
    10085.728700       0.382112
    10095.911200       0.386052
    10106.114200       0.390005
    10116.337900       0.393972
    10126.582300       0.397951
    10136.847400       0.401944
    10147.133400       0.405949
    10157.440300       0.409967
    10167.768200       0.413997
    10178.117000       0.418039
    10188.487000       0.422092
    10198.878100       0.426158
    10209.290500       0.430234
    10219.724100       0.434322
    10230.179000       0.438420
    10240.655400       0.442530
    10251.153300       0.446649
    10261.672700       0.450778
    10272.213700       0.454917
    10282.776300       0.459066
    10293.360800       0.463224
    10303.967000       0.467391
    10314.595200       0.471566
    10325.245200       0.475749
    10335.917300       0.479941
    10346.611500       0.484141
    10357.327800       0.488347
    10368.066400       0.492561
    10378.827200       0.496782
    10389.610400       0.501009
    10400.416000       0.505242
    10411.244100       0.509481
    10422.094800       0.513725
    10432.968200       0.517975
    10443.864200       0.522229
    10454.783100       0.526488
    10465.724800       0.530751
    10476.689400       0.535017
    10487.677000       0.539287
    10498.687700       0.543560
    10509.721500       0.547835
    10520.778500       0.552113
    10531.858900       0.556392
    10542.962600       0.560673
    10554.089700       0.564955
    10565.240400       0.569238
    10576.414600       0.573521
    10587.612500       0.577804
    10598.834100       0.582087
    10610.079600       0.586369
    10621.348900       0.590649
    10632.642200       0.594928
    10643.959600       0.599205
    10655.301000       0.603479
    10666.666700       0.607751
    10678.056600       0.612019
    10689.470900       0.616284
    10700.909600       0.620545
    10712.372800       0.624801
    10723.860600       0.629052
    10735.373100       0.633297
    10746.910300       0.637538
    10758.472300       0.641771
    10770.059200       0.645999
    10781.671200       0.650219
    10793.308100       0.654432
    10804.970300       0.658637
    10816.657700       0.662833
    10828.370300       0.667021
    10840.108400       0.671200
    10851.871900       0.675369
    10863.661100       0.679528
    10875.475800       0.683677
    10887.316300       0.687815
    10899.182600       0.691941
    10911.074700       0.696056
    10922.992900       0.700159
    10934.937100       0.704249
    10946.907500       0.708326
    10958.904100       0.712389
    10970.927000       0.716439
    10982.976400       0.720474
    10995.052200       0.724495
    11007.154700       0.728500
    11019.283700       0.732490
    11031.439600       0.736464
    11043.622300       0.740421
    11055.832000       0.744362
    11068.068600       0.748285
    11080.332400       0.752191
    11092.623400       0.756078
    11104.941700       0.759947
    11117.287400       0.763797
    11129.660500       0.767628
    11142.061300       0.771439
    11154.489700       0.775229
    11166.945800       0.778999
    11179.429800       0.782748
    11191.941800       0.786476
    11204.481800       0.790182
    11217.049900       0.793865
    11229.646300       0.797526
    11242.270900       0.801164
    11254.924000       0.804779
    11267.605600       0.808370
    11280.315800       0.811936
    11293.054800       0.815478
    11305.822500       0.818995
    11318.619100       0.822487
    11331.444800       0.825954
    11344.299500       0.829394
    11357.183400       0.832808
    11370.096600       0.836195
    11383.039300       0.839555
    11396.011400       0.842887
    11409.013100       0.846192
    11422.044500       0.849468
    11435.105800       0.852716
    11448.196900       0.855935
    11461.318100       0.859125
    11474.469300       0.862285
    11487.650800       0.865415
    11500.862600       0.868516
    11514.104800       0.871586
    11527.377500       0.874624
    11540.680900       0.877632
    11554.015000       0.880609
    11567.380000       0.883553
    11580.775900       0.886466
    11594.202900       0.889346
    11607.661100       0.892194
    11621.150500       0.895009
    11634.671300       0.897791
    11648.223600       0.900539
    11661.807600       0.903254
    11675.423200       0.905934
    11689.070700       0.908581
    11702.750100       0.911193
    11716.461600       0.913770
    11730.205300       0.916312
    11743.981200       0.918820
    11757.789500       0.921291
    11771.630400       0.923727
    11785.503800       0.926128
    11799.410000       0.928492
    11813.349100       0.930820
    11827.321100       0.933111
    11841.326200       0.935366
    11855.364600       0.937584
    11869.436200       0.939765
    11883.541300       0.941909
    11897.680000       0.944015
    11911.852300       0.946084
    11926.058400       0.948115
    11940.298500       0.950108
    11954.572600       0.952064
    11968.880900       0.953981
    11983.223500       0.955860
    11997.600500       0.957700
    12012.012000       0.959502
    12026.458200       0.961266
    12040.939200       0.962990
    12055.455100       0.964676
    12070.006000       0.966323
    12084.592100       0.967930
    12099.213600       0.969499
    12113.870400       0.971028
    12128.562800       0.972518
    12143.290800       0.973969
    12158.054700       0.975381
    12172.854500       0.976753
    12187.690400       0.978085
    12202.562500       0.979378
    12217.471000       0.980631
    12232.415900       0.981845
    12247.397400       0.983019
    12262.415700       0.984154
    12277.470800       0.985249
    12292.563000       0.986304
    12307.692300       0.987320
    12322.858900       0.988296
    12338.062900       0.989233
    12353.304500       0.990130
    12368.583800       0.990987
    12383.900900       0.991805
    12399.256000       0.992584
    12414.649300       0.993323
    12430.080800       0.994023
    12445.550700       0.994683
    12461.059200       0.995304
    12476.606400       0.995887
    12492.192400       0.996430
    12507.817400       0.996934
    12523.481500       0.997400
    12539.185000       0.997826
    12554.927800       0.998214
    12570.710200       0.998564
    12586.532400       0.998875
    12602.394500       0.999148
    12618.296500       0.999383
    12634.238800       0.999580
    12650.221400       0.999739
    12666.244500       0.999860
    12682.308200       0.999944
    12698.412700       0.999991
    12714.558200       1.000000
    12730.744700       0.999972
    12746.972600       0.999908
    12763.241900       0.999807
    12779.552700       0.999669
    12795.905300       0.999495
    12812.299800       0.999286
    12828.736400       0.999040
    12845.215200       0.998759
    12861.736300       0.998443
    12878.300100       0.998091
    12894.906500       0.997704
    12911.555800       0.997283
    12928.248200       0.996828
    12944.983800       0.996338
    12961.762800       0.995815
    12978.585300       0.995257
    12995.451600       0.994667
    13012.361700       0.994043
    13029.316000       0.993387
    13046.314400       0.992698
    13063.357300       0.991977
    13080.444700       0.991224
    13097.576900       0.990439
    13114.754100       0.989624
    13131.976400       0.988777
    13149.243900       0.987899
    13166.556900       0.986991
    13183.915600       0.986053
    13201.320100       0.985085
    13218.770700       0.984088
    13236.267400       0.983062
    13253.810500       0.982007
    13271.400100       0.980924
    13289.036500       0.979813
    13306.719900       0.978674
    13324.450400       0.977508
    13342.228200       0.976315
    13360.053400       0.975095
    13377.926400       0.973849
    13395.847300       0.972577
    13413.816200       0.971280
    13431.833400       0.969958
    13449.899100       0.968611
    13468.013500       0.967240
    13486.176700       0.965845
    13504.388900       0.964427
    13522.650400       0.962985
    13540.961400       0.961521
    13559.322000       0.960035
    13577.732500       0.958526
    13596.193100       0.956996
    13614.703900       0.955445
    13633.265200       0.953874
    13651.877100       0.952282
    13670.540000       0.950670
    13689.253900       0.949039
    13708.019200       0.947390
    13726.836000       0.945721
    13745.704500       0.944035
    13764.624900       0.942330
    13783.597500       0.940609
    13802.622500       0.938871
    13821.700100       0.937116
    13840.830400       0.935346
    13860.013900       0.933560
    13879.250500       0.931759
    13898.540700       0.929943
    13917.884500       0.928113
    13937.282200       0.926270
    13956.734100       0.924413
    13976.240400       0.922544
    13995.801300       0.920662
    14015.417000       0.918768
    14035.087700       0.916863
    14054.813800       0.914947
    14074.595400       0.913020
    14094.432700       0.911083
    14114.326000       0.909136
    14134.275600       0.907181
    14154.281700       0.905216
    14174.344400       0.903243
    14194.464200       0.901263
    14214.641100       0.899274
    14234.875400       0.897279
    14255.167500       0.895278
    14275.517500       0.893270
    14295.925700       0.891257
    14316.392300       0.889239
    14336.917600       0.887216
    14357.501800       0.885188
    14378.145200       0.883157
    14398.848100       0.881122
    14419.610700       0.879085
    14440.433200       0.877045
    14461.316000       0.875003
    14482.259200       0.872959
    14503.263200       0.870914
    14524.328200       0.868869
    14545.454500       0.866823
    14566.642400       0.864777
    14587.892000       0.862731
    14609.203800       0.860687
    14630.577900       0.858644
    14652.014700       0.856603
    14673.514300       0.854563
    14695.077100       0.852527
    14716.703500       0.850494
    14738.393500       0.848464
    14760.147600       0.846437
    14781.966000       0.844415
    14803.849000       0.842398
    14825.796900       0.840386
    14847.809900       0.838379
    14869.888500       0.836378
    14892.032800       0.834383
    14914.243100       0.832395
    14936.519800       0.830413
    14958.863100       0.828439
    14981.273400       0.826473
    15003.750900       0.824515
    15026.296000       0.822565
    15048.909000       0.820624
    15071.590100       0.818692
    15094.339600       0.816769
    15117.158000       0.814856
    15140.045400       0.812953
    15163.002300       0.811061
    15186.028900       0.809180
    15209.125500       0.807309
    15232.292500       0.805450
    15255.530100       0.803603
    15278.838800       0.801768
    15302.218800       0.799945
    15325.670500       0.798134
    15349.194200       0.796337
    15372.790200       0.794553
    15396.458800       0.792782
    15420.200500       0.791025
    15444.015400       0.789281
    15467.904100       0.787552
    15491.866800       0.785838
    15515.903800       0.784138
    15540.015500       0.782453
    15564.202300       0.780784
    15588.464500       0.779129
    15612.802500       0.777491
    15637.216600       0.775868
    15661.707100       0.774261
    15686.274500       0.772671
    15710.919100       0.771097
    15735.641200       0.769539
    15760.441300       0.767999
    15785.319700       0.766475
    15810.276700       0.764968
    15835.312700       0.763479
    15860.428200       0.762007
    15885.623500       0.760552
    15910.899000       0.759115
    15936.255000       0.757696
    15961.691900       0.756295
    15987.210200       0.754912
    16012.810200       0.753546
    16038.492400       0.752199
    16064.257000       0.750871
    16090.104600       0.749560
    16116.035500       0.748268
    16142.050000       0.746995
    16168.148700       0.745740
    16194.332000       0.744503
    16220.600200       0.743285
    16246.953700       0.742085
    16273.393000       0.740905
    16299.918500       0.739742
    16326.530600       0.738599
    16353.229800       0.737474
    16380.016400       0.736367
    16406.890900       0.735279
    16433.853700       0.734210
    16460.905300       0.733158
    16488.046200       0.732126
    16515.276600       0.731111
    16542.597200       0.730115
    16570.008300       0.729137
    16597.510400       0.728177
    16625.103900       0.727235
    16652.789300       0.726311
    16680.567100       0.725404
    16708.437800       0.724515
    16736.401700       0.723644
    16764.459300       0.722790
    16792.611300       0.721953
    16820.857900       0.721132
    16849.199700       0.720329
    16877.637100       0.719542
    16906.170800       0.718772
    16934.801000       0.718018
    16963.528400       0.717280
    16992.353400       0.716558
    17021.276600       0.715851
    17050.298400       0.715159
    17079.419300       0.714483
    17108.639900       0.713821
    17137.960600       0.713174
    17167.382000       0.712540
    17196.904600       0.711921
    17226.528900       0.711316
    17256.255400       0.710724
    17286.084700       0.710144
    17316.017300       0.709578
    17346.053800       0.709024
    17376.194600       0.708482
    17406.440400       0.707951
    17436.791600       0.707432
    17467.248900       0.706923
    17497.812800       0.706426
    17528.483800       0.705938
    17559.262500       0.705460
    17590.149500       0.704991
    17621.145400       0.704531
    17652.250700       0.704080
    17683.466000       0.703637
    17714.791900       0.703201
    17746.228900       0.702773
    17777.777800       0.702351
    17809.439000       0.701935
    17841.213200       0.701526
    17873.101000       0.701121
    17905.103000       0.700721
    17937.219700       0.700325
    17969.451900       0.699934
    18001.800200       0.699545
    18034.265100       0.699159
    18066.847300       0.698775
    18099.547500       0.698393
    18132.366300       0.698012
    18165.304300       0.697632
    18198.362100       0.697251
    18231.540600       0.696870
    18264.840200       0.696487
    18298.261700       0.696103
    18331.805700       0.695716
    18365.472900       0.695327
    18399.264000       0.694933
    18433.179700       0.694536
    18467.220700       0.694134
    18501.387600       0.693726
    18535.681200       0.693312
    18570.102100       0.692891
    18604.651200       0.692463
    18639.329000       0.692027
    18674.136300       0.691583
    18709.073900       0.691129
    18744.142500       0.690665
    18779.342700       0.690190
    18814.675400       0.689704
    18850.141400       0.689205
    18885.741300       0.688694
    18921.475900       0.688170
    18957.346000       0.687631
    18993.352300       0.687078
    19029.495700       0.686509
    19065.776900       0.685924
