94,   94, MVIRI VIS channel from srf_MET7_2009123_2009124_1801-Release_S10EE_10.dat
Number of data points:
793
Wavenumber (cm-1)   Filter response
     8442.380800       0.000000
     8449.514200       0.000000
     8456.659600       0.000004
     8463.817200       0.000056
     8470.986900       0.000165
     8478.168700       0.000331
     8485.362700       0.000551
     8492.569000       0.000823
     8499.787500       0.001147
     8507.018300       0.001521
     8514.261400       0.001943
     8521.516800       0.002412
     8528.784600       0.002927
     8536.064900       0.003486
     8543.357500       0.004087
     8550.662700       0.004731
     8557.980300       0.005416
     8565.310500       0.006140
     8572.653200       0.006903
     8580.008600       0.007704
     8587.376600       0.008541
     8594.757200       0.009414
     8602.150500       0.010321
     8609.556600       0.011262
     8616.975400       0.012237
     8624.407100       0.013243
     8631.851500       0.014282
     8639.308900       0.015350
     8646.779100       0.016450
     8654.262200       0.017578
     8661.758300       0.018735
     8669.267400       0.019921
     8676.789600       0.021134
     8684.324800       0.022374
     8691.873100       0.023641
     8699.434500       0.024934
     8707.009100       0.026253
     8714.596900       0.027597
     8722.198000       0.028966
     8729.812300       0.030359
     8737.439900       0.031776
     8745.080900       0.033217
     8752.735200       0.034681
     8760.403000       0.036169
     8768.084200       0.037679
     8775.778900       0.039212
     8783.487000       0.040768
     8791.208800       0.042345
     8798.944100       0.043944
     8806.693100       0.045566
     8814.455700       0.047208
     8822.232000       0.048872
     8830.022100       0.050558
     8837.825900       0.052265
     8845.643500       0.053992
     8853.475000       0.055741
     8861.320300       0.057511
     8869.179600       0.059301
     8877.052800       0.061112
     8884.940000       0.062944
     8892.841300       0.064797
     8900.756600       0.066670
     8908.686000       0.068564
     8916.629500       0.070478
     8924.587200       0.072413
     8932.559200       0.074369
     8940.545400       0.076345
     8948.545900       0.078342
     8956.560700       0.080360
     8964.589900       0.082399
     8972.633500       0.084458
     8980.691500       0.086538
     8988.764000       0.088639
     8996.851100       0.090761
     9004.952700       0.092905
     9013.068900       0.095069
     9021.199800       0.097254
     9029.345400       0.099461
     9037.505600       0.101688
     9045.680700       0.103938
     9053.870500       0.106209
     9062.075200       0.108501
     9070.294800       0.110815
     9078.529300       0.113151
     9086.778700       0.115508
     9095.043200       0.117888
     9103.322700       0.120289
     9111.617300       0.122713
     9119.927000       0.125159
     9128.251900       0.127627
     9136.592100       0.130118
     9144.947400       0.132630
     9153.318100       0.135166
     9161.704100       0.137724
     9170.105500       0.140305
     9178.522300       0.142908
     9186.954500       0.145535
     9195.402300       0.148184
     9203.865600       0.150856
     9212.344500       0.153552
     9220.839100       0.156271
     9229.349300       0.159013
     9237.875300       0.161778
     9246.417000       0.164566
     9254.974500       0.167378
     9263.547900       0.170214
     9272.137200       0.173072
     9280.742500       0.175955
     9289.363700       0.178861
     9298.000900       0.181791
     9306.654300       0.184744
     9315.323700       0.187721
     9324.009300       0.190721
     9332.711200       0.193746
     9341.429200       0.196794
     9350.163600       0.199866
     9358.914400       0.202961
     9367.681500       0.206080
     9376.465100       0.209223
     9385.265100       0.212390
     9394.081700       0.215580
     9402.914900       0.218794
     9411.764700       0.222031
     9420.631200       0.225292
     9429.514400       0.228577
     9438.414300       0.231885
     9447.331100       0.235216
     9456.264800       0.238571
     9465.215300       0.241949
     9474.182900       0.245350
     9483.167400       0.248774
     9492.169000       0.252221
     9501.187600       0.255692
     9510.223500       0.259185
     9519.276500       0.262700
     9528.346800       0.266239
     9537.434400       0.269800
     9546.539400       0.273382
     9555.661700       0.276988
     9564.801500       0.280615
     9573.958800       0.284265
     9583.133700       0.287936
     9592.326100       0.291628
     9601.536200       0.295343
     9610.764100       0.299078
     9620.009600       0.302835
     9629.273000       0.306612
     9638.554200       0.310410
     9647.853400       0.314229
     9657.170400       0.318067
     9666.505600       0.321927
     9675.858700       0.325806
     9685.230000       0.329704
     9694.619500       0.333622
     9704.027200       0.337559
     9713.453100       0.341515
     9722.897400       0.345490
     9732.360100       0.349483
     9741.841200       0.353495
     9751.340800       0.357524
     9760.859000       0.361571
     9770.395700       0.365636
     9779.951100       0.369717
     9789.525200       0.373815
     9799.118100       0.377930
     9808.729800       0.382061
     9818.360300       0.386208
     9828.009800       0.390370
     9837.678300       0.394547
     9847.365800       0.398740
     9857.072400       0.402947
     9866.798200       0.407169
     9876.543200       0.411404
     9886.307500       0.415653
     9896.091000       0.419915
     9905.894000       0.424190
     9915.716400       0.428477
     9925.558300       0.432777
     9935.419800       0.437089
     9945.300800       0.441412
     9955.201600       0.445745
     9965.122100       0.450090
     9975.062300       0.454445
     9985.022500       0.458810
     9995.002500       0.463184
    10005.002500       0.467567
    10015.022500       0.471959
    10025.062700       0.476360
    10035.122900       0.480768
    10045.203400       0.485183
    10055.304200       0.489606
    10065.425300       0.494035
    10075.566800       0.498471
    10085.728700       0.502912
    10095.911200       0.507359
    10106.114200       0.511810
    10116.337900       0.516266
    10126.582300       0.520727
    10136.847400       0.525190
    10147.133400       0.529657
    10157.440300       0.534127
    10167.768200       0.538598
    10178.117000       0.543072
    10188.487000       0.547547
    10198.878100       0.552023
    10209.290500       0.556499
    10219.724100       0.560976
    10230.179000       0.565451
    10240.655400       0.569926
    10251.153300       0.574400
    10261.672700       0.578872
    10272.213700       0.583341
    10282.776300       0.587807
    10293.360800       0.592271
    10303.967000       0.596730
    10314.595200       0.601185
    10325.245200       0.605636
    10335.917300       0.610082
    10346.611500       0.614522
    10357.327800       0.618955
    10368.066400       0.623383
    10378.827200       0.627803
    10389.610400       0.632216
    10400.416000       0.636620
    10411.244100       0.641017
    10422.094800       0.645404
    10432.968200       0.649782
    10443.864200       0.654150
    10454.783100       0.658508
    10465.724800       0.662854
    10476.689400       0.667190
    10487.677000       0.671514
    10498.687700       0.675826
    10509.721500       0.680125
    10520.778500       0.684411
    10531.858900       0.688683
    10542.962600       0.692941
    10554.089700       0.697185
    10565.240400       0.701413
    10576.414600       0.705626
    10587.612500       0.709823
    10598.834100       0.714005
    10610.079600       0.718169
    10621.348900       0.722315
    10632.642200       0.726444
    10643.959600       0.730556
    10655.301000       0.734648
    10666.666700       0.738721
    10678.056600       0.742775
    10689.470900       0.746809
    10700.909600       0.750823
    10712.372800       0.754815
    10723.860600       0.758787
    10735.373100       0.762737
    10746.910300       0.766665
    10758.472300       0.770571
    10770.059200       0.774453
    10781.671200       0.778313
    10793.308100       0.782148
    10804.970300       0.785960
    10816.657700       0.789747
    10828.370300       0.793509
    10840.108400       0.797246
    10851.871900       0.800958
    10863.661100       0.804643
    10875.475800       0.808302
    10887.316300       0.811934
    10899.182600       0.815539
    10911.074700       0.819117
    10922.992900       0.822666
    10934.937100       0.826188
    10946.907500       0.829681
    10958.904100       0.833144
    10970.927000       0.836579
    10982.976400       0.839984
    10995.052200       0.843359
    11007.154700       0.846704
    11019.283700       0.850018
    11031.439600       0.853301
    11043.622300       0.856553
    11055.832000       0.859774
    11068.068600       0.862962
    11080.332400       0.866119
    11092.623400       0.869243
    11104.941700       0.872335
    11117.287400       0.875393
    11129.660500       0.878418
    11142.061300       0.881410
    11154.489700       0.884368
    11166.945800       0.887292
    11179.429800       0.890181
    11191.941800       0.893037
    11204.481800       0.895857
    11217.049900       0.898642
    11229.646300       0.901392
    11242.270900       0.904107
    11254.924000       0.906786
    11267.605600       0.909429
    11280.315800       0.912036
    11293.054800       0.914607
    11305.822500       0.917141
    11318.619100       0.919639
    11331.444800       0.922099
    11344.299500       0.924523
    11357.183400       0.926910
    11370.096600       0.929259
    11383.039300       0.931571
    11396.011400       0.933846
    11409.013100       0.936082
    11422.044500       0.938281
    11435.105800       0.940442
    11448.196900       0.942564
    11461.318100       0.944649
    11474.469300       0.946695
    11487.650800       0.948702
    11500.862600       0.950671
    11514.104800       0.952602
    11527.377500       0.954493
    11540.680900       0.956346
    11554.015000       0.958161
    11567.380000       0.959936
    11580.775900       0.961672
    11594.202900       0.963370
    11607.661100       0.965028
    11621.150500       0.966647
    11634.671300       0.968228
    11648.223600       0.969769
    11661.807600       0.971271
    11675.423200       0.972734
    11689.070700       0.974158
    11702.750100       0.975542
    11716.461600       0.976888
    11730.205300       0.978195
    11743.981200       0.979463
    11757.789500       0.980691
    11771.630400       0.981881
    11785.503800       0.983032
    11799.410000       0.984144
    11813.349100       0.985217
    11827.321100       0.986252
    11841.326200       0.987247
    11855.364600       0.988205
    11869.436200       0.989124
    11883.541300       0.990004
    11897.680000       0.990847
    11911.852300       0.991651
    11926.058400       0.992417
    11940.298500       0.993146
    11954.572600       0.993836
    11968.880900       0.994489
    11983.223500       0.995104
    11997.600500       0.995683
    12012.012000       0.996223
    12026.458200       0.996727
    12040.939200       0.997194
    12055.455100       0.997625
    12070.006000       0.998019
    12084.592100       0.998376
    12099.213600       0.998698
    12113.870400       0.998983
    12128.562800       0.999233
    12143.290800       0.999447
    12158.054700       0.999626
    12172.854500       0.999770
    12187.690400       0.999879
    12202.562500       0.999954
    12217.471000       0.999994
    12232.415900       1.000000
    12247.397400       0.999972
    12262.415700       0.999911
    12277.470800       0.999816
    12292.563000       0.999688
    12307.692300       0.999527
    12322.858900       0.999334
    12338.062900       0.999109
    12353.304500       0.998851
    12368.583800       0.998562
    12383.900900       0.998241
    12399.256000       0.997890
    12414.649300       0.997508
    12430.080800       0.997095
    12445.550700       0.996652
    12461.059200       0.996179
    12476.606400       0.995677
    12492.192400       0.995146
    12507.817400       0.994586
    12523.481500       0.993997
    12539.185000       0.993381
    12554.927800       0.992736
    12570.710200       0.992064
    12586.532400       0.991366
    12602.394500       0.990640
    12618.296500       0.989888
    12634.238800       0.989110
    12650.221400       0.988307
    12666.244500       0.987478
    12682.308200       0.986625
    12698.412700       0.985747
    12714.558200       0.984845
    12730.744700       0.983920
    12746.972600       0.982971
    12763.241900       0.981999
    12779.552700       0.981005
    12795.905300       0.979989
    12812.299800       0.978952
    12828.736400       0.977893
    12845.215200       0.976813
    12861.736300       0.975713
    12878.300100       0.974592
    12894.906500       0.973453
    12911.555800       0.972294
    12928.248200       0.971116
    12944.983800       0.969920
    12961.762800       0.968707
    12978.585300       0.967476
    12995.451600       0.966228
    13012.361700       0.964963
    13029.316000       0.963682
    13046.314400       0.962386
    13063.357300       0.961074
    13080.444700       0.959748
    13097.576900       0.958407
    13114.754100       0.957053
    13131.976400       0.955685
    13149.243900       0.954304
    13166.556900       0.952910
    13183.915600       0.951504
    13201.320100       0.950087
    13218.770700       0.948659
    13236.267400       0.947219
    13253.810500       0.945770
    13271.400100       0.944310
    13289.036500       0.942842
    13306.719900       0.941364
    13324.450400       0.939878
    13342.228200       0.938384
    13360.053400       0.936882
    13377.926400       0.935373
    13395.847300       0.933857
    13413.816200       0.932335
    13431.833400       0.930808
    13449.899100       0.929275
    13468.013500       0.927737
    13486.176700       0.926195
    13504.388900       0.924648
    13522.650400       0.923099
    13540.961400       0.921546
    13559.322000       0.919990
    13577.732500       0.918433
    13596.193100       0.916873
    13614.703900       0.915312
    13633.265200       0.913750
    13651.877100       0.912188
    13670.540000       0.910626
    13689.253900       0.909064
    13708.019200       0.907503
    13726.836000       0.905943
    13745.704500       0.904385
    13764.624900       0.902829
    13783.597500       0.901275
    13802.622500       0.899725
    13821.700100       0.898178
    13840.830400       0.896634
    13860.013900       0.895094
    13879.250500       0.893560
    13898.540700       0.892030
    13917.884500       0.890505
    13937.282200       0.888986
    13956.734100       0.887474
    13976.240400       0.885967
    13995.801300       0.884468
    14015.417000       0.882976
    14035.087700       0.881491
    14054.813800       0.880015
    14074.595400       0.878547
    14094.432700       0.877087
    14114.326000       0.875637
    14134.275600       0.874196
    14154.281700       0.872765
    14174.344400       0.871344
    14194.464200       0.869934
    14214.641100       0.868534
    14234.875400       0.867145
    14255.167500       0.865768
    14275.517500       0.864403
    14295.925700       0.863049
    14316.392300       0.861708
    14336.917600       0.860380
    14357.501800       0.859064
    14378.145200       0.857762
    14398.848100       0.856473
    14419.610700       0.855198
    14440.433200       0.853938
    14461.316000       0.852691
    14482.259200       0.851459
    14503.263200       0.850242
    14524.328200       0.849040
    14545.454500       0.847853
    14566.642400       0.846682
    14587.892000       0.845527
    14609.203800       0.844387
    14630.577900       0.843264
    14652.014700       0.842157
    14673.514300       0.841067
    14695.077100       0.839994
    14716.703500       0.838938
    14738.393500       0.837898
    14760.147600       0.836876
    14781.966000       0.835872
    14803.849000       0.834885
    14825.796900       0.833916
    14847.809900       0.832965
    14869.888500       0.832032
    14892.032800       0.831117
    14914.243100       0.830221
    14936.519800       0.829343
    14958.863100       0.828483
    14981.273400       0.827642
    15003.750900       0.826820
    15026.296000       0.826016
    15048.909000       0.825231
    15071.590100       0.824465
    15094.339600       0.823718
    15117.158000       0.822990
    15140.045400       0.822281
    15163.002300       0.821592
    15186.028900       0.820921
    15209.125500       0.820269
    15232.292500       0.819636
    15255.530100       0.819022
    15278.838800       0.818428
    15302.218800       0.817852
    15325.670500       0.817295
    15349.194200       0.816757
    15372.790200       0.816238
    15396.458800       0.815738
    15420.200500       0.815257
    15444.015400       0.814794
    15467.904100       0.814350
    15491.866800       0.813924
    15515.903800       0.813517
    15540.015500       0.813128
    15564.202300       0.812757
    15588.464500       0.812404
    15612.802500       0.812069
    15637.216600       0.811752
    15661.707100       0.811452
    15686.274500       0.811170
    15710.919100       0.810904
    15735.641200       0.810656
    15760.441300       0.810425
    15785.319700       0.810210
    15810.276700       0.810011
    15835.312700       0.809829
    15860.428200       0.809663
    15885.623500       0.809512
    15910.899000       0.809376
    15936.255000       0.809256
    15961.691900       0.809151
    15987.210200       0.809060
    16012.810200       0.808984
    16038.492400       0.808921
    16064.257000       0.808873
    16090.104600       0.808837
    16116.035500       0.808815
    16142.050000       0.808805
    16168.148700       0.808808
    16194.332000       0.808823
    16220.600200       0.808849
    16246.953700       0.808887
    16273.393000       0.808936
    16299.918500       0.808995
    16326.530600       0.809064
    16353.229800       0.809143
    16380.016400       0.809231
    16406.890900       0.809328
    16433.853700       0.809433
    16460.905300       0.809547
    16488.046200       0.809667
    16515.276600       0.809795
    16542.597200       0.809930
    16570.008300       0.810070
    16597.510400       0.810217
    16625.103900       0.810368
    16652.789300       0.810524
    16680.567100       0.810684
    16708.437800       0.810848
    16736.401700       0.811014
    16764.459300       0.811184
    16792.611300       0.811355
    16820.857900       0.811527
    16849.199700       0.811701
    16877.637100       0.811875
    16906.170800       0.812048
    16934.801000       0.812221
    16963.528400       0.812392
    16992.353400       0.812561
    17021.276600       0.812728
    17050.298400       0.812891
    17079.419300       0.813050
    17108.639900       0.813205
    17137.960600       0.813355
    17167.382000       0.813499
    17196.904600       0.813637
    17226.528900       0.813767
    17256.255400       0.813890
    17286.084700       0.814005
    17316.017300       0.814110
    17346.053800       0.814206
    17376.194600       0.814291
    17406.440400       0.814365
    17436.791600       0.814428
    17467.248900       0.814478
    17497.812800       0.814515
    17528.483800       0.814538
    17559.262500       0.814546
    17590.149500       0.814539
    17621.145400       0.814516
    17652.250700       0.814476
    17683.466000       0.814419
