10,   10, MVIRI VIS channel from srf_MET5_1992168_1992169_1801-Release_S10EL_10.dat
Number of data points:
806
Wavenumber (cm-1)   Filter response
     8350.730700       0.000000
     8357.710000       0.000000
     8364.701000       0.000000
     8371.703600       0.000001
     8378.718100       0.000004
     8385.744200       0.000009
     8392.782200       0.000016
     8399.832000       0.000026
     8406.893700       0.000040
     8413.967200       0.000058
     8421.052600       0.000080
     8428.150000       0.000107
     8435.259400       0.000140
     8442.380800       0.000179
     8449.514200       0.000224
     8456.659600       0.000275
     8463.817200       0.000334
     8470.986900       0.000400
     8478.168700       0.000473
     8485.362700       0.000555
     8492.569000       0.000645
     8499.787500       0.000744
     8507.018300       0.000853
     8514.261400       0.000970
     8521.516800       0.001097
     8528.784600       0.001234
     8536.064900       0.001381
     8543.357500       0.001539
     8550.662700       0.001708
     8557.980300       0.001887
     8565.310500       0.002078
     8572.653200       0.002280
     8580.008600       0.002494
     8587.376600       0.002719
     8594.757200       0.002957
     8602.150500       0.003207
     8609.556600       0.003470
     8616.975400       0.003745
     8624.407100       0.004033
     8631.851500       0.004335
     8639.308900       0.004649
     8646.779100       0.004977
     8654.262200       0.005319
     8661.758300       0.005674
     8669.267400       0.006044
     8676.789600       0.006427
     8684.324800       0.006824
     8691.873100       0.007236
     8699.434500       0.007663
     8707.009100       0.008104
     8714.596900       0.008560
     8722.198000       0.009031
     8729.812300       0.009517
     8737.439900       0.010018
     8745.080900       0.010535
     8752.735200       0.011067
     8760.403000       0.011615
     8768.084200       0.012179
     8775.778900       0.012758
     8783.487000       0.013353
     8791.208800       0.013964
     8798.944100       0.014592
     8806.693100       0.015236
     8814.455700       0.015897
     8822.232000       0.016574
     8830.022100       0.017267
     8837.825900       0.017978
     8845.643500       0.018705
     8853.475000       0.019449
     8861.320300       0.020211
     8869.179600       0.020989
     8877.052800       0.021785
     8884.940000       0.022599
     8892.841300       0.023430
     8900.756600       0.024279
     8908.686000       0.025145
     8916.629500       0.026030
     8924.587200       0.026932
     8932.559200       0.027852
     8940.545400       0.028791
     8948.545900       0.029748
     8956.560700       0.030723
     8964.589900       0.031717
     8972.633500       0.032729
     8980.691500       0.033760
     8988.764000       0.034810
     8996.851100       0.035879
     9004.952700       0.036967
     9013.068900       0.038074
     9021.199800       0.039200
     9029.345400       0.040345
     9037.505600       0.041510
     9045.680700       0.042695
     9053.870500       0.043899
     9062.075200       0.045122
     9070.294800       0.046366
     9078.529300       0.047629
     9086.778700       0.048913
     9095.043200       0.050216
     9103.322700       0.051540
     9111.617300       0.052884
     9119.927000       0.054248
     9128.251900       0.055633
     9136.592100       0.057039
     9144.947400       0.058465
     9153.318100       0.059912
     9161.704100       0.061379
     9170.105500       0.062868
     9178.522300       0.064378
     9186.954500       0.065909
     9195.402300       0.067461
     9203.865600       0.069034
     9212.344500       0.070629
     9220.839100       0.072246
     9229.349300       0.073884
     9237.875300       0.075543
     9246.417000       0.077224
     9254.974500       0.078927
     9263.547900       0.080652
     9272.137200       0.082399
     9280.742500       0.084168
     9289.363700       0.085959
     9298.000900       0.087773
     9306.654300       0.089608
     9315.323700       0.091466
     9324.009300       0.093346
     9332.711200       0.095249
     9341.429200       0.097174
     9350.163600       0.099123
     9358.914400       0.101093
     9367.681500       0.103086
     9376.465100       0.105103
     9385.265100       0.107141
     9394.081700       0.109203
     9402.914900       0.111288
     9411.764700       0.113396
     9420.631200       0.115527
     9429.514400       0.117680
     9438.414300       0.119857
     9447.331100       0.122057
     9456.264800       0.124281
     9465.215300       0.126528
     9474.182900       0.128797
     9483.167400       0.131091
     9492.169000       0.133407
     9501.187600       0.135747
     9510.223500       0.138110
     9519.276500       0.140497
     9528.346800       0.142907
     9537.434400       0.145340
     9546.539400       0.147797
     9555.661700       0.150277
     9564.801500       0.152781
     9573.958800       0.155308
     9583.133700       0.157859
     9592.326100       0.160432
     9601.536200       0.163030
     9610.764100       0.165651
     9620.009600       0.168295
     9629.273000       0.170962
     9638.554200       0.173653
     9647.853400       0.176367
     9657.170400       0.179105
     9666.505600       0.181866
     9675.858700       0.184650
     9685.230000       0.187457
     9694.619500       0.190287
     9704.027200       0.193140
     9713.453100       0.196017
     9722.897400       0.198916
     9732.360100       0.201838
     9741.841200       0.204783
     9751.340800       0.207751
     9760.859000       0.210742
     9770.395700       0.213755
     9779.951100       0.216791
     9789.525200       0.219849
     9799.118100       0.222930
     9808.729800       0.226033
     9818.360300       0.229158
     9828.009800       0.232305
     9837.678300       0.235474
     9847.365800       0.238666
     9857.072400       0.241878
     9866.798200       0.245113
     9876.543200       0.248369
     9886.307500       0.251647
     9896.091000       0.254946
     9905.894000       0.258266
     9915.716400       0.261607
     9925.558300       0.264969
     9935.419800       0.268352
     9945.300800       0.271755
     9955.201600       0.275179
     9965.122100       0.278623
     9975.062300       0.282087
     9985.022500       0.285571
     9995.002500       0.289075
    10005.002500       0.292599
    10015.022500       0.296142
    10025.062700       0.299704
    10035.122900       0.303286
    10045.203400       0.306886
    10055.304200       0.310505
    10065.425300       0.314142
    10075.566800       0.317798
    10085.728700       0.321472
    10095.911200       0.325164
    10106.114200       0.328873
    10116.337900       0.332600
    10126.582300       0.336344
    10136.847400       0.340105
    10147.133400       0.343883
    10157.440300       0.347678
    10167.768200       0.351489
    10178.117000       0.355315
    10188.487000       0.359158
    10198.878100       0.363016
    10209.290500       0.366890
    10219.724100       0.370778
    10230.179000       0.374681
    10240.655400       0.378599
    10251.153300       0.382531
    10261.672700       0.386477
    10272.213700       0.390437
    10282.776300       0.394410
    10293.360800       0.398397
    10303.967000       0.402396
    10314.595200       0.406407
    10325.245200       0.410431
    10335.917300       0.414468
    10346.611500       0.418515
    10357.327800       0.422574
    10368.066400       0.426644
    10378.827200       0.430725
    10389.610400       0.434817
    10400.416000       0.438918
    10411.244100       0.443029
    10422.094800       0.447150
    10432.968200       0.451279
    10443.864200       0.455418
    10454.783100       0.459565
    10465.724800       0.463721
    10476.689400       0.467884
    10487.677000       0.472054
    10498.687700       0.476232
    10509.721500       0.480416
    10520.778500       0.484607
    10531.858900       0.488804
    10542.962600       0.493007
    10554.089700       0.497215
    10565.240400       0.501428
    10576.414600       0.505646
    10587.612500       0.509868
    10598.834100       0.514094
    10610.079600       0.518324
    10621.348900       0.522557
    10632.642200       0.526792
    10643.959600       0.531031
    10655.301000       0.535271
    10666.666700       0.539512
    10678.056600       0.543756
    10689.470900       0.548000
    10700.909600       0.552244
    10712.372800       0.556489
    10723.860600       0.560734
    10735.373100       0.564978
    10746.910300       0.569221
    10758.472300       0.573463
    10770.059200       0.577703
    10781.671200       0.581940
    10793.308100       0.586176
    10804.970300       0.590408
    10816.657700       0.594637
    10828.370300       0.598862
    10840.108400       0.603083
    10851.871900       0.607300
    10863.661100       0.611512
    10875.475800       0.615718
    10887.316300       0.619919
    10899.182600       0.624114
    10911.074700       0.628302
    10922.992900       0.632483
    10934.937100       0.636657
    10946.907500       0.640823
    10958.904100       0.644981
    10970.927000       0.649131
    10982.976400       0.653272
    10995.052200       0.657404
    11007.154700       0.661526
    11019.283700       0.665637
    11031.439600       0.669739
    11043.622300       0.673830
    11055.832000       0.677909
    11068.068600       0.681976
    11080.332400       0.686032
    11092.623400       0.690075
    11104.941700       0.694106
    11117.287400       0.698123
    11129.660500       0.702126
    11142.061300       0.706116
    11154.489700       0.710091
    11166.945800       0.714052
    11179.429800       0.717997
    11191.941800       0.721927
    11204.481800       0.725841
    11217.049900       0.729738
    11229.646300       0.733619
    11242.270900       0.737483
    11254.924000       0.741330
    11267.605600       0.745159
    11280.315800       0.748969
    11293.054800       0.752761
    11305.822500       0.756535
    11318.619100       0.760289
    11331.444800       0.764023
    11344.299500       0.767738
    11357.183400       0.771432
    11370.096600       0.775106
    11383.039300       0.778758
    11396.011400       0.782389
    11409.013100       0.785999
    11422.044500       0.789586
    11435.105800       0.793152
    11448.196900       0.796694
    11461.318100       0.800213
    11474.469300       0.803709
    11487.650800       0.807182
    11500.862600       0.810630
    11514.104800       0.814054
    11527.377500       0.817454
    11540.680900       0.820828
    11554.015000       0.824177
    11567.380000       0.827501
    11580.775900       0.830799
    11594.202900       0.834070
    11607.661100       0.837315
    11621.150500       0.840534
    11634.671300       0.843726
    11648.223600       0.846890
    11661.807600       0.850026
    11675.423200       0.853135
    11689.070700       0.856216
    11702.750100       0.859268
    11716.461600       0.862292
    11730.205300       0.865286
    11743.981200       0.868252
    11757.789500       0.871188
    11771.630400       0.874095
    11785.503800       0.876972
    11799.410000       0.879818
    11813.349100       0.882635
    11827.321100       0.885421
    11841.326200       0.888176
    11855.364600       0.890900
    11869.436200       0.893593
    11883.541300       0.896254
    11897.680000       0.898884
    11911.852300       0.901483
    11926.058400       0.904049
    11940.298500       0.906583
    11954.572600       0.909085
    11968.880900       0.911555
    11983.223500       0.913992
    11997.600500       0.916396
    12012.012000       0.918767
    12026.458200       0.921105
    12040.939200       0.923409
    12055.455100       0.925681
    12070.006000       0.927919
    12084.592100       0.930123
    12099.213600       0.932294
    12113.870400       0.934430
    12128.562800       0.936533
    12143.290800       0.938601
    12158.054700       0.940636
    12172.854500       0.942636
    12187.690400       0.944602
    12202.562500       0.946533
    12217.471000       0.948430
    12232.415900       0.950292
    12247.397400       0.952120
    12262.415700       0.953913
    12277.470800       0.955671
    12292.563000       0.957394
    12307.692300       0.959083
    12322.858900       0.960736
    12338.062900       0.962355
    12353.304500       0.963939
    12368.583800       0.965488
    12383.900900       0.967002
    12399.256000       0.968481
    12414.649300       0.969925
    12430.080800       0.971334
    12445.550700       0.972708
    12461.059200       0.974048
    12476.606400       0.975352
    12492.192400       0.976622
    12507.817400       0.977857
    12523.481500       0.979057
    12539.185000       0.980222
    12554.927800       0.981353
    12570.710200       0.982449
    12586.532400       0.983511
    12602.394500       0.984538
    12618.296500       0.985531
    12634.238800       0.986490
    12650.221400       0.987414
    12666.244500       0.988305
    12682.308200       0.989161
    12698.412700       0.989984
    12714.558200       0.990773
    12730.744700       0.991528
    12746.972600       0.992250
    12763.241900       0.992939
    12779.552700       0.993594
    12795.905300       0.994216
    12812.299800       0.994806
    12828.736400       0.995362
    12845.215200       0.995887
    12861.736300       0.996378
    12878.300100       0.996838
    12894.906500       0.997265
    12911.555800       0.997661
    12928.248200       0.998025
    12944.983800       0.998357
    12961.762800       0.998658
    12978.585300       0.998929
    12995.451600       0.999168
    13012.361700       0.999377
    13029.316000       0.999555
    13046.314400       0.999703
    13063.357300       0.999821
    13080.444700       0.999910
    13097.576900       0.999969
    13114.754100       0.999999
    13131.976400       1.000000
    13149.243900       0.999972
    13166.556900       0.999916
    13183.915600       0.999832
    13201.320100       0.999720
    13218.770700       0.999581
    13236.267400       0.999414
    13253.810500       0.999220
    13271.400100       0.998999
    13289.036500       0.998752
    13306.719900       0.998479
    13324.450400       0.998180
    13342.228200       0.997856
    13360.053400       0.997507
    13377.926400       0.997132
    13395.847300       0.996734
    13413.816200       0.996311
    13431.833400       0.995864
    13449.899100       0.995393
    13468.013500       0.994900
    13486.176700       0.994383
    13504.388900       0.993845
    13522.650400       0.993284
    13540.961400       0.992701
    13559.322000       0.992097
    13577.732500       0.991472
    13596.193100       0.990826
    13614.703900       0.990159
    13633.265200       0.989473
    13651.877100       0.988768
    13670.540000       0.988043
    13689.253900       0.987299
    13708.019200       0.986537
    13726.836000       0.985757
    13745.704500       0.984959
    13764.624900       0.984144
    13783.597500       0.983312
    13802.622500       0.982463
    13821.700100       0.981599
    13840.830400       0.980718
    13860.013900       0.979823
    13879.250500       0.978912
    13898.540700       0.977987
    13917.884500       0.977049
    13937.282200       0.976096
    13956.734100       0.975130
    13976.240400       0.974151
    13995.801300       0.973160
    14015.417000       0.972157
    14035.087700       0.971142
    14054.813800       0.970116
    14074.595400       0.969080
    14094.432700       0.968033
    14114.326000       0.966976
    14134.275600       0.965909
    14154.281700       0.964833
    14174.344400       0.963749
    14194.464200       0.962657
    14214.641100       0.961556
    14234.875400       0.960448
    14255.167500       0.959334
    14275.517500       0.958212
    14295.925700       0.957085
    14316.392300       0.955951
    14336.917600       0.954813
    14357.501800       0.953669
    14378.145200       0.952521
    14398.848100       0.951369
    14419.610700       0.950213
    14440.433200       0.949054
    14461.316000       0.947892
    14482.259200       0.946727
    14503.263200       0.945561
    14524.328200       0.944393
    14545.454500       0.943223
    14566.642400       0.942053
    14587.892000       0.940883
    14609.203800       0.939712
    14630.577900       0.938542
    14652.014700       0.937372
    14673.514300       0.936204
    14695.077100       0.935037
    14716.703500       0.933872
    14738.393500       0.932709
    14760.147600       0.931549
    14781.966000       0.930392
    14803.849000       0.929239
    14825.796900       0.928089
    14847.809900       0.926944
    14869.888500       0.925803
    14892.032800       0.924666
    14914.243100       0.923535
    14936.519800       0.922410
    14958.863100       0.921291
    14981.273400       0.920178
    15003.750900       0.919071
    15026.296000       0.917971
    15048.909000       0.916879
    15071.590100       0.915794
    15094.339600       0.914718
    15117.158000       0.913649
    15140.045400       0.912589
    15163.002300       0.911538
    15186.028900       0.910496
    15209.125500       0.909463
    15232.292500       0.908440
    15255.530100       0.907427
    15278.838800       0.906424
    15302.218800       0.905432
    15325.670500       0.904451
    15349.194200       0.903480
    15372.790200       0.902522
    15396.458800       0.901574
    15420.200500       0.900638
    15444.015400       0.899715
    15467.904100       0.898803
    15491.866800       0.897905
    15515.903800       0.897018
    15540.015500       0.896145
    15564.202300       0.895285
    15588.464500       0.894438
    15612.802500       0.893604
    15637.216600       0.892784
    15661.707100       0.891978
    15686.274500       0.891186
    15710.919100       0.890408
    15735.641200       0.889644
    15760.441300       0.888895
    15785.319700       0.888160
    15810.276700       0.887440
    15835.312700       0.886734
    15860.428200       0.886044
    15885.623500       0.885368
    15910.899000       0.884707
    15936.255000       0.884062
    15961.691900       0.883431
    15987.210200       0.882816
    16012.810200       0.882216
    16038.492400       0.881632
    16064.257000       0.881062
    16090.104600       0.880509
    16116.035500       0.879970
    16142.050000       0.879447
    16168.148700       0.878939
    16194.332000       0.878447
    16220.600200       0.877970
    16246.953700       0.877509
    16273.393000       0.877063
    16299.918500       0.876631
    16326.530600       0.876216
    16353.229800       0.875815
    16380.016400       0.875429
    16406.890900       0.875058
    16433.853700       0.874702
    16460.905300       0.874361
    16488.046200       0.874034
    16515.276600       0.873722
    16542.597200       0.873424
    16570.008300       0.873140
    16597.510400       0.872870
    16625.103900       0.872614
    16652.789300       0.872372
    16680.567100       0.872143
    16708.437800       0.871927
    16736.401700       0.871725
    16764.459300       0.871535
    16792.611300       0.871357
    16820.857900       0.871192
    16849.199700       0.871039
    16877.637100       0.870898
    16906.170800       0.870768
    16934.801000       0.870650
    16963.528400       0.870542
    16992.353400       0.870445
    17021.276600       0.870358
    17050.298400       0.870281
    17079.419300       0.870213
    17108.639900       0.870155
    17137.960600       0.870106
    17167.382000       0.870065
    17196.904600       0.870032
    17226.528900       0.870006
    17256.255400       0.869988
    17286.084700       0.869977
