1,   from FY-3C_VIRR_SRF.xlsx (col N) Dr. Prof. SUN Ling (April 2019)
Number of data points:
91
Wavenumber (cm-1)   Filter response
    19801.980200       0.000197
    19841.269800       0.000141
    19880.715700       0.000082
    19920.318700       0.000121
    19960.079800       0.000070
    20000.000000       0.000094
    20040.080200       0.000193
    20080.321300       0.000123
    20120.724300       0.006634
    20161.290300       0.012430
    20202.020200       0.012660
    20242.915000       0.015690
    20283.975700       0.022460
    20325.203300       0.023790
    20366.598800       0.025250
    20408.163300       0.032570
    20449.897800       0.032000
    20491.803300       0.040410
    20533.880900       0.051270
    20576.131700       0.064290
    20618.556700       0.084210
    20661.157000       0.115000
    20703.933700       0.145900
    20746.888000       0.196000
    20790.020800       0.258300
    20833.333300       0.344100
    20876.826700       0.448200
    20920.502100       0.564500
    20964.360600       0.686800
    21008.403400       0.796300
    21052.631600       0.876300
    21097.046400       0.942000
    21141.649000       0.984400
    21186.440700       1.000000
    21231.422500       0.999700
    21276.595700       0.990900
    21321.961600       0.974500
    21367.521400       0.952200
    21413.276200       0.930100
    21459.227500       0.913100
    21505.376300       0.896200
    21551.724100       0.886000
    21598.272100       0.877200
    21645.021600       0.861600
    21691.974000       0.837900
    21739.130400       0.814100
    21786.492400       0.782400
    21834.061100       0.752700
    21881.838100       0.721300
    21929.824600       0.693800
    21978.022000       0.668900
    22026.431700       0.641200
    22075.055200       0.607500
    22123.893800       0.590800
    22172.949000       0.560300
    22222.222200       0.541900
    22271.714900       0.506800
    22321.428600       0.489000
    22371.364700       0.474200
    22421.524700       0.458100
    22471.910100       0.449300
    22522.522500       0.437500
    22573.363400       0.424200
    22624.434400       0.412600
    22675.737000       0.398100
    22727.272700       0.377500
    22779.043300       0.355400
    22831.050200       0.325100
    22883.295200       0.300500
    22935.779800       0.270700
    22988.505700       0.243000
    23041.474700       0.207400
    23094.688200       0.166900
    23148.148100       0.138600
    23201.856100       0.108800
    23255.814000       0.081380
    23310.023300       0.064850
    23364.486000       0.046400
    23419.203700       0.033360
    23474.178400       0.021220
    23529.411800       0.012520
    23584.905700       0.000039
    23640.661900       0.000045
    23696.682500       0.000041
    23752.969100       0.000025
    23809.523800       0.000178
    23866.348400       0.000060
    23923.445000       0.000111
    23980.815300       0.000188
    24038.461500       0.000108
    24096.385500       0.000046
