10,   10, MVIRI VIS channel from srf_MET2_1983123_1983124_1801-Release_S10EL_10.dat
Number of data points:
730
Wavenumber (cm-1)   Filter response
     8916.629500       0.000000
     8924.587200       0.000000
     8932.559200       0.000002
     8940.545400       0.000011
     8948.545900       0.000032
     8956.560700       0.000068
     8964.589900       0.000125
     8972.633500       0.000205
     8980.691500       0.000314
     8988.764000       0.000455
     8996.851100       0.000632
     9004.952700       0.000847
     9013.068900       0.001105
     9021.199800       0.001409
     9029.345400       0.001761
     9037.505600       0.002164
     9045.680700       0.002622
     9053.870500       0.003136
     9062.075200       0.003710
     9070.294800       0.004345
     9078.529300       0.005044
     9086.778700       0.005808
     9095.043200       0.006641
     9103.322700       0.007543
     9111.617300       0.008516
     9119.927000       0.009562
     9128.251900       0.010683
     9136.592100       0.011880
     9144.947400       0.013154
     9153.318100       0.014506
     9161.704100       0.015937
     9170.105500       0.017449
     9178.522300       0.019043
     9186.954500       0.020718
     9195.402300       0.022477
     9203.865600       0.024319
     9212.344500       0.026245
     9220.839100       0.028255
     9229.349300       0.030351
     9237.875300       0.032532
     9246.417000       0.034798
     9254.974500       0.037150
     9263.547900       0.039588
     9272.137200       0.042111
     9280.742500       0.044720
     9289.363700       0.047415
     9298.000900       0.050195
     9306.654300       0.053061
     9315.323700       0.056012
     9324.009300       0.059047
     9332.711200       0.062167
     9341.429200       0.065370
     9350.163600       0.068657
     9358.914400       0.072026
     9367.681500       0.075478
     9376.465100       0.079011
     9385.265100       0.082625
     9394.081700       0.086319
     9402.914900       0.090092
     9411.764700       0.093944
     9420.631200       0.097874
     9429.514400       0.101880
     9438.414300       0.105963
     9447.331100       0.110119
     9456.264800       0.114351
     9465.215300       0.118655
     9474.182900       0.123031
     9483.167400       0.127478
     9492.169000       0.131994
     9501.187600       0.136580
     9510.223500       0.141233
     9519.276500       0.145952
     9528.346800       0.150736
     9537.434400       0.155584
     9546.539400       0.160494
     9555.661700       0.165467
     9564.801500       0.170499
     9573.958800       0.175590
     9583.133700       0.180739
     9592.326100       0.185943
     9601.536200       0.191204
     9610.764100       0.196517
     9620.009600       0.201883
     9629.273000       0.207300
     9638.554200       0.212765
     9647.853400       0.218280
     9657.170400       0.223841
     9666.505600       0.229447
     9675.858700       0.235098
     9685.230000       0.240791
     9694.619500       0.246525
     9704.027200       0.252299
     9713.453100       0.258112
     9722.897400       0.263962
     9732.360100       0.269846
     9741.841200       0.275766
     9751.340800       0.281717
     9760.859000       0.287701
     9770.395700       0.293714
     9779.951100       0.299756
     9789.525200       0.305825
     9799.118100       0.311920
     9808.729800       0.318039
     9818.360300       0.324181
     9828.009800       0.330344
     9837.678300       0.336528
     9847.365800       0.342731
     9857.072400       0.348951
     9866.798200       0.355187
     9876.543200       0.361437
     9886.307500       0.367702
     9896.091000       0.373979
     9905.894000       0.380266
     9915.716400       0.386563
     9925.558300       0.392867
     9935.419800       0.399179
     9945.300800       0.405496
     9955.201600       0.411817
     9965.122100       0.418142
     9975.062300       0.424468
     9985.022500       0.430795
     9995.002500       0.437122
    10005.002500       0.443446
    10015.022500       0.449767
    10025.062700       0.456084
    10035.122900       0.462396
    10045.203400       0.468700
    10055.304200       0.474998
    10065.425300       0.481286
    10075.566800       0.487564
    10085.728700       0.493831
    10095.911200       0.500086
    10106.114200       0.506328
    10116.337900       0.512555
    10126.582300       0.518767
    10136.847400       0.524963
    10147.133400       0.531141
    10157.440300       0.537301
    10167.768200       0.543441
    10178.117000       0.549561
    10188.487000       0.555659
    10198.878100       0.561736
    10209.290500       0.567789
    10219.724100       0.573818
    10230.179000       0.579822
    10240.655400       0.585801
    10251.153300       0.591753
    10261.672700       0.597677
    10272.213700       0.603572
    10282.776300       0.609439
    10293.360800       0.615276
    10303.967000       0.621081
    10314.595200       0.626856
    10325.245200       0.632598
    10335.917300       0.638307
    10346.611500       0.643983
    10357.327800       0.649624
    10368.066400       0.655230
    10378.827200       0.660801
    10389.610400       0.666335
    10400.416000       0.671832
    10411.244100       0.677292
    10422.094800       0.682713
    10432.968200       0.688096
    10443.864200       0.693440
    10454.783100       0.698743
    10465.724800       0.704007
    10476.689400       0.709229
    10487.677000       0.714410
    10498.687700       0.719549
    10509.721500       0.724646
    10520.778500       0.729700
    10531.858900       0.734710
    10542.962600       0.739678
    10554.089700       0.744601
    10565.240400       0.749479
    10576.414600       0.754313
    10587.612500       0.759101
    10598.834100       0.763844
    10610.079600       0.768541
    10621.348900       0.773192
    10632.642200       0.777796
    10643.959600       0.782354
    10655.301000       0.786865
    10666.666700       0.791328
    10678.056600       0.795743
    10689.470900       0.800111
    10700.909600       0.804431
    10712.372800       0.808702
    10723.860600       0.812925
    10735.373100       0.817099
    10746.910300       0.821225
    10758.472300       0.825302
    10770.059200       0.829329
    10781.671200       0.833307
    10793.308100       0.837236
    10804.970300       0.841116
    10816.657700       0.844946
    10828.370300       0.848726
    10840.108400       0.852456
    10851.871900       0.856137
    10863.661100       0.859768
    10875.475800       0.863349
    10887.316300       0.866880
    10899.182600       0.870361
    10911.074700       0.873793
    10922.992900       0.877174
    10934.937100       0.880506
    10946.907500       0.883787
    10958.904100       0.887019
    10970.927000       0.890201
    10982.976400       0.893333
    10995.052200       0.896415
    11007.154700       0.899448
    11019.283700       0.902432
    11031.439600       0.905366
    11043.622300       0.908250
    11055.832000       0.911085
    11068.068600       0.913872
    11080.332400       0.916609
    11092.623400       0.919297
    11104.941700       0.921936
    11117.287400       0.924527
    11129.660500       0.927070
    11142.061300       0.929564
    11154.489700       0.932010
    11166.945800       0.934408
    11179.429800       0.936759
    11191.941800       0.939061
    11204.481800       0.941317
    11217.049900       0.943525
    11229.646300       0.945686
    11242.270900       0.947801
    11254.924000       0.949869
    11267.605600       0.951890
    11280.315800       0.953866
    11293.054800       0.955795
    11305.822500       0.957679
    11318.619100       0.959518
    11331.444800       0.961311
    11344.299500       0.963060
    11357.183400       0.964764
    11370.096600       0.966424
    11383.039300       0.968039
    11396.011400       0.969611
    11409.013100       0.971139
    11422.044500       0.972624
    11435.105800       0.974066
    11448.196900       0.975465
    11461.318100       0.976822
    11474.469300       0.978136
    11487.650800       0.979409
    11500.862600       0.980640
    11514.104800       0.981830
    11527.377500       0.982979
    11540.680900       0.984088
    11554.015000       0.985156
    11567.380000       0.986184
    11580.775900       0.987172
    11594.202900       0.988121
    11607.661100       0.989030
    11621.150500       0.989901
    11634.671300       0.990734
    11648.223600       0.991528
    11661.807600       0.992285
    11675.423200       0.993003
    11689.070700       0.993685
    11702.750100       0.994330
    11716.461600       0.994938
    11730.205300       0.995510
    11743.981200       0.996046
    11757.789500       0.996547
    11771.630400       0.997012
    11785.503800       0.997442
    11799.410000       0.997838
    11813.349100       0.998199
    11827.321100       0.998526
    11841.326200       0.998820
    11855.364600       0.999080
    11869.436200       0.999308
    11883.541300       0.999502
    11897.680000       0.999664
    11911.852300       0.999794
    11926.058400       0.999893
    11940.298500       0.999959
    11954.572600       0.999995
    11968.880900       1.000000
    11983.223500       0.999974
    11997.600500       0.999919
    12012.012000       0.999833
    12026.458200       0.999718
    12040.939200       0.999573
    12055.455100       0.999400
    12070.006000       0.999198
    12084.592100       0.998967
    12099.213600       0.998709
    12113.870400       0.998423
    12128.562800       0.998109
    12143.290800       0.997768
    12158.054700       0.997400
    12172.854500       0.997006
    12187.690400       0.996585
    12202.562500       0.996139
    12217.471000       0.995666
    12232.415900       0.995169
    12247.397400       0.994646
    12262.415700       0.994098
    12277.470800       0.993525
    12292.563000       0.992929
    12307.692300       0.992308
    12322.858900       0.991663
    12338.062900       0.990995
    12353.304500       0.990304
    12368.583800       0.989589
    12383.900900       0.988852
    12399.256000       0.988092
    12414.649300       0.987310
    12430.080800       0.986506
    12445.550700       0.985680
    12461.059200       0.984833
    12476.606400       0.983964
    12492.192400       0.983074
    12507.817400       0.982164
    12523.481500       0.981233
    12539.185000       0.980281
    12554.927800       0.979310
    12570.710200       0.978318
    12586.532400       0.977307
    12602.394500       0.976276
    12618.296500       0.975226
    12634.238800       0.974157
    12650.221400       0.973070
    12666.244500       0.971963
    12682.308200       0.970838
    12698.412700       0.969695
    12714.558200       0.968533
    12730.744700       0.967354
    12746.972600       0.966158
    12763.241900       0.964943
    12779.552700       0.963712
    12795.905300       0.962463
    12812.299800       0.961197
    12828.736400       0.959915
    12845.215200       0.958616
    12861.736300       0.957300
    12878.300100       0.955968
    12894.906500       0.954620
    12911.555800       0.953256
    12928.248200       0.951877
    12944.983800       0.950482
    12961.762800       0.949071
    12978.585300       0.947645
    12995.451600       0.946203
    13012.361700       0.944747
    13029.316000       0.943276
    13046.314400       0.941790
    13063.357300       0.940289
    13080.444700       0.938774
    13097.576900       0.937244
    13114.754100       0.935701
    13131.976400       0.934143
    13149.243900       0.932571
    13166.556900       0.930985
    13183.915600       0.929386
    13201.320100       0.927773
    13218.770700       0.926146
    13236.267400       0.924506
    13253.810500       0.922853
    13271.400100       0.921186
    13289.036500       0.919507
    13306.719900       0.917814
    13324.450400       0.916108
    13342.228200       0.914390
    13360.053400       0.912659
    13377.926400       0.910915
    13395.847300       0.909159
    13413.816200       0.907391
    13431.833400       0.905610
    13449.899100       0.903817
    13468.013500       0.902012
    13486.176700       0.900195
    13504.388900       0.898365
    13522.650400       0.896524
    13540.961400       0.894671
    13559.322000       0.892806
    13577.732500       0.890930
    13596.193100       0.889042
    13614.703900       0.887142
    13633.265200       0.885231
    13651.877100       0.883309
    13670.540000       0.881375
    13689.253900       0.879430
    13708.019200       0.877474
    13726.836000       0.875507
    13745.704500       0.873529
    13764.624900       0.871540
    13783.597500       0.869540
    13802.622500       0.867529
    13821.700100       0.865507
    13840.830400       0.863474
    13860.013900       0.861431
    13879.250500       0.859377
    13898.540700       0.857313
    13917.884500       0.855238
    13937.282200       0.853153
    13956.734100       0.851058
    13976.240400       0.848952
    13995.801300       0.846836
    14015.417000       0.844709
    14035.087700       0.842573
    14054.813800       0.840426
    14074.595400       0.838269
    14094.432700       0.836103
    14114.326000       0.833926
    14134.275600       0.831740
    14154.281700       0.829544
    14174.344400       0.827338
    14194.464200       0.825122
    14214.641100       0.822897
    14234.875400       0.820662
    14255.167500       0.818417
    14275.517500       0.816164
    14295.925700       0.813900
    14316.392300       0.811627
    14336.917600       0.809346
    14357.501800       0.807054
    14378.145200       0.804754
    14398.848100       0.802444
    14419.610700       0.800126
    14440.433200       0.797798
    14461.316000       0.795462
    14482.259200       0.793116
    14503.263200       0.790762
    14524.328200       0.788399
    14545.454500       0.786027
    14566.642400       0.783647
    14587.892000       0.781258
    14609.203800       0.778860
    14630.577900       0.776454
    14652.014700       0.774040
    14673.514300       0.771618
    14695.077100       0.769187
    14716.703500       0.766748
    14738.393500       0.764301
    14760.147600       0.761846
    14781.966000       0.759383
    14803.849000       0.756912
    14825.796900       0.754433
    14847.809900       0.751947
    14869.888500       0.749453
    14892.032800       0.746951
    14914.243100       0.744442
    14936.519800       0.741926
    14958.863100       0.739402
    14981.273400       0.736871
    15003.750900       0.734333
    15026.296000       0.731788
    15048.909000       0.729236
    15071.590100       0.726677
    15094.339600       0.724111
    15117.158000       0.721539
    15140.045400       0.718960
    15163.002300       0.716374
    15186.028900       0.713782
    15209.125500       0.711184
    15232.292500       0.708579
    15255.530100       0.705969
    15278.838800       0.703352
    15302.218800       0.700730
    15325.670500       0.698101
    15349.194200       0.695467
    15372.790200       0.692828
    15396.458800       0.690183
    15420.200500       0.687532
    15444.015400       0.684877
    15467.904100       0.682216
    15491.866800       0.679550
    15515.903800       0.676879
    15540.015500       0.674204
    15564.202300       0.671523
    15588.464500       0.668839
    15612.802500       0.666150
    15637.216600       0.663456
    15661.707100       0.660758
    15686.274500       0.658056
    15710.919100       0.655351
    15735.641200       0.652641
    15760.441300       0.649928
    15785.319700       0.647211
    15810.276700       0.644491
    15835.312700       0.641768
    15860.428200       0.639041
    15885.623500       0.636311
    15910.899000       0.633579
    15936.255000       0.630843
    15961.691900       0.628105
    15987.210200       0.625365
    16012.810200       0.622622
    16038.492400       0.619877
    16064.257000       0.617130
    16090.104600       0.614381
    16116.035500       0.611630
    16142.050000       0.608878
    16168.148700       0.606124
    16194.332000       0.603369
    16220.600200       0.600612
    16246.953700       0.597855
    16273.393000       0.595096
    16299.918500       0.592337
    16326.530600       0.589577
    16353.229800       0.586817
    16380.016400       0.584056
    16406.890900       0.581296
    16433.853700       0.578535
    16460.905300       0.575774
    16488.046200       0.573014
    16515.276600       0.570253
    16542.597200       0.567494
    16570.008300       0.564735
    16597.510400       0.561977
    16625.103900       0.559220
    16652.789300       0.556465
    16680.567100       0.553710
    16708.437800       0.550957
    16736.401700       0.548206
    16764.459300       0.545456
    16792.611300       0.542708
    16820.857900       0.539962
    16849.199700       0.537219
    16877.637100       0.534477
    16906.170800       0.531738
    16934.801000       0.529002
    16963.528400       0.526269
    16992.353400       0.523538
    17021.276600       0.520810
    17050.298400       0.518086
    17079.419300       0.515365
    17108.639900       0.512647
    17137.960600       0.509933
    17167.382000       0.507223
    17196.904600       0.504516
    17226.528900       0.501814
    17256.255400       0.499116
    17286.084700       0.496421
    17316.017300       0.493731
    17346.053800       0.491046
    17376.194600       0.488365
    17406.440400       0.485689
    17436.791600       0.483018
    17467.248900       0.480352
    17497.812800       0.477691
    17528.483800       0.475035
    17559.262500       0.472385
    17590.149500       0.469739
    17621.145400       0.467100
    17652.250700       0.464466
    17683.466000       0.461838
    17714.791900       0.459215
    17746.228900       0.456598
    17777.777800       0.453988
    17809.439000       0.451384
    17841.213200       0.448786
    17873.101000       0.446194
    17905.103000       0.443608
    17937.219700       0.441029
    17969.451900       0.438456
    18001.800200       0.435890
    18034.265100       0.433331
    18066.847300       0.430779
    18099.547500       0.428233
    18132.366300       0.425694
    18165.304300       0.423162
    18198.362100       0.420637
    18231.540600       0.418119
    18264.840200       0.415608
    18298.261700       0.413104
    18331.805700       0.410607
    18365.472900       0.408118
    18399.264000       0.405635
    18433.179700       0.403160
    18467.220700       0.400692
    18501.387600       0.398232
    18535.681200       0.395779
    18570.102100       0.393333
    18604.651200       0.390894
    18639.329000       0.388462
    18674.136300       0.386038
    18709.073900       0.383622
    18744.142500       0.381212
    18779.342700       0.378810
    18814.675400       0.376415
    18850.141400       0.374027
    18885.741300       0.371647
    18921.475900       0.369273
    18957.346000       0.366907
    18993.352300       0.364548
    19029.495700       0.362196
    19065.776900       0.359851
    19102.196800       0.357513
    19138.756000       0.355181
    19175.455400       0.352857
    19212.295900       0.350539
    19249.278200       0.348228
    19286.403100       0.345923
    19323.671500       0.343625
    19361.084200       0.341333
    19398.642100       0.339048
    19436.346000       0.336769
    19474.196700       0.334496
    19512.195100       0.332228
    19550.342100       0.329967
    19588.638600       0.327712
    19627.085400       0.325462
    19665.683400       0.323218
    19704.433500       0.320979
    19743.336600       0.318745
    19782.393700       0.316516
    19821.605600       0.314293
    19860.973200       0.312074
    19900.497500       0.309859
