61,   61, MVIRI VIS channel from srf_MET7_2005078_2005079_1801-Release_S10EE_10.dat
Number of data points:
793
Wavenumber (cm-1)   Filter response
     8442.380800       0.000000
     8449.514200       0.000000
     8456.659600       0.000004
     8463.817200       0.000055
     8470.986900       0.000162
     8478.168700       0.000324
     8485.362700       0.000539
     8492.569000       0.000806
     8499.787500       0.001124
     8507.018300       0.001490
     8514.261400       0.001903
     8521.516800       0.002363
     8528.784600       0.002867
     8536.064900       0.003414
     8543.357500       0.004004
     8550.662700       0.004635
     8557.980300       0.005306
     8565.310500       0.006016
     8572.653200       0.006763
     8580.008600       0.007548
     8587.376600       0.008368
     8594.757200       0.009224
     8602.150500       0.010113
     8609.556600       0.011036
     8616.975400       0.011991
     8624.407100       0.012978
     8631.851500       0.013996
     8639.308900       0.015044
     8646.779100       0.016122
     8654.262200       0.017229
     8661.758300       0.018364
     8669.267400       0.019527
     8676.789600       0.020717
     8684.324800       0.021933
     8691.873100       0.023176
     8699.434500       0.024445
     8707.009100       0.025739
     8714.596900       0.027057
     8722.198000       0.028400
     8729.812300       0.029767
     8737.439900       0.031158
     8745.080900       0.032573
     8752.735200       0.034010
     8760.403000       0.035470
     8768.084200       0.036953
     8775.778900       0.038458
     8783.487000       0.039985
     8791.208800       0.041533
     8798.944100       0.043104
     8806.693100       0.044696
     8814.455700       0.046309
     8822.232000       0.047944
     8830.022100       0.049599
     8837.825900       0.051275
     8845.643500       0.052973
     8853.475000       0.054690
     8861.320300       0.056429
     8869.179600       0.058188
     8877.052800       0.059968
     8884.940000       0.061768
     8892.841300       0.063588
     8900.756600       0.065430
     8908.686000       0.067291
     8916.629500       0.069173
     8924.587200       0.071075
     8932.559200       0.072998
     8940.545400       0.074941
     8948.545900       0.076905
     8956.560700       0.078888
     8964.589900       0.080893
     8972.633500       0.082918
     8980.691500       0.084964
     8988.764000       0.087031
     8996.851100       0.089118
     9004.952700       0.091227
     9013.068900       0.093355
     9021.199800       0.095506
     9029.345400       0.097677
     9037.505600       0.099869
     9045.680700       0.102083
     9053.870500       0.104317
     9062.075200       0.106574
     9070.294800       0.108851
     9078.529300       0.111151
     9086.778700       0.113472
     9095.043200       0.115814
     9103.322700       0.118179
     9111.617300       0.120565
     9119.927000       0.122974
     9128.251900       0.125404
     9136.592100       0.127857
     9144.947400       0.130332
     9153.318100       0.132830
     9161.704100       0.135349
     9170.105500       0.137892
     9178.522300       0.140457
     9186.954500       0.143045
     9195.402300       0.145656
     9203.865600       0.148289
     9212.344500       0.150946
     9220.839100       0.153625
     9229.349300       0.156328
     9237.875300       0.159054
     9246.417000       0.161803
     9254.974500       0.164575
     9263.547900       0.167371
     9272.137200       0.170190
     9280.742500       0.173032
     9289.363700       0.175898
     9298.000900       0.178788
     9306.654300       0.181701
     9315.323700       0.184637
     9324.009300       0.187597
     9332.711200       0.190581
     9341.429200       0.193588
     9350.163600       0.196620
     9358.914400       0.199674
     9367.681500       0.202752
     9376.465100       0.205855
     9385.265100       0.208980
     9394.081700       0.212129
     9402.914900       0.215302
     9411.764700       0.218498
     9420.631200       0.221718
     9429.514400       0.224961
     9438.414300       0.228228
     9447.331100       0.231518
     9456.264800       0.234831
     9465.215300       0.238168
     9474.182900       0.241528
     9483.167400       0.244911
     9492.169000       0.248317
     9501.187600       0.251746
     9510.223500       0.255198
     9519.276500       0.258672
     9528.346800       0.262169
     9537.434400       0.265689
     9546.539400       0.269230
     9555.661700       0.272795
     9564.801500       0.276381
     9573.958800       0.279989
     9583.133700       0.283620
     9592.326100       0.287271
     9601.536200       0.290945
     9610.764100       0.294639
     9620.009600       0.298355
     9629.273000       0.302092
     9638.554200       0.305850
     9647.853400       0.309628
     9657.170400       0.313427
     9666.505600       0.317246
     9675.858700       0.321085
     9685.230000       0.324944
     9694.619500       0.328823
     9704.027200       0.332720
     9713.453100       0.336637
     9722.897400       0.340573
     9732.360100       0.344527
     9741.841200       0.348500
     9751.340800       0.352491
     9760.859000       0.356500
     9770.395700       0.360526
     9779.951100       0.364570
     9789.525200       0.368631
     9799.118100       0.372708
     9808.729800       0.376802
     9818.360300       0.380912
     9828.009800       0.385038
     9837.678300       0.389179
     9847.365800       0.393336
     9857.072400       0.397507
     9866.798200       0.401694
     9876.543200       0.405894
     9886.307500       0.410108
     9896.091000       0.414336
     9905.894000       0.418577
     9915.716400       0.422831
     9925.558300       0.427097
     9935.419800       0.431376
     9945.300800       0.435666
     9955.201600       0.439968
     9965.122100       0.444281
     9975.062300       0.448604
     9985.022500       0.452938
     9995.002500       0.457282
    10005.002500       0.461635
    10015.022500       0.465997
    10025.062700       0.470368
    10035.122900       0.474748
    10045.203400       0.479135
    10055.304200       0.483530
    10065.425300       0.487932
    10075.566800       0.492341
    10085.728700       0.496756
    10095.911200       0.501177
    10106.114200       0.505603
    10116.337900       0.510034
    10126.582300       0.514470
    10136.847400       0.518909
    10147.133400       0.523353
    10157.440300       0.527800
    10167.768200       0.532250
    10178.117000       0.536702
    10188.487000       0.541156
    10198.878100       0.545611
    10209.290500       0.550068
    10219.724100       0.554525
    10230.179000       0.558982
    10240.655400       0.563439
    10251.153300       0.567895
    10261.672700       0.572350
    10272.213700       0.576803
    10282.776300       0.581254
    10293.360800       0.585703
    10303.967000       0.590148
    10314.595200       0.594590
    10325.245200       0.599027
    10335.917300       0.603461
    10346.611500       0.607889
    10357.327800       0.612312
    10368.066400       0.616729
    10378.827200       0.621140
    10389.610400       0.625544
    10400.416000       0.629941
    10411.244100       0.634329
    10422.094800       0.638710
    10432.968200       0.643082
    10443.864200       0.647445
    10454.783100       0.651798
    10465.724800       0.656142
    10476.689400       0.660474
    10487.677000       0.664796
    10498.687700       0.669106
    10509.721500       0.673405
    10520.778500       0.677690
    10531.858900       0.681963
    10542.962600       0.686223
    10554.089700       0.690469
    10565.240400       0.694701
    10576.414600       0.698918
    10587.612500       0.703120
    10598.834100       0.707307
    10610.079600       0.711477
    10621.348900       0.715631
    10632.642200       0.719768
    10643.959600       0.723888
    10655.301000       0.727990
    10666.666700       0.732073
    10678.056600       0.736138
    10689.470900       0.740184
    10700.909600       0.744211
    10712.372800       0.748217
    10723.860600       0.752203
    10735.373100       0.756168
    10746.910300       0.760112
    10758.472300       0.764035
    10770.059200       0.767935
    10781.671200       0.771813
    10793.308100       0.775668
    10804.970300       0.779500
    10816.657700       0.783308
    10828.370300       0.787092
    10840.108400       0.790852
    10851.871900       0.794587
    10863.661100       0.798296
    10875.475800       0.801980
    10887.316300       0.805638
    10899.182600       0.809270
    10911.074700       0.812875
    10922.992900       0.816453
    10934.937100       0.820004
    10946.907500       0.823527
    10958.904100       0.827022
    10970.927000       0.830488
    10982.976400       0.833926
    10995.052200       0.837334
    11007.154700       0.840713
    11019.283700       0.844062
    11031.439600       0.847381
    11043.622300       0.850670
    11055.832000       0.853928
    11068.068600       0.857155
    11080.332400       0.860350
    11092.623400       0.863514
    11104.941700       0.866646
    11117.287400       0.869746
    11129.660500       0.872814
    11142.061300       0.875848
    11154.489700       0.878850
    11166.945800       0.881819
    11179.429800       0.884754
    11191.941800       0.887655
    11204.481800       0.890522
    11217.049900       0.893355
    11229.646300       0.896153
    11242.270900       0.898917
    11254.924000       0.901646
    11267.605600       0.904340
    11280.315800       0.906998
    11293.054800       0.909621
    11305.822500       0.912208
    11318.619100       0.914760
    11331.444800       0.917275
    11344.299500       0.919754
    11357.183400       0.922196
    11370.096600       0.924602
    11383.039300       0.926971
    11396.011400       0.929303
    11409.013100       0.931598
    11422.044500       0.933856
    11435.105800       0.936077
    11448.196900       0.938260
    11461.318100       0.940405
    11474.469300       0.942513
    11487.650800       0.944583
    11500.862600       0.946615
    11514.104800       0.948610
    11527.377500       0.950566
    11540.680900       0.952484
    11554.015000       0.954364
    11567.380000       0.956205
    11580.775900       0.958008
    11594.202900       0.959773
    11607.661100       0.961499
    11621.150500       0.963187
    11634.671300       0.964837
    11648.223600       0.966448
    11661.807600       0.968020
    11675.423200       0.969554
    11689.070700       0.971049
    11702.750100       0.972505
    11716.461600       0.973924
    11730.205300       0.975303
    11743.981200       0.976644
    11757.789500       0.977947
    11771.630400       0.979211
    11785.503800       0.980437
    11799.410000       0.981624
    11813.349100       0.982773
    11827.321100       0.983884
    11841.326200       0.984956
    11855.364600       0.985991
    11869.436200       0.986987
    11883.541300       0.987946
    11897.680000       0.988867
    11911.852300       0.989750
    11926.058400       0.990595
    11940.298500       0.991403
    11954.572600       0.992174
    11968.880900       0.992907
    11983.223500       0.993603
    11997.600500       0.994262
    12012.012000       0.994885
    12026.458200       0.995470
    12040.939200       0.996019
    12055.455100       0.996532
    12070.006000       0.997009
    12084.592100       0.997449
    12099.213600       0.997854
    12113.870400       0.998223
    12128.562800       0.998557
    12143.290800       0.998855
    12158.054700       0.999118
    12172.854500       0.999347
    12187.690400       0.999541
    12202.562500       0.999701
    12217.471000       0.999826
    12232.415900       0.999918
    12247.397400       0.999976
    12262.415700       1.000000
    12277.470800       0.999991
    12292.563000       0.999950
    12307.692300       0.999876
    12322.858900       0.999769
    12338.062900       0.999630
    12353.304500       0.999460
    12368.583800       0.999258
    12383.900900       0.999025
    12399.256000       0.998761
    12414.649300       0.998466
    12430.080800       0.998141
    12445.550700       0.997786
    12461.059200       0.997401
    12476.606400       0.996987
    12492.192400       0.996543
    12507.817400       0.996071
    12523.481500       0.995571
    12539.185000       0.995043
    12554.927800       0.994487
    12570.710200       0.993903
    12586.532400       0.993293
    12602.394500       0.992656
    12618.296500       0.991992
    12634.238800       0.991303
    12650.221400       0.990588
    12666.244500       0.989848
    12682.308200       0.989083
    12698.412700       0.988294
    12714.558200       0.987480
    12730.744700       0.986643
    12746.972600       0.985783
    12763.241900       0.984900
    12779.552700       0.983994
    12795.905300       0.983067
    12812.299800       0.982117
    12828.736400       0.981147
    12845.215200       0.980155
    12861.736300       0.979143
    12878.300100       0.978111
    12894.906500       0.977060
    12911.555800       0.975989
    12928.248200       0.974900
    12944.983800       0.973792
    12961.762800       0.972666
    12978.585300       0.971523
    12995.451600       0.970362
    13012.361700       0.969185
    13029.316000       0.967992
    13046.314400       0.966783
    13063.357300       0.965559
    13080.444700       0.964320
    13097.576900       0.963066
    13114.754100       0.961799
    13131.976400       0.960518
    13149.243900       0.959224
    13166.556900       0.957917
    13183.915600       0.956598
    13201.320100       0.955267
    13218.770700       0.953925
    13236.267400       0.952572
    13253.810500       0.951208
    13271.400100       0.949835
    13289.036500       0.948452
    13306.719900       0.947060
    13324.450400       0.945660
    13342.228200       0.944251
    13360.053400       0.942835
    13377.926400       0.941411
    13395.847300       0.939981
    13413.816200       0.938544
    13431.833400       0.937101
    13449.899100       0.935653
    13468.013500       0.934200
    13486.176700       0.932743
    13504.388900       0.931281
    13522.650400       0.929816
    13540.961400       0.928347
    13559.322000       0.926876
    13577.732500       0.925402
    13596.193100       0.923927
    13614.703900       0.922450
    13633.265200       0.920972
    13651.877100       0.919493
    13670.540000       0.918014
    13689.253900       0.916536
    13708.019200       0.915058
    13726.836000       0.913582
    13745.704500       0.912107
    13764.624900       0.910634
    13783.597500       0.909164
    13802.622500       0.907696
    13821.700100       0.906232
    13840.830400       0.904771
    13860.013900       0.903315
    13879.250500       0.901863
    13898.540700       0.900415
    13917.884500       0.898974
    13937.282200       0.897537
    13956.734100       0.896107
    13976.240400       0.894684
    13995.801300       0.893267
    14015.417000       0.891857
    14035.087700       0.890455
    14054.813800       0.889062
    14074.595400       0.887676
    14094.432700       0.886299
    14114.326000       0.884931
    14134.275600       0.883573
    14154.281700       0.882225
    14174.344400       0.880886
    14194.464200       0.879558
    14214.641100       0.878241
    14234.875400       0.876936
    14255.167500       0.875641
    14275.517500       0.874359
    14295.925700       0.873088
    14316.392300       0.871830
    14336.917600       0.870585
    14357.501800       0.869353
    14378.145200       0.868134
    14398.848100       0.866928
    14419.610700       0.865737
    14440.433200       0.864560
    14461.316000       0.863397
    14482.259200       0.862249
    14503.263200       0.861116
    14524.328200       0.859998
    14545.454500       0.858896
    14566.642400       0.857810
    14587.892000       0.856739
    14609.203800       0.855684
    14630.577900       0.854646
    14652.014700       0.853625
    14673.514300       0.852620
    14695.077100       0.851633
    14716.703500       0.850662
    14738.393500       0.849709
    14760.147600       0.848774
    14781.966000       0.847856
    14803.849000       0.846956
    14825.796900       0.846075
    14847.809900       0.845211
    14869.888500       0.844366
    14892.032800       0.843539
    14914.243100       0.842731
    14936.519800       0.841942
    14958.863100       0.841171
    14981.273400       0.840420
    15003.750900       0.839687
    15026.296000       0.838973
    15048.909000       0.838279
    15071.590100       0.837604
    15094.339600       0.836948
    15117.158000       0.836312
    15140.045400       0.835695
    15163.002300       0.835097
    15186.028900       0.834519
    15209.125500       0.833960
    15232.292500       0.833421
    15255.530100       0.832901
    15278.838800       0.832401
    15302.218800       0.831920
    15325.670500       0.831458
    15349.194200       0.831016
    15372.790200       0.830593
    15396.458800       0.830190
    15420.200500       0.829805
    15444.015400       0.829440
    15467.904100       0.829094
    15491.866800       0.828767
    15515.903800       0.828459
    15540.015500       0.828169
    15564.202300       0.827898
    15588.464500       0.827646
    15612.802500       0.827412
    15637.216600       0.827196
    15661.707100       0.826998
    15686.274500       0.826818
    15710.919100       0.826656
    15735.641200       0.826511
    15760.441300       0.826384
    15785.319700       0.826274
    15810.276700       0.826180
    15835.312700       0.826104
    15860.428200       0.826044
    15885.623500       0.826000
    15910.899000       0.825972
    15936.255000       0.825960
    15961.691900       0.825963
    15987.210200       0.825981
    16012.810200       0.826014
    16038.492400       0.826062
    16064.257000       0.826124
    16090.104600       0.826200
    16116.035500       0.826289
    16142.050000       0.826392
    16168.148700       0.826508
    16194.332000       0.826636
    16220.600200       0.826776
    16246.953700       0.826929
    16273.393000       0.827092
    16299.918500       0.827267
    16326.530600       0.827452
    16353.229800       0.827648
    16380.016400       0.827853
    16406.890900       0.828068
    16433.853700       0.828291
    16460.905300       0.828523
    16488.046200       0.828764
    16515.276600       0.829011
    16542.597200       0.829266
    16570.008300       0.829527
    16597.510400       0.829794
    16625.103900       0.830067
    16652.789300       0.830345
    16680.567100       0.830628
    16708.437800       0.830914
    16736.401700       0.831205
    16764.459300       0.831497
    16792.611300       0.831793
    16820.857900       0.832090
    16849.199700       0.832388
    16877.637100       0.832687
    16906.170800       0.832987
    16934.801000       0.833285
    16963.528400       0.833583
    16992.353400       0.833878
    17021.276600       0.834172
    17050.298400       0.834462
    17079.419300       0.834749
    17108.639900       0.835031
    17137.960600       0.835309
    17167.382000       0.835581
    17196.904600       0.835847
    17226.528900       0.836106
    17256.255400       0.836357
    17286.084700       0.836600
    17316.017300       0.836835
    17346.053800       0.837059
    17376.194600       0.837273
    17406.440400       0.837476
    17436.791600       0.837668
    17467.248900       0.837846
    17497.812800       0.838012
    17528.483800       0.838164
    17559.262500       0.838301
    17590.149500       0.838422
    17621.145400       0.838528
    17652.250700       0.838616
    17683.466000       0.838687
