100,   100, MVIRI VIS channel from srf_MET5_2003258_2003259_1801-Release_S10EL_10.dat
Number of data points:
806
Wavenumber (cm-1)   Filter response
     8350.730700       0.000000
     8357.710000       0.000000
     8364.701000       0.000000
     8371.703600       0.000002
     8378.718100       0.000004
     8385.744200       0.000009
     8392.782200       0.000017
     8399.832000       0.000028
     8406.893700       0.000042
     8413.967200       0.000061
     8421.052600       0.000085
     8428.150000       0.000114
     8435.259400       0.000148
     8442.380800       0.000189
     8449.514200       0.000237
     8456.659600       0.000291
     8463.817200       0.000353
     8470.986900       0.000423
     8478.168700       0.000501
     8485.362700       0.000588
     8492.569000       0.000683
     8499.787500       0.000788
     8507.018300       0.000902
     8514.261400       0.001026
     8521.516800       0.001160
     8528.784600       0.001305
     8536.064900       0.001461
     8543.357500       0.001628
     8550.662700       0.001805
     8557.980300       0.001995
     8565.310500       0.002196
     8572.653200       0.002410
     8580.008600       0.002636
     8587.376600       0.002874
     8594.757200       0.003125
     8602.150500       0.003389
     8609.556600       0.003666
     8616.975400       0.003957
     8624.407100       0.004261
     8631.851500       0.004579
     8639.308900       0.004911
     8646.779100       0.005257
     8654.262200       0.005617
     8661.758300       0.005991
     8669.267400       0.006381
     8676.789600       0.006785
     8684.324800       0.007204
     8691.873100       0.007638
     8699.434500       0.008088
     8707.009100       0.008552
     8714.596900       0.009033
     8722.198000       0.009529
     8729.812300       0.010041
     8737.439900       0.010569
     8745.080900       0.011113
     8752.735200       0.011673
     8760.403000       0.012249
     8768.084200       0.012842
     8775.778900       0.013452
     8783.487000       0.014078
     8791.208800       0.014721
     8798.944100       0.015382
     8806.693100       0.016059
     8814.455700       0.016753
     8822.232000       0.017465
     8830.022100       0.018194
     8837.825900       0.018941
     8845.643500       0.019705
     8853.475000       0.020487
     8861.320300       0.021288
     8869.179600       0.022105
     8877.052800       0.022942
     8884.940000       0.023796
     8892.841300       0.024668
     8900.756600       0.025559
     8908.686000       0.026469
     8916.629500       0.027397
     8924.587200       0.028344
     8932.559200       0.029310
     8940.545400       0.030295
     8948.545900       0.031298
     8956.560700       0.032321
     8964.589900       0.033363
     8972.633500       0.034425
     8980.691500       0.035506
     8988.764000       0.036606
     8996.851100       0.037726
     9004.952700       0.038866
     9013.068900       0.040026
     9021.199800       0.041205
     9029.345400       0.042405
     9037.505600       0.043625
     9045.680700       0.044865
     9053.870500       0.046125
     9062.075200       0.047406
     9070.294800       0.048708
     9078.529300       0.050030
     9086.778700       0.051373
     9095.043200       0.052736
     9103.322700       0.054121
     9111.617300       0.055526
     9119.927000       0.056953
     9128.251900       0.058401
     9136.592100       0.059870
     9144.947400       0.061360
     9153.318100       0.062872
     9161.704100       0.064406
     9170.105500       0.065961
     9178.522300       0.067538
     9186.954500       0.069136
     9195.402300       0.070757
     9203.865600       0.072400
     9212.344500       0.074064
     9220.839100       0.075751
     9229.349300       0.077460
     9237.875300       0.079191
     9246.417000       0.080945
     9254.974500       0.082721
     9263.547900       0.084520
     9272.137200       0.086341
     9280.742500       0.088185
     9289.363700       0.090052
     9298.000900       0.091942
     9306.654300       0.093854
     9315.323700       0.095790
     9324.009300       0.097748
     9332.711200       0.099730
     9341.429200       0.101735
     9350.163600       0.103763
     9358.914400       0.105814
     9367.681500       0.107888
     9376.465100       0.109986
     9385.265100       0.112107
     9394.081700       0.114252
     9402.914900       0.116420
     9411.764700       0.118612
     9420.631200       0.120827
     9429.514400       0.123066
     9438.414300       0.125328
     9447.331100       0.127614
     9456.264800       0.129924
     9465.215300       0.132258
     9474.182900       0.134615
     9483.167400       0.136997
     9492.169000       0.139401
     9501.187600       0.141830
     9510.223500       0.144283
     9519.276500       0.146759
     9528.346800       0.149260
     9537.434400       0.151784
     9546.539400       0.154332
     9555.661700       0.156904
     9564.801500       0.159499
     9573.958800       0.162119
     9583.133700       0.164762
     9592.326100       0.167429
     9601.536200       0.170120
     9610.764100       0.172835
     9620.009600       0.175573
     9629.273000       0.178335
     9638.554200       0.181121
     9647.853400       0.183930
     9657.170400       0.186763
     9666.505600       0.189619
     9675.858700       0.192499
     9685.230000       0.195402
     9694.619500       0.198329
     9704.027200       0.201279
     9713.453100       0.204252
     9722.897400       0.207249
     9732.360100       0.210268
     9741.841200       0.213311
     9751.340800       0.216376
     9760.859000       0.219465
     9770.395700       0.222576
     9779.951100       0.225709
     9789.525200       0.228866
     9799.118100       0.232045
     9808.729800       0.235246
     9818.360300       0.238470
     9828.009800       0.241715
     9837.678300       0.244983
     9847.365800       0.248273
     9857.072400       0.251584
     9866.798200       0.254917
     9876.543200       0.258271
     9886.307500       0.261647
     9896.091000       0.265045
     9905.894000       0.268463
     9915.716400       0.271902
     9925.558300       0.275362
     9935.419800       0.278843
     9945.300800       0.282344
     9955.201600       0.285865
     9965.122100       0.289407
     9975.062300       0.292968
     9985.022500       0.296550
     9995.002500       0.300151
    10005.002500       0.303771
    10015.022500       0.307410
    10025.062700       0.311069
    10035.122900       0.314746
    10045.203400       0.318442
    10055.304200       0.322156
    10065.425300       0.325888
    10075.566800       0.329639
    10085.728700       0.333407
    10095.911200       0.337192
    10106.114200       0.340995
    10116.337900       0.344815
    10126.582300       0.348651
    10136.847400       0.352504
    10147.133400       0.356374
    10157.440300       0.360259
    10167.768200       0.364160
    10178.117000       0.368077
    10188.487000       0.372009
    10198.878100       0.375956
    10209.290500       0.379917
    10219.724100       0.383893
    10230.179000       0.387884
    10240.655400       0.391888
    10251.153300       0.395905
    10261.672700       0.399936
    10272.213700       0.403980
    10282.776300       0.408037
    10293.360800       0.412106
    10303.967000       0.416187
    10314.595200       0.420280
    10325.245200       0.424385
    10335.917300       0.428501
    10346.611500       0.432627
    10357.327800       0.436764
    10368.066400       0.440911
    10378.827200       0.445068
    10389.610400       0.449235
    10400.416000       0.453410
    10411.244100       0.457595
    10422.094800       0.461788
    10432.968200       0.465989
    10443.864200       0.470198
    10454.783100       0.474415
    10465.724800       0.478639
    10476.689400       0.482869
    10487.677000       0.487106
    10498.687700       0.491349
    10509.721500       0.495597
    10520.778500       0.499851
    10531.858900       0.504110
    10542.962600       0.508374
    10554.089700       0.512641
    10565.240400       0.516913
    10576.414600       0.521188
    10587.612500       0.525466
    10598.834100       0.529747
    10610.079600       0.534030
    10621.348900       0.538314
    10632.642200       0.542601
    10643.959600       0.546889
    10655.301000       0.551177
    10666.666700       0.555466
    10678.056600       0.559754
    10689.470900       0.564043
    10700.909600       0.568330
    10712.372800       0.572617
    10723.860600       0.576901
    10735.373100       0.581184
    10746.910300       0.585464
    10758.472300       0.589741
    10770.059200       0.594016
    10781.671200       0.598286
    10793.308100       0.602553
    10804.970300       0.606815
    10816.657700       0.611072
    10828.370300       0.615324
    10840.108400       0.619570
    10851.871900       0.623810
    10863.661100       0.628044
    10875.475800       0.632271
    10887.316300       0.636491
    10899.182600       0.640703
    10911.074700       0.644907
    10922.992900       0.649102
    10934.937100       0.653288
    10946.907500       0.657465
    10958.904100       0.661632
    10970.927000       0.665790
    10982.976400       0.669936
    10995.052200       0.674072
    11007.154700       0.678196
    11019.283700       0.682308
    11031.439600       0.686409
    11043.622300       0.690496
    11055.832000       0.694571
    11068.068600       0.698632
    11080.332400       0.702680
    11092.623400       0.706713
    11104.941700       0.710732
    11117.287400       0.714736
    11129.660500       0.718724
    11142.061300       0.722697
    11154.489700       0.726653
    11166.945800       0.730593
    11179.429800       0.734516
    11191.941800       0.738422
    11204.481800       0.742310
    11217.049900       0.746179
    11229.646300       0.750031
    11242.270900       0.753863
    11254.924000       0.757677
    11267.605600       0.761470
    11280.315800       0.765244
    11293.054800       0.768997
    11305.822500       0.772730
    11318.619100       0.776442
    11331.444800       0.780132
    11344.299500       0.783800
    11357.183400       0.787446
    11370.096600       0.791070
    11383.039300       0.794671
    11396.011400       0.798248
    11409.013100       0.801803
    11422.044500       0.805333
    11435.105800       0.808839
    11448.196900       0.812320
    11461.318100       0.815777
    11474.469300       0.819208
    11487.650800       0.822614
    11500.862600       0.825994
    11514.104800       0.829348
    11527.377500       0.832675
    11540.680900       0.835976
    11554.015000       0.839250
    11567.380000       0.842496
    11580.775900       0.845714
    11594.202900       0.848905
    11607.661100       0.852067
    11621.150500       0.855201
    11634.671300       0.858306
    11648.223600       0.861381
    11661.807600       0.864428
    11675.423200       0.867445
    11689.070700       0.870432
    11702.750100       0.873388
    11716.461600       0.876315
    11730.205300       0.879211
    11743.981200       0.882076
    11757.789500       0.884909
    11771.630400       0.887712
    11785.503800       0.890482
    11799.410000       0.893221
    11813.349100       0.895929
    11827.321100       0.898603
    11841.326200       0.901246
    11855.364600       0.903855
    11869.436200       0.906432
    11883.541300       0.908976
    11897.680000       0.911487
    11911.852300       0.913964
    11926.058400       0.916408
    11940.298500       0.918818
    11954.572600       0.921194
    11968.880900       0.923536
    11983.223500       0.925843
    11997.600500       0.928117
    12012.012000       0.930356
    12026.458200       0.932560
    12040.939200       0.934730
    12055.455100       0.936864
    12070.006000       0.938964
    12084.592100       0.941029
    12099.213600       0.943058
    12113.870400       0.945052
    12128.562800       0.947010
    12143.290800       0.948934
    12158.054700       0.950821
    12172.854500       0.952673
    12187.690400       0.954489
    12202.562500       0.956269
    12217.471000       0.958014
    12232.415900       0.959722
    12247.397400       0.961395
    12262.415700       0.963031
    12277.470800       0.964632
    12292.563000       0.966196
    12307.692300       0.967724
    12322.858900       0.969217
    12338.062900       0.970673
    12353.304500       0.972093
    12368.583800       0.973477
    12383.900900       0.974824
    12399.256000       0.976136
    12414.649300       0.977412
    12430.080800       0.978651
    12445.550700       0.979855
    12461.059200       0.981022
    12476.606400       0.982154
    12492.192400       0.983250
    12507.817400       0.984310
    12523.481500       0.985334
    12539.185000       0.986323
    12554.927800       0.987276
    12570.710200       0.988193
    12586.532400       0.989075
    12602.394500       0.989922
    12618.296500       0.990733
    12634.238800       0.991509
    12650.221400       0.992250
    12666.244500       0.992957
    12682.308200       0.993628
    12698.412700       0.994265
    12714.558200       0.994868
    12730.744700       0.995436
    12746.972600       0.995970
    12763.241900       0.996469
    12779.552700       0.996935
    12795.905300       0.997367
    12812.299800       0.997766
    12828.736400       0.998131
    12845.215200       0.998463
    12861.736300       0.998762
    12878.300100       0.999028
    12894.906500       0.999261
    12911.555800       0.999462
    12928.248200       0.999631
    12944.983800       0.999768
    12961.762800       0.999873
    12978.585300       0.999947
    12995.451600       0.999989
    13012.361700       1.000000
    13029.316000       0.999980
    13046.314400       0.999930
    13063.357300       0.999849
    13080.444700       0.999739
    13097.576900       0.999598
    13114.754100       0.999428
    13131.976400       0.999229
    13149.243900       0.999001
    13166.556900       0.998744
    13183.915600       0.998459
    13201.320100       0.998145
    13218.770700       0.997804
    13236.267400       0.997435
    13253.810500       0.997039
    13271.400100       0.996616
    13289.036500       0.996166
    13306.719900       0.995691
    13324.450400       0.995189
    13342.228200       0.994661
    13360.053400       0.994109
    13377.926400       0.993531
    13395.847300       0.992929
    13413.816200       0.992302
    13431.833400       0.991652
    13449.899100       0.990978
    13468.013500       0.990281
    13486.176700       0.989560
    13504.388900       0.988818
    13522.650400       0.988053
    13540.961400       0.987266
    13559.322000       0.986458
    13577.732500       0.985629
    13596.193100       0.984780
    13614.703900       0.983910
    13633.265200       0.983020
    13651.877100       0.982111
    13670.540000       0.981182
    13689.253900       0.980235
    13708.019200       0.979269
    13726.836000       0.978286
    13745.704500       0.977285
    13764.624900       0.976267
    13783.597500       0.975232
    13802.622500       0.974180
    13821.700100       0.973113
    13840.830400       0.972030
    13860.013900       0.970932
    13879.250500       0.969820
    13898.540700       0.968693
    13917.884500       0.967552
    13937.282200       0.966398
    13956.734100       0.965230
    13976.240400       0.964050
    13995.801300       0.962858
    14015.417000       0.961654
    14035.087700       0.960439
    14054.813800       0.959212
    14074.595400       0.957975
    14094.432700       0.956728
    14114.326000       0.955471
    14134.275600       0.954205
    14154.281700       0.952930
    14174.344400       0.951646
    14194.464200       0.950355
    14214.641100       0.949056
    14234.875400       0.947749
    14255.167500       0.946436
    14275.517500       0.945116
    14295.925700       0.943791
    14316.392300       0.942460
    14336.917600       0.941124
    14357.501800       0.939783
    14378.145200       0.938438
    14398.848100       0.937089
    14419.610700       0.935736
    14440.433200       0.934381
    14461.316000       0.933022
    14482.259200       0.931662
    14503.263200       0.930300
    14524.328200       0.928936
    14545.454500       0.927571
    14566.642400       0.926206
    14587.892000       0.924840
    14609.203800       0.923474
    14630.577900       0.922109
    14652.014700       0.920745
    14673.514300       0.919382
    14695.077100       0.918021
    14716.703500       0.916662
    14738.393500       0.915305
    14760.147600       0.913951
    14781.966000       0.912600
    14803.849000       0.911253
    14825.796900       0.909910
    14847.809900       0.908571
    14869.888500       0.907236
    14892.032800       0.905907
    14914.243100       0.904582
    14936.519800       0.903264
    14958.863100       0.901951
    14981.273400       0.900645
    15003.750900       0.899345
    15026.296000       0.898052
    15048.909000       0.896766
    15071.590100       0.895488
    15094.339600       0.894218
    15117.158000       0.892956
    15140.045400       0.891703
    15163.002300       0.890458
    15186.028900       0.889223
    15209.125500       0.887996
    15232.292500       0.886780
    15255.530100       0.885573
    15278.838800       0.884376
    15302.218800       0.883190
    15325.670500       0.882014
    15349.194200       0.880849
    15372.790200       0.879696
    15396.458800       0.878554
    15420.200500       0.877423
    15444.015400       0.876304
    15467.904100       0.875197
    15491.866800       0.874102
    15515.903800       0.873020
    15540.015500       0.871950
    15564.202300       0.870893
    15588.464500       0.869850
    15612.802500       0.868819
    15637.216600       0.867801
    15661.707100       0.866797
    15686.274500       0.865807
    15710.919100       0.864830
    15735.641200       0.863867
    15760.441300       0.862918
    15785.319700       0.861983
    15810.276700       0.861062
    15835.312700       0.860156
    15860.428200       0.859264
    15885.623500       0.858387
    15910.899000       0.857524
    15936.255000       0.856675
    15961.691900       0.855841
    15987.210200       0.855022
    16012.810200       0.854218
    16038.492400       0.853428
    16064.257000       0.852654
    16090.104600       0.851894
    16116.035500       0.851149
    16142.050000       0.850418
    16168.148700       0.849703
    16194.332000       0.849002
    16220.600200       0.848316
    16246.953700       0.847644
    16273.393000       0.846987
    16299.918500       0.846345
    16326.530600       0.845717
    16353.229800       0.845104
    16380.016400       0.844505
    16406.890900       0.843920
    16433.853700       0.843349
    16460.905300       0.842792
    16488.046200       0.842249
    16515.276600       0.841720
    16542.597200       0.841205
    16570.008300       0.840702
    16597.510400       0.840213
    16625.103900       0.839737
    16652.789300       0.839274
    16680.567100       0.838824
    16708.437800       0.838386
    16736.401700       0.837960
    16764.459300       0.837546
    16792.611300       0.837144
    16820.857900       0.836754
    16849.199700       0.836375
    16877.637100       0.836006
    16906.170800       0.835649
    16934.801000       0.835302
    16963.528400       0.834965
    16992.353400       0.834638
    17021.276600       0.834320
    17050.298400       0.834011
    17079.419300       0.833712
    17108.639900       0.833420
    17137.960600       0.833137
    17167.382000       0.832862
    17196.904600       0.832594
    17226.528900       0.832333
    17256.255400       0.832078
    17286.084700       0.831829
