4,   from FY-3C_VIRR_SRF.xlsx (col B) Dr. Prof. SUN Ling (April 2019)
Number of data points:
277
Wavenumber (cm-1)   Filter response
    12919.896600       0.000092
    12936.610600       0.000078
    12953.367900       0.000036
    12970.168600       0.000068
    12987.013000       0.000096
    13003.901200       0.000015
    13020.833300       0.000069
    13037.809600       0.000011
    13054.830300       0.000107
    13071.895400       0.000044
    13089.005200       0.000073
    13106.159900       0.000020
    13123.359600       0.000035
    13140.604500       0.000020
    13157.894700       0.000029
    13175.230600       0.000030
    13192.612100       0.000031
    13210.039600       0.000006
    13227.513200       0.000055
    13245.033100       0.000061
    13262.599500       0.000053
    13280.212500       0.000053
    13297.872300       0.000048
    13315.579200       0.000070
    13333.333300       0.000091
    13351.134800       0.000102
    13368.984000       0.000044
    13386.880900       0.000035
    13404.825700       0.000057
    13422.818800       0.000077
    13440.860200       0.000089
    13458.950200       0.000039
    13477.088900       0.000064
    13495.276700       0.000008
    13513.513500       0.000020
    13531.799700       0.000091
    13550.135500       0.000023
    13568.521000       0.000028
    13586.956500       0.000077
    13605.442200       0.000043
    13623.978200       0.000027
    13642.564800       0.000059
    13661.202200       0.000002
    13679.890600       0.000026
    13698.630100       0.000058
    13717.421100       0.000100
    13736.263700       0.000024
    13755.158200       0.000067
    13774.104700       0.000035
    13793.103400       0.000073
    13812.154700       0.000075
    13831.258600       0.000088
    13850.415500       0.000036
    13869.625500       0.000055
    13888.888900       0.000044
    13908.205800       0.000003
    13927.576600       0.000046
    13947.001400       0.000049
    13966.480400       0.000028
    13986.014000       0.000072
    14005.602200       0.000079
    14025.245400       0.000066
    14044.943800       0.000000
    14064.697600       0.000026
    14084.507000       0.000018
    14104.372400       0.000056
    14124.293800       0.000048
    14144.271600       0.000080
    14164.305900       0.000450
    14184.397200       0.006288
    14204.545500       0.011620
    14224.751100       0.020320
    14245.014200       0.028190
    14265.335200       0.037010
    14285.714300       0.046280
    14306.151600       0.059400
    14326.647600       0.071160
    14347.202300       0.084330
    14367.816100       0.096190
    14388.489200       0.112000
    14409.221900       0.129800
    14430.014400       0.152500
    14450.867100       0.174800
    14471.780000       0.202900
    14492.753600       0.239300
    14513.788100       0.279000
    14534.883700       0.324400
    14556.040800       0.372600
    14577.259500       0.425300
    14598.540100       0.487600
    14619.883000       0.553300
    14641.288400       0.609100
    14662.756600       0.670900
    14684.287800       0.717700
    14705.882400       0.773900
    14727.540500       0.813500
    14749.262500       0.851100
    14771.048700       0.877200
    14792.899400       0.888400
    14814.814800       0.904900
    14836.795300       0.919900
    14858.841000       0.932700
    14880.952400       0.945700
    14903.129700       0.957800
    14925.373100       0.958400
    14947.683100       0.965100
    14970.059900       0.960100
    14992.503700       0.975700
    15015.015000       0.980000
    15037.594000       0.991400
    15060.241000       1.000000
    15082.956300       0.987700
    15105.740200       0.980400
    15128.593000       0.967000
    15151.515200       0.954300
    15174.506800       0.941800
    15197.568400       0.936800
    15220.700200       0.918300
    15243.902400       0.907800
    15267.175600       0.891000
    15290.519900       0.891600
    15313.935700       0.884500
    15337.423300       0.880800
    15360.983100       0.878800
    15384.615400       0.857900
    15408.320500       0.847800
    15432.098800       0.826000
    15455.950500       0.809600
    15479.876200       0.798200
    15503.876000       0.800200
    15527.950300       0.799000
    15552.099500       0.793700
    15576.324000       0.790400
    15600.624000       0.794300
    15625.000000       0.795800
    15649.452300       0.794900
    15673.981200       0.791300
    15698.587100       0.776500
    15723.270400       0.766000
    15748.031500       0.751400
    15772.870700       0.748600
    15797.788300       0.750700
    15822.784800       0.752700
    15847.860500       0.756800
    15873.015900       0.757100
    15898.251200       0.752700
    15923.566900       0.751400
    15948.963300       0.746900
    15974.440900       0.739200
    16000.000000       0.721900
    16025.641000       0.701100
    16051.364400       0.684300
    16077.170400       0.667700
    16103.059600       0.655600
    16129.032300       0.643300
    16155.088900       0.632900
    16181.229800       0.636400
    16207.455400       0.634400
    16233.766200       0.642200
    16260.162600       0.652000
    16286.645000       0.667100
    16313.213700       0.680100
    16339.869300       0.685400
    16366.612100       0.690700
    16393.442600       0.691200
    16420.361200       0.687500
    16447.368400       0.685000
    16474.464600       0.676800
    16501.650200       0.661700
    16528.925600       0.654500
    16556.291400       0.642600
    16583.747900       0.647300
    16611.295700       0.645600
    16638.935100       0.658000
    16666.666700       0.665800
    16694.490800       0.665300
    16722.408000       0.660200
    16750.418800       0.641400
    16778.523500       0.623300
    16806.722700       0.586000
    16835.016800       0.544700
    16863.406400       0.501600
    16891.891900       0.462000
    16920.473800       0.414900
    16949.152500       0.378800
    16977.928700       0.345900
    17006.802700       0.322600
    17035.775100       0.299300
    17064.846400       0.279500
    17094.017100       0.265900
    17123.287700       0.252200
    17152.658700       0.244600
    17182.130600       0.239000
    17211.704000       0.235200
    17241.379300       0.230000
    17271.157200       0.221600
    17301.038100       0.211800
    17331.022500       0.196400
    17361.111100       0.177700
    17391.304300       0.156000
    17421.602800       0.132800
    17452.007000       0.109400
    17482.517500       0.087090
    17513.134900       0.069110
    17543.859600       0.054770
    17574.692400       0.040830
    17605.633800       0.029660
    17636.684300       0.020140
    17667.844500       0.014650
    17699.115000       0.010210
    17730.496500       0.007326
    17761.989300       0.003575
    17793.594300       0.002702
    17825.311900       0.002072
    17857.142900       0.001404
    17889.087700       0.002161
    17921.147000       0.000031
    17953.321400       0.000002
    17985.611500       0.000043
    18018.018000       0.000070
    18050.541500       0.000057
    18083.182600       0.000008
    18115.942000       0.000022
    18148.820300       0.000084
    18181.818200       0.000070
    18214.936200       0.000085
    18248.175200       0.000087
    18281.535600       0.000064
    18315.018300       0.000036
    18348.623900       0.000096
    18382.352900       0.000064
    18416.206300       0.000011
    18450.184500       0.000046
    18484.288400       0.000017
    18518.518500       0.000029
    18552.875700       0.000079
    18587.360600       0.000088
    18621.973900       0.000079
    18656.716400       0.000059
    18691.588800       0.000097
    18726.591800       0.000081
    18761.726100       0.000010
    18796.992500       0.000036
    18832.391700       0.000095
    18867.924500       0.000091
    18903.591700       0.000083
    18939.393900       0.000070
    18975.332100       0.000085
    19011.406800       0.000060
    19047.619000       0.000073
    19083.969500       0.000057
    19120.458900       0.000069
    19157.088100       0.000035
    19193.858000       0.000064
    19230.769200       0.000070
    19267.822700       0.000037
    19305.019300       0.000074
    19342.359800       0.000035
    19379.845000       0.000043
    19417.475700       0.000076
    19455.252900       0.000043
    19493.177400       0.000063
    19531.250000       0.000026
    19569.471600       0.000103
    19607.843100       0.000017
    19646.365400       0.000051
    19685.039400       0.000071
    19723.865900       0.000082
    19762.845800       0.000019
    19801.980200       0.000005
    19841.269800       0.000102
    19880.715700       0.000021
    19920.318700       0.000000
    19960.079800       0.000099
    20000.000000       0.000024
    20040.080200       0.000013
    20080.321300       0.000022
