5,   5, MVIRI VIS channel from srf_MET5_1991303_1991304_1801-Release_S10EL_10.dat
Number of data points:
806
Wavenumber (cm-1)   Filter response
     8350.730700       0.000000
     8357.710000       0.000000
     8364.701000       0.000000
     8371.703600       0.000001
     8378.718100       0.000004
     8385.744200       0.000009
     8392.782200       0.000016
     8399.832000       0.000026
     8406.893700       0.000040
     8413.967200       0.000058
     8421.052600       0.000080
     8428.150000       0.000107
     8435.259400       0.000140
     8442.380800       0.000178
     8449.514200       0.000223
     8456.659600       0.000274
     8463.817200       0.000333
     8470.986900       0.000398
     8478.168700       0.000472
     8485.362700       0.000553
     8492.569000       0.000643
     8499.787500       0.000742
     8507.018300       0.000850
     8514.261400       0.000967
     8521.516800       0.001094
     8528.784600       0.001230
     8536.064900       0.001377
     8543.357500       0.001534
     8550.662700       0.001702
     8557.980300       0.001881
     8565.310500       0.002071
     8572.653200       0.002273
     8580.008600       0.002486
     8587.376600       0.002711
     8594.757200       0.002948
     8602.150500       0.003197
     8609.556600       0.003459
     8616.975400       0.003733
     8624.407100       0.004021
     8631.851500       0.004321
     8639.308900       0.004635
     8646.779100       0.004962
     8654.262200       0.005302
     8661.758300       0.005657
     8669.267400       0.006025
     8676.789600       0.006407
     8684.324800       0.006804
     8691.873100       0.007214
     8699.434500       0.007640
     8707.009100       0.008079
     8714.596900       0.008534
     8722.198000       0.009004
     8729.812300       0.009488
     8737.439900       0.009988
     8745.080900       0.010503
     8752.735200       0.011034
     8760.403000       0.011580
     8768.084200       0.012142
     8775.778900       0.012719
     8783.487000       0.013313
     8791.208800       0.013923
     8798.944100       0.014549
     8806.693100       0.015191
     8814.455700       0.015849
     8822.232000       0.016524
     8830.022100       0.017216
     8837.825900       0.017924
     8845.643500       0.018650
     8853.475000       0.019392
     8861.320300       0.020151
     8869.179600       0.020928
     8877.052800       0.021722
     8884.940000       0.022533
     8892.841300       0.023362
     8900.756600       0.024208
     8908.686000       0.025072
     8916.629500       0.025954
     8924.587200       0.026854
     8932.559200       0.027772
     8940.545400       0.028708
     8948.545900       0.029662
     8956.560700       0.030635
     8964.589900       0.031626
     8972.633500       0.032635
     8980.691500       0.033664
     8988.764000       0.034711
     8996.851100       0.035777
     9004.952700       0.036862
     9013.068900       0.037966
     9021.199800       0.039089
     9029.345400       0.040231
     9037.505600       0.041393
     9045.680700       0.042574
     9053.870500       0.043775
     9062.075200       0.044996
     9070.294800       0.046236
     9078.529300       0.047496
     9086.778700       0.048776
     9095.043200       0.050077
     9103.322700       0.051397
     9111.617300       0.052737
     9119.927000       0.054098
     9128.251900       0.055480
     9136.592100       0.056882
     9144.947400       0.058304
     9153.318100       0.059748
     9161.704100       0.061212
     9170.105500       0.062697
     9178.522300       0.064203
     9186.954500       0.065730
     9195.402300       0.067278
     9203.865600       0.068848
     9212.344500       0.070439
     9220.839100       0.072051
     9229.349300       0.073685
     9237.875300       0.075341
     9246.417000       0.077018
     9254.974500       0.078717
     9263.547900       0.080438
     9272.137200       0.082180
     9280.742500       0.083945
     9289.363700       0.085732
     9298.000900       0.087541
     9306.654300       0.089372
     9315.323700       0.091226
     9324.009300       0.093102
     9332.711200       0.095000
     9341.429200       0.096921
     9350.163600       0.098865
     9358.914400       0.100831
     9367.681500       0.102819
     9376.465100       0.104831
     9385.265100       0.106865
     9394.081700       0.108923
     9402.914900       0.111003
     9411.764700       0.113106
     9420.631200       0.115232
     9429.514400       0.117381
     9438.414300       0.119553
     9447.331100       0.121748
     9456.264800       0.123967
     9465.215300       0.126209
     9474.182900       0.128474
     9483.167400       0.130762
     9492.169000       0.133073
     9501.187600       0.135408
     9510.223500       0.137766
     9519.276500       0.140148
     9528.346800       0.142553
     9537.434400       0.144981
     9546.539400       0.147433
     9555.661700       0.149908
     9564.801500       0.152406
     9573.958800       0.154928
     9583.133700       0.157474
     9592.326100       0.160043
     9601.536200       0.162635
     9610.764100       0.165250
     9620.009600       0.167889
     9629.273000       0.170551
     9638.554200       0.173237
     9647.853400       0.175946
     9657.170400       0.178678
     9666.505600       0.181433
     9675.858700       0.184212
     9685.230000       0.187013
     9694.619500       0.189838
     9704.027200       0.192686
     9713.453100       0.195557
     9722.897400       0.198451
     9732.360100       0.201368
     9741.841200       0.204307
     9751.340800       0.207269
     9760.859000       0.210255
     9770.395700       0.213263
     9779.951100       0.216293
     9789.525200       0.219345
     9799.118100       0.222421
     9808.729800       0.225518
     9818.360300       0.228638
     9828.009800       0.231779
     9837.678300       0.234943
     9847.365800       0.238129
     9857.072400       0.241336
     9866.798200       0.244565
     9876.543200       0.247815
     9886.307500       0.251088
     9896.091000       0.254381
     9905.894000       0.257695
     9915.716400       0.261031
     9925.558300       0.264387
     9935.419800       0.267764
     9945.300800       0.271162
     9955.201600       0.274580
     9965.122100       0.278019
     9975.062300       0.281478
     9985.022500       0.284956
     9995.002500       0.288455
    10005.002500       0.291973
    10015.022500       0.295511
    10025.062700       0.299067
    10035.122900       0.302643
    10045.203400       0.306238
    10055.304200       0.309852
    10065.425300       0.313484
    10075.566800       0.317134
    10085.728700       0.320803
    10095.911200       0.324489
    10106.114200       0.328193
    10116.337900       0.331915
    10126.582300       0.335654
    10136.847400       0.339410
    10147.133400       0.343182
    10157.440300       0.346972
    10167.768200       0.350777
    10178.117000       0.354599
    10188.487000       0.358436
    10198.878100       0.362289
    10209.290500       0.366158
    10219.724100       0.370041
    10230.179000       0.373939
    10240.655400       0.377852
    10251.153300       0.381780
    10261.672700       0.385721
    10272.213700       0.389675
    10282.776300       0.393644
    10293.360800       0.397626
    10303.967000       0.401620
    10314.595200       0.405627
    10325.245200       0.409646
    10335.917300       0.413678
    10346.611500       0.417721
    10357.327800       0.421775
    10368.066400       0.425841
    10378.827200       0.429917
    10389.610400       0.434004
    10400.416000       0.438101
    10411.244100       0.442208
    10422.094800       0.446325
    10432.968200       0.450450
    10443.864200       0.454585
    10454.783100       0.458728
    10465.724800       0.462879
    10476.689400       0.467038
    10487.677000       0.471205
    10498.687700       0.475379
    10509.721500       0.479560
    10520.778500       0.483747
    10531.858900       0.487940
    10542.962600       0.492140
    10554.089700       0.496344
    10565.240400       0.500554
    10576.414600       0.504768
    10587.612500       0.508987
    10598.834100       0.513210
    10610.079600       0.517436
    10621.348900       0.521666
    10632.642200       0.525898
    10643.959600       0.530133
    10655.301000       0.534371
    10666.666700       0.538610
    10678.056600       0.542850
    10689.470900       0.547091
    10700.909600       0.551334
    10712.372800       0.555576
    10723.860600       0.559818
    10735.373100       0.564060
    10746.910300       0.568301
    10758.472300       0.572540
    10770.059200       0.576778
    10781.671200       0.581013
    10793.308100       0.585247
    10804.970300       0.589477
    10816.657700       0.593704
    10828.370300       0.597928
    10840.108400       0.602147
    10851.871900       0.606362
    10863.661100       0.610573
    10875.475800       0.614778
    10887.316300       0.618977
    10899.182600       0.623171
    10911.074700       0.627358
    10922.992900       0.631538
    10934.937100       0.635711
    10946.907500       0.639876
    10958.904100       0.644034
    10970.927000       0.648183
    10982.976400       0.652323
    10995.052200       0.656455
    11007.154700       0.660576
    11019.283700       0.664688
    11031.439600       0.668789
    11043.622300       0.672879
    11055.832000       0.676959
    11068.068600       0.681026
    11080.332400       0.685082
    11092.623400       0.689126
    11104.941700       0.693156
    11117.287400       0.697174
    11129.660500       0.701178
    11142.061300       0.705169
    11154.489700       0.709145
    11166.945800       0.713106
    11179.429800       0.717052
    11191.941800       0.720983
    11204.481800       0.724898
    11217.049900       0.728797
    11229.646300       0.732679
    11242.270900       0.736545
    11254.924000       0.740393
    11267.605600       0.744224
    11280.315800       0.748036
    11293.054800       0.751830
    11305.822500       0.755605
    11318.619100       0.759362
    11331.444800       0.763098
    11344.299500       0.766815
    11357.183400       0.770512
    11370.096600       0.774188
    11383.039300       0.777843
    11396.011400       0.781477
    11409.013100       0.785089
    11422.044500       0.788680
    11435.105800       0.792248
    11448.196900       0.795794
    11461.318100       0.799316
    11474.469300       0.802816
    11487.650800       0.806291
    11500.862600       0.809743
    11514.104800       0.813171
    11527.377500       0.816574
    11540.680900       0.819953
    11554.015000       0.823306
    11567.380000       0.826634
    11580.775900       0.829936
    11594.202900       0.833211
    11607.661100       0.836461
    11621.150500       0.839684
    11634.671300       0.842880
    11648.223600       0.846049
    11661.807600       0.849190
    11675.423200       0.852304
    11689.070700       0.855390
    11702.750100       0.858447
    11716.461600       0.861476
    11730.205300       0.864476
    11743.981200       0.867447
    11757.789500       0.870389
    11771.630400       0.873301
    11785.503800       0.876183
    11799.410000       0.879036
    11813.349100       0.881858
    11827.321100       0.884650
    11841.326200       0.887411
    11855.364600       0.890142
    11869.436200       0.892841
    11883.541300       0.895509
    11897.680000       0.898145
    11911.852300       0.900750
    11926.058400       0.903323
    11940.298500       0.905864
    11954.572600       0.908373
    11968.880900       0.910849
    11983.223500       0.913293
    11997.600500       0.915704
    12012.012000       0.918083
    12026.458200       0.920428
    12040.939200       0.922740
    12055.455100       0.925019
    12070.006000       0.927264
    12084.592100       0.929476
    12099.213600       0.931654
    12113.870400       0.933799
    12128.562800       0.935909
    12143.290800       0.937986
    12158.054700       0.940028
    12172.854500       0.942036
    12187.690400       0.944010
    12202.562500       0.945950
    12217.471000       0.947855
    12232.415900       0.949726
    12247.397400       0.951562
    12262.415700       0.953363
    12277.470800       0.955130
    12292.563000       0.956862
    12307.692300       0.958560
    12322.858900       0.960222
    12338.062900       0.961850
    12353.304500       0.963443
    12368.583800       0.965001
    12383.900900       0.966524
    12399.256000       0.968012
    12414.649300       0.969466
    12430.080800       0.970884
    12445.550700       0.972268
    12461.059200       0.973616
    12476.606400       0.974930
    12492.192400       0.976210
    12507.817400       0.977454
    12523.481500       0.978664
    12539.185000       0.979839
    12554.927800       0.980980
    12570.710200       0.982086
    12586.532400       0.983158
    12602.394500       0.984195
    12618.296500       0.985198
    12634.238800       0.986167
    12650.221400       0.987102
    12666.244500       0.988002
    12682.308200       0.988869
    12698.412700       0.989702
    12714.558200       0.990501
    12730.744700       0.991267
    12746.972600       0.992000
    12763.241900       0.992699
    12779.552700       0.993364
    12795.905300       0.993997
    12812.299800       0.994597
    12828.736400       0.995165
    12845.215200       0.995700
    12861.736300       0.996202
    12878.300100       0.996672
    12894.906500       0.997111
    12911.555800       0.997517
    12928.248200       0.997892
    12944.983800       0.998235
    12961.762800       0.998547
    12978.585300       0.998828
    12995.451600       0.999079
    13012.361700       0.999299
    13029.316000       0.999488
    13046.314400       0.999647
    13063.357300       0.999777
    13080.444700       0.999876
    13097.576900       0.999947
    13114.754100       0.999988
    13131.976400       1.000000
    13149.243900       0.999984
    13166.556900       0.999939
    13183.915600       0.999866
    13201.320100       0.999765
    13218.770700       0.999637
    13236.267400       0.999481
    13253.810500       0.999299
    13271.400100       0.999090
    13289.036500       0.998854
    13306.719900       0.998593
    13324.450400       0.998305
    13342.228200       0.997992
    13360.053400       0.997654
    13377.926400       0.997291
    13395.847300       0.996904
    13413.816200       0.996492
    13431.833400       0.996057
    13449.899100       0.995598
    13468.013500       0.995116
    13486.176700       0.994611
    13504.388900       0.994084
    13522.650400       0.993534
    13540.961400       0.992963
    13559.322000       0.992371
    13577.732500       0.991757
    13596.193100       0.991122
    13614.703900       0.990468
    13633.265200       0.989793
    13651.877100       0.989099
    13670.540000       0.988386
    13689.253900       0.987653
    13708.019200       0.986903
    13726.836000       0.986134
    13745.704500       0.985348
    13764.624900       0.984544
    13783.597500       0.983723
    13802.622500       0.982886
    13821.700100       0.982033
    13840.830400       0.981165
    13860.013900       0.980281
    13879.250500       0.979382
    13898.540700       0.978468
    13917.884500       0.977541
    13937.282200       0.976600
    13956.734100       0.975645
    13976.240400       0.974678
    13995.801300       0.973698
    14015.417000       0.972706
    14035.087700       0.971703
    14054.813800       0.970689
    14074.595400       0.969663
    14094.432700       0.968628
    14114.326000       0.967582
    14134.275600       0.966527
    14154.281700       0.965463
    14174.344400       0.964390
    14194.464200       0.963309
    14214.641100       0.962219
    14234.875400       0.961123
    14255.167500       0.960019
    14275.517500       0.958909
    14295.925700       0.957793
    14316.392300       0.956671
    14336.917600       0.955544
    14357.501800       0.954411
    14378.145200       0.953275
    14398.848100       0.952134
    14419.610700       0.950989
    14440.433200       0.949841
    14461.316000       0.948690
    14482.259200       0.947537
    14503.263200       0.946382
    14524.328200       0.945225
    14545.454500       0.944067
    14566.642400       0.942908
    14587.892000       0.941748
    14609.203800       0.940589
    14630.577900       0.939430
    14652.014700       0.938271
    14673.514300       0.937114
    14695.077100       0.935958
    14716.703500       0.934805
    14738.393500       0.933653
    14760.147600       0.932504
    14781.966000       0.931359
    14803.849000       0.930216
    14825.796900       0.929078
    14847.809900       0.927943
    14869.888500       0.926813
    14892.032800       0.925688
    14914.243100       0.924568
    14936.519800       0.923454
    14958.863100       0.922346
    14981.273400       0.921244
    15003.750900       0.920148
    15026.296000       0.919060
    15048.909000       0.917979
    15071.590100       0.916905
    15094.339600       0.915840
    15117.158000       0.914782
    15140.045400       0.913733
    15163.002300       0.912693
    15186.028900       0.911662
    15209.125500       0.910641
    15232.292500       0.909629
    15255.530100       0.908627
    15278.838800       0.907636
    15302.218800       0.906655
    15325.670500       0.905685
    15349.194200       0.904726
    15372.790200       0.903778
    15396.458800       0.902842
    15420.200500       0.901917
    15444.015400       0.901005
    15467.904100       0.900105
    15491.866800       0.899217
    15515.903800       0.898343
    15540.015500       0.897481
    15564.202300       0.896632
    15588.464500       0.895796
    15612.802500       0.894974
    15637.216600       0.894166
    15661.707100       0.893371
    15686.274500       0.892590
    15710.919100       0.891824
    15735.641200       0.891072
    15760.441300       0.890334
    15785.319700       0.889610
    15810.276700       0.888902
    15835.312700       0.888208
    15860.428200       0.887529
    15885.623500       0.886865
    15910.899000       0.886216
    15936.255000       0.885582
    15961.691900       0.884964
    15987.210200       0.884360
    16012.810200       0.883772
    16038.492400       0.883200
    16064.257000       0.882642
    16090.104600       0.882101
    16116.035500       0.881574
    16142.050000       0.881063
    16168.148700       0.880568
    16194.332000       0.880088
    16220.600200       0.879623
    16246.953700       0.879174
    16273.393000       0.878740
    16299.918500       0.878321
    16326.530600       0.877917
    16353.229800       0.877529
    16380.016400       0.877156
    16406.890900       0.876797
    16433.853700       0.876454
    16460.905300       0.876125
    16488.046200       0.875811
    16515.276600       0.875512
    16542.597200       0.875226
    16570.008300       0.874955
    16597.510400       0.874698
    16625.103900       0.874455
    16652.789300       0.874226
    16680.567100       0.874010
    16708.437800       0.873807
    16736.401700       0.873617
    16764.459300       0.873440
    16792.611300       0.873276
    16820.857900       0.873124
    16849.199700       0.872984
    16877.637100       0.872856
    16906.170800       0.872740
    16934.801000       0.872635
    16963.528400       0.872540
    16992.353400       0.872457
    17021.276600       0.872383
    17050.298400       0.872320
    17079.419300       0.872266
    17108.639900       0.872221
    17137.960600       0.872186
    17167.382000       0.872158
    17196.904600       0.872139
    17226.528900       0.872128
    17256.255400       0.872124
    17286.084700       0.872126
