24,   24, MVIRI VIS channel from srf_MET2_1985033_1985034_1801-Release_S10EL_10.dat
Number of data points:
730
Wavenumber (cm-1)   Filter response
     8916.629500       0.000000
     8924.587200       0.000000
     8932.559200       0.000002
     8940.545400       0.000011
     8948.545900       0.000032
     8956.560700       0.000069
     8964.589900       0.000125
     8972.633500       0.000207
     8980.691500       0.000316
     8988.764000       0.000458
     8996.851100       0.000636
     9004.952700       0.000853
     9013.068900       0.001112
     9021.199800       0.001418
     9029.345400       0.001772
     9037.505600       0.002178
     9045.680700       0.002638
     9053.870500       0.003156
     9062.075200       0.003733
     9070.294800       0.004372
     9078.529300       0.005075
     9086.778700       0.005844
     9095.043200       0.006682
     9103.322700       0.007589
     9111.617300       0.008569
     9119.927000       0.009621
     9128.251900       0.010749
     9136.592100       0.011953
     9144.947400       0.013234
     9153.318100       0.014594
     9161.704100       0.016035
     9170.105500       0.017556
     9178.522300       0.019159
     9186.954500       0.020844
     9195.402300       0.022613
     9203.865600       0.024465
     9212.344500       0.026403
     9220.839100       0.028425
     9229.349300       0.030533
     9237.875300       0.032726
     9246.417000       0.035006
     9254.974500       0.037371
     9263.547900       0.039823
     9272.137200       0.042361
     9280.742500       0.044985
     9289.363700       0.047695
     9298.000900       0.050491
     9306.654300       0.053373
     9315.323700       0.056340
     9324.009300       0.059393
     9332.711200       0.062530
     9341.429200       0.065751
     9350.163600       0.069056
     9358.914400       0.072443
     9367.681500       0.075914
     9376.465100       0.079467
     9385.265100       0.083100
     9394.081700       0.086815
     9402.914900       0.090608
     9411.764700       0.094481
     9420.631200       0.098432
     9429.514400       0.102459
     9438.414300       0.106563
     9447.331100       0.110742
     9456.264800       0.114996
     9465.215300       0.119323
     9474.182900       0.123722
     9483.167400       0.128192
     9492.169000       0.132732
     9501.187600       0.137341
     9510.223500       0.142017
     9519.276500       0.146760
     9528.346800       0.151569
     9537.434400       0.156441
     9546.539400       0.161376
     9555.661700       0.166373
     9564.801500       0.171430
     9573.958800       0.176547
     9583.133700       0.181721
     9592.326100       0.186951
     9601.536200       0.192237
     9610.764100       0.197575
     9620.009600       0.202967
     9629.273000       0.208410
     9638.554200       0.213901
     9647.853400       0.219442
     9657.170400       0.225029
     9666.505600       0.230661
     9675.858700       0.236338
     9685.230000       0.242057
     9694.619500       0.247818
     9704.027200       0.253618
     9713.453100       0.259457
     9722.897400       0.265332
     9732.360100       0.271243
     9741.841200       0.277189
     9751.340800       0.283166
     9760.859000       0.289176
     9770.395700       0.295215
     9779.951100       0.301282
     9789.525200       0.307377
     9799.118100       0.313498
     9808.729800       0.319642
     9818.360300       0.325809
     9828.009800       0.331998
     9837.678300       0.338207
     9847.365800       0.344434
     9857.072400       0.350679
     9866.798200       0.356940
     9876.543200       0.363215
     9886.307500       0.369504
     9896.091000       0.375804
     9905.894000       0.382115
     9915.716400       0.388435
     9925.558300       0.394763
     9935.419800       0.401098
     9945.300800       0.407439
     9955.201600       0.413782
     9965.122100       0.420129
     9975.062300       0.426477
     9985.022500       0.432826
     9995.002500       0.439175
    10005.002500       0.445520
    10015.022500       0.451862
    10025.062700       0.458200
    10035.122900       0.464532
    10045.203400       0.470856
    10055.304200       0.477174
    10065.425300       0.483481
    10075.566800       0.489778
    10085.728700       0.496064
    10095.911200       0.502338
    10106.114200       0.508597
    10116.337900       0.514842
    10126.582300       0.521072
    10136.847400       0.527284
    10147.133400       0.533479
    10157.440300       0.539655
    10167.768200       0.545811
    10178.117000       0.551946
    10188.487000       0.558060
    10198.878100       0.564151
    10209.290500       0.570218
    10219.724100       0.576261
    10230.179000       0.582278
    10240.655400       0.588270
    10251.153300       0.594234
    10261.672700       0.600170
    10272.213700       0.606077
    10282.776300       0.611955
    10293.360800       0.617803
    10303.967000       0.623619
    10314.595200       0.629403
    10325.245200       0.635154
    10335.917300       0.640873
    10346.611500       0.646557
    10357.327800       0.652206
    10368.066400       0.657820
    10378.827200       0.663398
    10389.610400       0.668939
    10400.416000       0.674442
    10411.244100       0.679907
    10422.094800       0.685334
    10432.968200       0.690722
    10443.864200       0.696070
    10454.783100       0.701377
    10465.724800       0.706644
    10476.689400       0.711869
    10487.677000       0.717052
    10498.687700       0.722193
    10509.721500       0.727292
    10520.778500       0.732346
    10531.858900       0.737358
    10542.962600       0.742325
    10554.089700       0.747247
    10565.240400       0.752125
    10576.414600       0.756957
    10587.612500       0.761743
    10598.834100       0.766484
    10610.079600       0.771178
    10621.348900       0.775826
    10632.642200       0.780426
    10643.959600       0.784980
    10655.301000       0.789485
    10666.666700       0.793943
    10678.056600       0.798353
    10689.470900       0.802714
    10700.909600       0.807027
    10712.372800       0.811291
    10723.860600       0.815507
    10735.373100       0.819673
    10746.910300       0.823790
    10758.472300       0.827857
    10770.059200       0.831875
    10781.671200       0.835843
    10793.308100       0.839762
    10804.970300       0.843630
    10816.657700       0.847449
    10828.370300       0.851217
    10840.108400       0.854935
    10851.871900       0.858603
    10863.661100       0.862221
    10875.475800       0.865788
    10887.316300       0.869305
    10899.182600       0.872772
    10911.074700       0.876188
    10922.992900       0.879554
    10934.937100       0.882869
    10946.907500       0.886134
    10958.904100       0.889349
    10970.927000       0.892514
    10982.976400       0.895629
    10995.052200       0.898693
    11007.154700       0.901707
    11019.283700       0.904671
    11031.439600       0.907586
    11043.622300       0.910451
    11055.832000       0.913266
    11068.068600       0.916031
    11080.332400       0.918747
    11092.623400       0.921414
    11104.941700       0.924032
    11117.287400       0.926600
    11129.660500       0.929120
    11142.061300       0.931591
    11154.489700       0.934014
    11166.945800       0.936388
    11179.429800       0.938714
    11191.941800       0.940992
    11204.481800       0.943222
    11217.049900       0.945405
    11229.646300       0.947541
    11242.270900       0.949629
    11254.924000       0.951670
    11267.605600       0.953665
    11280.315800       0.955613
    11293.054800       0.957515
    11305.822500       0.959371
    11318.619100       0.961182
    11331.444800       0.962947
    11344.299500       0.964666
    11357.183400       0.966341
    11370.096600       0.967971
    11383.039300       0.969556
    11396.011400       0.971098
    11409.013100       0.972595
    11422.044500       0.974049
    11435.105800       0.975460
    11448.196900       0.976827
    11461.318100       0.978152
    11474.469300       0.979434
    11487.650800       0.980675
    11500.862600       0.981873
    11514.104800       0.983030
    11527.377500       0.984145
    11540.680900       0.985220
    11554.015000       0.986254
    11567.380000       0.987248
    11580.775900       0.988201
    11594.202900       0.989115
    11607.661100       0.989990
    11621.150500       0.990825
    11634.671300       0.991622
    11648.223600       0.992380
    11661.807600       0.993100
    11675.423200       0.993783
    11689.070700       0.994428
    11702.750100       0.995036
    11716.461600       0.995607
    11730.205300       0.996141
    11743.981200       0.996639
    11757.789500       0.997102
    11771.630400       0.997529
    11785.503800       0.997921
    11799.410000       0.998278
    11813.349100       0.998600
    11827.321100       0.998888
    11841.326200       0.999142
    11855.364600       0.999363
    11869.436200       0.999550
    11883.541300       0.999705
    11897.680000       0.999827
    11911.852300       0.999916
    11926.058400       0.999974
    11940.298500       1.000000
    11954.572600       0.999995
    11968.880900       0.999958
    11983.223500       0.999891
    11997.600500       0.999794
    12012.012000       0.999666
    12026.458200       0.999509
    12040.939200       0.999323
    12055.455100       0.999107
    12070.006000       0.998862
    12084.592100       0.998589
    12099.213600       0.998288
    12113.870400       0.997958
    12128.562800       0.997601
    12143.290800       0.997217
    12158.054700       0.996806
    12172.854500       0.996368
    12187.690400       0.995903
    12202.562500       0.995413
    12217.471000       0.994896
    12232.415900       0.994354
    12247.397400       0.993787
    12262.415700       0.993195
    12277.470800       0.992577
    12292.563000       0.991936
    12307.692300       0.991270
    12322.858900       0.990580
    12338.062900       0.989867
    12353.304500       0.989130
    12368.583800       0.988370
    12383.900900       0.987587
    12399.256000       0.986782
    12414.649300       0.985954
    12430.080800       0.985104
    12445.550700       0.984232
    12461.059200       0.983338
    12476.606400       0.982423
    12492.192400       0.981487
    12507.817400       0.980530
    12523.481500       0.979552
    12539.185000       0.978554
    12554.927800       0.977536
    12570.710200       0.976497
    12586.532400       0.975439
    12602.394500       0.974361
    12618.296500       0.973264
    12634.238800       0.972148
    12650.221400       0.971013
    12666.244500       0.969859
    12682.308200       0.968686
    12698.412700       0.967495
    12714.558200       0.966286
    12730.744700       0.965059
    12746.972600       0.963815
    12763.241900       0.962553
    12779.552700       0.961273
    12795.905300       0.959976
    12812.299800       0.958662
    12828.736400       0.957332
    12845.215200       0.955984
    12861.736300       0.954621
    12878.300100       0.953240
    12894.906500       0.951844
    12911.555800       0.950432
    12928.248200       0.949004
    12944.983800       0.947560
    12961.762800       0.946101
    12978.585300       0.944626
    12995.451600       0.943136
    13012.361700       0.941631
    13029.316000       0.940111
    13046.314400       0.938576
    13063.357300       0.937027
    13080.444700       0.935463
    13097.576900       0.933884
    13114.754100       0.932292
    13131.976400       0.930685
    13149.243900       0.929064
    13166.556900       0.927430
    13183.915600       0.925781
    13201.320100       0.924119
    13218.770700       0.922444
    13236.267400       0.920754
    13253.810500       0.919052
    13271.400100       0.917336
    13289.036500       0.915608
    13306.719900       0.913866
    13324.450400       0.912112
    13342.228200       0.910344
    13360.053400       0.908564
    13377.926400       0.906772
    13395.847300       0.904967
    13413.816200       0.903149
    13431.833400       0.901319
    13449.899100       0.899477
    13468.013500       0.897623
    13486.176700       0.895757
    13504.388900       0.893879
    13522.650400       0.891989
    13540.961400       0.890087
    13559.322000       0.888173
    13577.732500       0.886248
    13596.193100       0.884311
    13614.703900       0.882363
    13633.265200       0.880403
    13651.877100       0.878432
    13670.540000       0.876450
    13689.253900       0.874457
    13708.019200       0.872452
    13726.836000       0.870436
    13745.704500       0.868410
    13764.624900       0.866372
    13783.597500       0.864324
    13802.622500       0.862264
    13821.700100       0.860195
    13840.830400       0.858114
    13860.013900       0.856023
    13879.250500       0.853921
    13898.540700       0.851809
    13917.884500       0.849686
    13937.282200       0.847553
    13956.734100       0.845410
    13976.240400       0.843257
    13995.801300       0.841093
    14015.417000       0.838919
    14035.087700       0.836735
    14054.813800       0.834542
    14074.595400       0.832338
    14094.432700       0.830124
    14114.326000       0.827901
    14134.275600       0.825668
    14154.281700       0.823425
    14174.344400       0.821172
    14194.464200       0.818910
    14214.641100       0.816638
    14234.875400       0.814357
    14255.167500       0.812067
    14275.517500       0.809767
    14295.925700       0.807458
    14316.392300       0.805139
    14336.917600       0.802812
    14357.501800       0.800475
    14378.145200       0.798129
    14398.848100       0.795775
    14419.610700       0.793411
    14440.433200       0.791038
    14461.316000       0.788657
    14482.259200       0.786267
    14503.263200       0.783868
    14524.328200       0.781461
    14545.454500       0.779045
    14566.642400       0.776621
    14587.892000       0.774188
    14609.203800       0.771747
    14630.577900       0.769298
    14652.014700       0.766841
    14673.514300       0.764375
    14695.077100       0.761901
    14716.703500       0.759420
    14738.393500       0.756930
    14760.147600       0.754433
    14781.966000       0.751928
    14803.849000       0.749415
    14825.796900       0.746895
    14847.809900       0.744367
    14869.888500       0.741832
    14892.032800       0.739289
    14914.243100       0.736739
    14936.519800       0.734182
    14958.863100       0.731618
    14981.273400       0.729047
    15003.750900       0.726468
    15026.296000       0.723884
    15048.909000       0.721292
    15071.590100       0.718694
    15094.339600       0.716089
    15117.158000       0.713478
    15140.045400       0.710860
    15163.002300       0.708236
    15186.028900       0.705606
    15209.125500       0.702970
    15232.292500       0.700328
    15255.530100       0.697680
    15278.838800       0.695026
    15302.218800       0.692367
    15325.670500       0.689702
    15349.194200       0.687032
    15372.790200       0.684356
    15396.458800       0.681675
    15420.200500       0.678990
    15444.015400       0.676299
    15467.904100       0.673603
    15491.866800       0.670902
    15515.903800       0.668197
    15540.015500       0.665488
    15564.202300       0.662774
    15588.464500       0.660055
    15612.802500       0.657333
    15637.216600       0.654606
    15661.707100       0.651876
    15686.274500       0.649142
    15710.919100       0.646404
    15735.641200       0.643663
    15760.441300       0.640918
    15785.319700       0.638170
    15810.276700       0.635419
    15835.312700       0.632665
    15860.428200       0.629909
    15885.623500       0.627149
    15910.899000       0.624387
    15936.255000       0.621622
    15961.691900       0.618855
    15987.210200       0.616086
    16012.810200       0.613315
    16038.492400       0.610542
    16064.257000       0.607767
    16090.104600       0.604991
    16116.035500       0.602213
    16142.050000       0.599434
    16168.148700       0.596654
    16194.332000       0.593873
    16220.600200       0.591091
    16246.953700       0.588308
    16273.393000       0.585524
    16299.918500       0.582740
    16326.530600       0.579956
    16353.229800       0.577172
    16380.016400       0.574387
    16406.890900       0.571603
    16433.853700       0.568819
    16460.905300       0.566036
    16488.046200       0.563253
    16515.276600       0.560471
    16542.597200       0.557690
    16570.008300       0.554910
    16597.510400       0.552131
    16625.103900       0.549353
    16652.789300       0.546577
    16680.567100       0.543803
    16708.437800       0.541030
    16736.401700       0.538259
    16764.459300       0.535491
    16792.611300       0.532724
    16820.857900       0.529960
    16849.199700       0.527199
    16877.637100       0.524440
    16906.170800       0.521684
    16934.801000       0.518930
    16963.528400       0.516180
    16992.353400       0.513434
    17021.276600       0.510690
    17050.298400       0.507950
    17079.419300       0.505214
    17108.639900       0.502482
    17137.960600       0.499753
    17167.382000       0.497028
    17196.904600       0.494308
    17226.528900       0.491592
    17256.255400       0.488880
    17286.084700       0.486173
    17316.017300       0.483471
    17346.053800       0.480774
    17376.194600       0.478081
    17406.440400       0.475394
    17436.791600       0.472711
    17467.248900       0.470034
    17497.812800       0.467363
    17528.483800       0.464697
    17559.262500       0.462036
    17590.149500       0.459381
    17621.145400       0.456733
    17652.250700       0.454090
    17683.466000       0.451453
    17714.791900       0.448822
    17746.228900       0.446198
    17777.777800       0.443580
    17809.439000       0.440968
    17841.213200       0.438363
    17873.101000       0.435765
    17905.103000       0.433173
    17937.219700       0.430588
    17969.451900       0.428010
    18001.800200       0.425438
    18034.265100       0.422874
    18066.847300       0.420317
    18099.547500       0.417767
    18132.366300       0.415224
    18165.304300       0.412688
    18198.362100       0.410159
    18231.540600       0.407638
    18264.840200       0.405125
    18298.261700       0.402618
    18331.805700       0.400119
    18365.472900       0.397628
    18399.264000       0.395144
    18433.179700       0.392668
    18467.220700       0.390199
    18501.387600       0.387738
    18535.681200       0.385284
    18570.102100       0.382838
    18604.651200       0.380400
    18639.329000       0.377969
    18674.136300       0.375546
    18709.073900       0.373130
    18744.142500       0.370723
    18779.342700       0.368322
    18814.675400       0.365930
    18850.141400       0.363544
    18885.741300       0.361167
    18921.475900       0.358797
    18957.346000       0.356434
    18993.352300       0.354078
    19029.495700       0.351731
    19065.776900       0.349390
    19102.196800       0.347057
    19138.756000       0.344730
    19175.455400       0.342411
    19212.295900       0.340099
    19249.278200       0.337795
    19286.403100       0.335496
    19323.671500       0.333205
    19361.084200       0.330921
    19398.642100       0.328643
    19436.346000       0.326372
    19474.196700       0.324107
    19512.195100       0.321849
    19550.342100       0.319597
    19588.638600       0.317351
    19627.085400       0.315111
    19665.683400       0.312876
    19704.433500       0.310648
    19743.336600       0.308426
    19782.393700       0.306208
    19821.605600       0.303997
    19860.973200       0.301790
    19900.497500       0.299588
