77,   77, MVIRI VIS channel from srf_MET7_2007078_2007079_1801-Release_S10EE_10.dat
Number of data points:
793
Wavenumber (cm-1)   Filter response
     8442.380800       0.000000
     8449.514200       0.000000
     8456.659600       0.000004
     8463.817200       0.000055
     8470.986900       0.000164
     8478.168700       0.000328
     8485.362700       0.000545
     8492.569000       0.000816
     8499.787500       0.001136
     8507.018300       0.001506
     8514.261400       0.001924
     8521.516800       0.002389
     8528.784600       0.002899
     8536.064900       0.003452
     8543.357500       0.004048
     8550.662700       0.004686
     8557.980300       0.005365
     8565.310500       0.006082
     8572.653200       0.006838
     8580.008600       0.007631
     8587.376600       0.008460
     8594.757200       0.009325
     8602.150500       0.010224
     8609.556600       0.011156
     8616.975400       0.012122
     8624.407100       0.013119
     8631.851500       0.014148
     8639.308900       0.015207
     8646.779100       0.016296
     8654.262200       0.017415
     8661.758300       0.018562
     8669.267400       0.019737
     8676.789600       0.020939
     8684.324800       0.022168
     8691.873100       0.023424
     8699.434500       0.024705
     8707.009100       0.026013
     8714.596900       0.027345
     8722.198000       0.028701
     8729.812300       0.030082
     8737.439900       0.031487
     8745.080900       0.032916
     8752.735200       0.034367
     8760.403000       0.035842
     8768.084200       0.037340
     8775.778900       0.038859
     8783.487000       0.040402
     8791.208800       0.041966
     8798.944100       0.043552
     8806.693100       0.045159
     8814.455700       0.046788
     8822.232000       0.048438
     8830.022100       0.050110
     8837.825900       0.051802
     8845.643500       0.053516
     8853.475000       0.055250
     8861.320300       0.057005
     8869.179600       0.058781
     8877.052800       0.060577
     8884.940000       0.062394
     8892.841300       0.064232
     8900.756600       0.066090
     8908.686000       0.067969
     8916.629500       0.069868
     8924.587200       0.071788
     8932.559200       0.073728
     8940.545400       0.075689
     8948.545900       0.077671
     8956.560700       0.079672
     8964.589900       0.081695
     8972.633500       0.083739
     8980.691500       0.085803
     8988.764000       0.087888
     8996.851100       0.089994
     9004.952700       0.092121
     9013.068900       0.094268
     9021.199800       0.096437
     9029.345400       0.098627
     9037.505600       0.100839
     9045.680700       0.103071
     9053.870500       0.105325
     9062.075200       0.107601
     9070.294800       0.109898
     9078.529300       0.112216
     9086.778700       0.114557
     9095.043200       0.116919
     9103.322700       0.119304
     9111.617300       0.121710
     9119.927000       0.124138
     9128.251900       0.126589
     9136.592100       0.129062
     9144.947400       0.131557
     9153.318100       0.134075
     9161.704100       0.136615
     9170.105500       0.139178
     9178.522300       0.141764
     9186.954500       0.144372
     9195.402300       0.147003
     9203.865600       0.149658
     9212.344500       0.152335
     9220.839100       0.155036
     9229.349300       0.157759
     9237.875300       0.160506
     9246.417000       0.163276
     9254.974500       0.166069
     9263.547900       0.168886
     9272.137200       0.171727
     9280.742500       0.174590
     9289.363700       0.177478
     9298.000900       0.180389
     9306.654300       0.183323
     9315.323700       0.186281
     9324.009300       0.189263
     9332.711200       0.192269
     9341.429200       0.195297
     9350.163600       0.198350
     9358.914400       0.201427
     9367.681500       0.204527
     9376.465100       0.207651
     9385.265100       0.210798
     9394.081700       0.213969
     9402.914900       0.217164
     9411.764700       0.220382
     9420.631200       0.223624
     9429.514400       0.226889
     9438.414300       0.230178
     9447.331100       0.233490
     9456.264800       0.236826
     9465.215300       0.240185
     9474.182900       0.243566
     9483.167400       0.246971
     9492.169000       0.250399
     9501.187600       0.253850
     9510.223500       0.257324
     9519.276500       0.260821
     9528.346800       0.264340
     9537.434400       0.267882
     9546.539400       0.271445
     9555.661700       0.275032
     9564.801500       0.278640
     9573.958800       0.282270
     9583.133700       0.285922
     9592.326100       0.289596
     9601.536200       0.293291
     9610.764100       0.297007
     9620.009600       0.300745
     9629.273000       0.304504
     9638.554200       0.308283
     9647.853400       0.312083
     9657.170400       0.315903
     9666.505600       0.319744
     9675.858700       0.323604
     9685.230000       0.327484
     9694.619500       0.331384
     9704.027200       0.335302
     9713.453100       0.339241
     9722.897400       0.343197
     9732.360100       0.347172
     9741.841200       0.351166
     9751.340800       0.355177
     9760.859000       0.359207
     9770.395700       0.363254
     9779.951100       0.367317
     9789.525200       0.371398
     9799.118100       0.375496
     9808.729800       0.379609
     9818.360300       0.383739
     9828.009800       0.387884
     9837.678300       0.392045
     9847.365800       0.396221
     9857.072400       0.400411
     9866.798200       0.404617
     9876.543200       0.408835
     9886.307500       0.413068
     9896.091000       0.417315
     9905.894000       0.421574
     9915.716400       0.425846
     9925.558300       0.430130
     9935.419800       0.434426
     9945.300800       0.438734
     9955.201600       0.443053
     9965.122100       0.447383
     9975.062300       0.451723
     9985.022500       0.456074
     9995.002500       0.460434
    10005.002500       0.464804
    10015.022500       0.469182
    10025.062700       0.473569
    10035.122900       0.477963
    10045.203400       0.482366
    10055.304200       0.486776
    10065.425300       0.491193
    10075.566800       0.495616
    10085.728700       0.500045
    10095.911200       0.504480
    10106.114200       0.508919
    10116.337900       0.513364
    10126.582300       0.517813
    10136.847400       0.522265
    10147.133400       0.526722
    10157.440300       0.531181
    10167.768200       0.535642
    10178.117000       0.540106
    10188.487000       0.544571
    10198.878100       0.549038
    10209.290500       0.553505
    10219.724100       0.557973
    10230.179000       0.562440
    10240.655400       0.566907
    10251.153300       0.571372
    10261.672700       0.575836
    10272.213700       0.580298
    10282.776300       0.584757
    10293.360800       0.589214
    10303.967000       0.593667
    10314.595200       0.598116
    10325.245200       0.602561
    10335.917300       0.607001
    10346.611500       0.611436
    10357.327800       0.615864
    10368.066400       0.620287
    10378.827200       0.624703
    10389.610400       0.629112
    10400.416000       0.633513
    10411.244100       0.637906
    10422.094800       0.642290
    10432.968200       0.646666
    10443.864200       0.651032
    10454.783100       0.655387
    10465.724800       0.659733
    10476.689400       0.664067
    10487.677000       0.668390
    10498.687700       0.672701
    10509.721500       0.677000
    10520.778500       0.681286
    10531.858900       0.685559
    10542.962600       0.689818
    10554.089700       0.694063
    10565.240400       0.698293
    10576.414600       0.702508
    10587.612500       0.706708
    10598.834100       0.710892
    10610.079600       0.715059
    10621.348900       0.719209
    10632.642200       0.723342
    10643.959600       0.727458
    10655.301000       0.731554
    10666.666700       0.735633
    10678.056600       0.739692
    10689.470900       0.743732
    10700.909600       0.747751
    10712.372800       0.751751
    10723.860600       0.755729
    10735.373100       0.759686
    10746.910300       0.763622
    10758.472300       0.767536
    10770.059200       0.771427
    10781.671200       0.775295
    10793.308100       0.779140
    10804.970300       0.782961
    10816.657700       0.786758
    10828.370300       0.790531
    10840.108400       0.794279
    10851.871900       0.798001
    10863.661100       0.801698
    10875.475800       0.805369
    10887.316300       0.809013
    10899.182600       0.812631
    10911.074700       0.816222
    10922.992900       0.819785
    10934.937100       0.823320
    10946.907500       0.826827
    10958.904100       0.830305
    10970.927000       0.833755
    10982.976400       0.837175
    10995.052200       0.840566
    11007.154700       0.843927
    11019.283700       0.847257
    11031.439600       0.850558
    11043.622300       0.853827
    11055.832000       0.857065
    11068.068600       0.860272
    11080.332400       0.863447
    11092.623400       0.866590
    11104.941700       0.869700
    11117.287400       0.872778
    11129.660500       0.875823
    11142.061300       0.878835
    11154.489700       0.881814
    11166.945800       0.884758
    11179.429800       0.887669
    11191.941800       0.890546
    11204.481800       0.893388
    11217.049900       0.896196
    11229.646300       0.898969
    11242.270900       0.901707
    11254.924000       0.904409
    11267.605600       0.907076
    11280.315800       0.909707
    11293.054800       0.912302
    11305.822500       0.914861
    11318.619100       0.917384
    11331.444800       0.919870
    11344.299500       0.922320
    11357.183400       0.924733
    11370.096600       0.927109
    11383.039300       0.929448
    11396.011400       0.931749
    11409.013100       0.934013
    11422.044500       0.936239
    11435.105800       0.938428
    11448.196900       0.940579
    11461.318100       0.942692
    11474.469300       0.944767
    11487.650800       0.946804
    11500.862600       0.948803
    11514.104800       0.950763
    11527.377500       0.952685
    11540.680900       0.954568
    11554.015000       0.956413
    11567.380000       0.958219
    11580.775900       0.959987
    11594.202900       0.961716
    11607.661100       0.963406
    11621.150500       0.965058
    11634.671300       0.966670
    11648.223600       0.968244
    11661.807600       0.969779
    11675.423200       0.971275
    11689.070700       0.972732
    11702.750100       0.974151
    11716.461600       0.975530
    11730.205300       0.976871
    11743.981200       0.978173
    11757.789500       0.979436
    11771.630400       0.980661
    11785.503800       0.981846
    11799.410000       0.982994
    11813.349100       0.984102
    11827.321100       0.985172
    11841.326200       0.986204
    11855.364600       0.987198
    11869.436200       0.988153
    11883.541300       0.989070
    11897.680000       0.989949
    11911.852300       0.990790
    11926.058400       0.991593
    11940.298500       0.992359
    11954.572600       0.993087
    11968.880900       0.993777
    11983.223500       0.994430
    11997.600500       0.995046
    12012.012000       0.995625
    12026.458200       0.996167
    12040.939200       0.996672
    12055.455100       0.997141
    12070.006000       0.997574
    12084.592100       0.997970
    12099.213600       0.998330
    12113.870400       0.998655
    12128.562800       0.998944
    12143.290800       0.999197
    12158.054700       0.999416
    12172.854500       0.999599
    12187.690400       0.999748
    12202.562500       0.999862
    12217.471000       0.999942
    12232.415900       0.999988
    12247.397400       1.000000
    12262.415700       0.999979
    12277.470800       0.999924
    12292.563000       0.999836
    12307.692300       0.999716
    12322.858900       0.999563
    12338.062900       0.999378
    12353.304500       0.999161
    12368.583800       0.998913
    12383.900900       0.998633
    12399.256000       0.998322
    12414.649300       0.997981
    12430.080800       0.997609
    12445.550700       0.997207
    12461.059200       0.996775
    12476.606400       0.996314
    12492.192400       0.995824
    12507.817400       0.995305
    12523.481500       0.994757
    12539.185000       0.994182
    12554.927800       0.993578
    12570.710200       0.992948
    12586.532400       0.992290
    12602.394500       0.991606
    12618.296500       0.990895
    12634.238800       0.990158
    12650.221400       0.989396
    12666.244500       0.988609
    12682.308200       0.987797
    12698.412700       0.986960
    12714.558200       0.986099
    12730.744700       0.985215
    12746.972600       0.984307
    12763.241900       0.983377
    12779.552700       0.982424
    12795.905300       0.981449
    12812.299800       0.980452
    12828.736400       0.979435
    12845.215200       0.978396
    12861.736300       0.977337
    12878.300100       0.976258
    12894.906500       0.975159
    12911.555800       0.974041
    12928.248200       0.972904
    12944.983800       0.971749
    12961.762800       0.970577
    12978.585300       0.969386
    12995.451600       0.968179
    13012.361700       0.966955
    13029.316000       0.965715
    13046.314400       0.964460
    13063.357300       0.963189
    13080.444700       0.961903
    13097.576900       0.960603
    13114.754100       0.959288
    13131.976400       0.957961
    13149.243900       0.956620
    13166.556900       0.955267
    13183.915600       0.953901
    13201.320100       0.952524
    13218.770700       0.951136
    13236.267400       0.949737
    13253.810500       0.948327
    13271.400100       0.946908
    13289.036500       0.945479
    13306.719900       0.944041
    13324.450400       0.942595
    13342.228200       0.941140
    13360.053400       0.939678
    13377.926400       0.938209
    13395.847300       0.936733
    13413.816200       0.935250
    13431.833400       0.933762
    13449.899100       0.932269
    13468.013500       0.930770
    13486.176700       0.929267
    13504.388900       0.927760
    13522.650400       0.926249
    13540.961400       0.924736
    13559.322000       0.923219
    13577.732500       0.921701
    13596.193100       0.920180
    13614.703900       0.918658
    13633.265200       0.917135
    13651.877100       0.915612
    13670.540000       0.914088
    13689.253900       0.912565
    13708.019200       0.911043
    13726.836000       0.909522
    13745.704500       0.908002
    13764.624900       0.906484
    13783.597500       0.904969
    13802.622500       0.903457
    13821.700100       0.901949
    13840.830400       0.900443
    13860.013900       0.898942
    13879.250500       0.897446
    13898.540700       0.895954
    13917.884500       0.894468
    13937.282200       0.892987
    13956.734100       0.891513
    13976.240400       0.890045
    13995.801300       0.888584
    14015.417000       0.887130
    14035.087700       0.885684
    14054.813800       0.884246
    14074.595400       0.882816
    14094.432700       0.881395
    14114.326000       0.879983
    14134.275600       0.878580
    14154.281700       0.877187
    14174.344400       0.875804
    14194.464200       0.874432
    14214.641100       0.873071
    14234.875400       0.871720
    14255.167500       0.870381
    14275.517500       0.869054
    14295.925700       0.867739
    14316.392300       0.866437
    14336.917600       0.865147
    14357.501800       0.863870
    14378.145200       0.862606
    14398.848100       0.861356
    14419.610700       0.860120
    14440.433200       0.858898
    14461.316000       0.857690
    14482.259200       0.856497
    14503.263200       0.855319
    14524.328200       0.854156
    14545.454500       0.853008
    14566.642400       0.851876
    14587.892000       0.850760
    14609.203800       0.849660
    14630.577900       0.848576
    14652.014700       0.847508
    14673.514300       0.846458
    14695.077100       0.845424
    14716.703500       0.844408
    14738.393500       0.843408
    14760.147600       0.842426
    14781.966000       0.841462
    14803.849000       0.840515
    14825.796900       0.839587
    14847.809900       0.838676
    14869.888500       0.837784
    14892.032800       0.836910
    14914.243100       0.836054
    14936.519800       0.835217
    14958.863100       0.834398
    14981.273400       0.833599
    15003.750900       0.832818
    15026.296000       0.832056
    15048.909000       0.831313
    15071.590100       0.830589
    15094.339600       0.829884
    15117.158000       0.829198
    15140.045400       0.828532
    15163.002300       0.827884
    15186.028900       0.827256
    15209.125500       0.826647
    15232.292500       0.826058
    15255.530100       0.825487
    15278.838800       0.824936
    15302.218800       0.824404
    15325.670500       0.823892
    15349.194200       0.823398
    15372.790200       0.822923
    15396.458800       0.822468
    15420.200500       0.822031
    15444.015400       0.821614
    15467.904100       0.821215
    15491.866800       0.820835
    15515.903800       0.820473
    15540.015500       0.820130
    15564.202300       0.819805
    15588.464500       0.819499
    15612.802500       0.819210
    15637.216600       0.818940
    15661.707100       0.818687
    15686.274500       0.818452
    15710.919100       0.818234
    15735.641200       0.818034
    15760.441300       0.817850
    15785.319700       0.817684
    15810.276700       0.817534
    15835.312700       0.817400
    15860.428200       0.817283
    15885.623500       0.817181
    15910.899000       0.817095
    15936.255000       0.817025
    15961.691900       0.816970
    15987.210200       0.816929
    16012.810200       0.816903
    16038.492400       0.816892
    16064.257000       0.816894
    16090.104600       0.816910
    16116.035500       0.816939
    16142.050000       0.816982
    16168.148700       0.817036
    16194.332000       0.817103
    16220.600200       0.817182
    16246.953700       0.817273
    16273.393000       0.817375
    16299.918500       0.817487
    16326.530600       0.817610
    16353.229800       0.817742
    16380.016400       0.817884
    16406.890900       0.818036
    16433.853700       0.818195
    16460.905300       0.818363
    16488.046200       0.818539
    16515.276600       0.818722
    16542.597200       0.818912
    16570.008300       0.819108
    16597.510400       0.819310
    16625.103900       0.819518
    16652.789300       0.819730
    16680.567100       0.819946
    16708.437800       0.820167
    16736.401700       0.820390
    16764.459300       0.820616
    16792.611300       0.820845
    16820.857900       0.821075
    16849.199700       0.821306
    16877.637100       0.821537
    16906.170800       0.821768
    16934.801000       0.821999
    16963.528400       0.822228
    16992.353400       0.822456
    17021.276600       0.822681
    17050.298400       0.822902
    17079.419300       0.823120
    17108.639900       0.823334
    17137.960600       0.823543
    17167.382000       0.823745
    17196.904600       0.823942
    17226.528900       0.824132
    17256.255400       0.824314
    17286.084700       0.824487
    17316.017300       0.824652
    17346.053800       0.824807
    17376.194600       0.824951
    17406.440400       0.825085
    17436.791600       0.825206
    17467.248900       0.825316
    17497.812800       0.825412
    17528.483800       0.825494
    17559.262500       0.825561
    17590.149500       0.825613
    17621.145400       0.825649
    17652.250700       0.825668
    17683.466000       0.825670
