26,   26, MVIRI VIS channel from srf_MET7_2000303_2000304_1801-Release_S10EE_10.dat
Number of data points:
793
Wavenumber (cm-1)   Filter response
     8442.380800       0.000000
     8449.514200       0.000000
     8456.659600       0.000004
     8463.817200       0.000053
     8470.986900       0.000157
     8478.168700       0.000313
     8485.362700       0.000521
     8492.569000       0.000780
     8499.787500       0.001086
     8507.018300       0.001440
     8514.261400       0.001840
     8521.516800       0.002285
     8528.784600       0.002772
     8536.064900       0.003302
     8543.357500       0.003872
     8550.662700       0.004483
     8557.980300       0.005132
     8565.310500       0.005819
     8572.653200       0.006543
     8580.008600       0.007302
     8587.376600       0.008096
     8594.757200       0.008925
     8602.150500       0.009786
     8609.556600       0.010679
     8616.975400       0.011605
     8624.407100       0.012560
     8631.851500       0.013546
     8639.308900       0.014562
     8646.779100       0.015606
     8654.262200       0.016678
     8661.758300       0.017778
     8669.267400       0.018905
     8676.789600       0.020058
     8684.324800       0.021238
     8691.873100       0.022443
     8699.434500       0.023672
     8707.009100       0.024927
     8714.596900       0.026205
     8722.198000       0.027508
     8729.812300       0.028834
     8737.439900       0.030183
     8745.080900       0.031555
     8752.735200       0.032950
     8760.403000       0.034367
     8768.084200       0.035806
     8775.778900       0.037266
     8783.487000       0.038748
     8791.208800       0.040252
     8798.944100       0.041777
     8806.693100       0.043322
     8814.455700       0.044889
     8822.232000       0.046476
     8830.022100       0.048084
     8837.825900       0.049712
     8845.643500       0.051361
     8853.475000       0.053030
     8861.320300       0.054720
     8869.179600       0.056429
     8877.052800       0.058159
     8884.940000       0.059909
     8892.841300       0.061679
     8900.756600       0.063469
     8908.686000       0.065279
     8916.629500       0.067109
     8924.587200       0.068959
     8932.559200       0.070829
     8940.545400       0.072719
     8948.545900       0.074630
     8956.560700       0.076560
     8964.589900       0.078511
     8972.633500       0.080482
     8980.691500       0.082474
     8988.764000       0.084486
     8996.851100       0.086518
     9004.952700       0.088570
     9013.068900       0.090644
     9021.199800       0.092738
     9029.345400       0.094853
     9037.505600       0.096988
     9045.680700       0.099145
     9053.870500       0.101322
     9062.075200       0.103521
     9070.294800       0.105741
     9078.529300       0.107982
     9086.778700       0.110244
     9095.043200       0.112529
     9103.322700       0.114834
     9111.617300       0.117161
     9119.927000       0.119510
     9128.251900       0.121881
     9136.592100       0.124274
     9144.947400       0.126688
     9153.318100       0.129125
     9161.704100       0.131584
     9170.105500       0.134066
     9178.522300       0.136570
     9186.954500       0.139096
     9195.402300       0.141645
     9203.865600       0.144216
     9212.344500       0.146810
     9220.839100       0.149428
     9229.349300       0.152067
     9237.875300       0.154730
     9246.417000       0.157416
     9254.974500       0.160125
     9263.547900       0.162857
     9272.137200       0.165612
     9280.742500       0.168391
     9289.363700       0.171192
     9298.000900       0.174018
     9306.654300       0.176866
     9315.323700       0.179738
     9324.009300       0.182633
     9332.711200       0.185552
     9341.429200       0.188494
     9350.163600       0.191460
     9358.914400       0.194449
     9367.681500       0.197462
     9376.465100       0.200499
     9385.265100       0.203558
     9394.081700       0.206641
     9402.914900       0.209748
     9411.764700       0.212878
     9420.631200       0.216032
     9429.514400       0.219209
     9438.414300       0.222409
     9447.331100       0.225633
     9456.264800       0.228880
     9465.215300       0.232150
     9474.182900       0.235443
     9483.167400       0.238760
     9492.169000       0.242099
     9501.187600       0.245462
     9510.223500       0.248847
     9519.276500       0.252254
     9528.346800       0.255685
     9537.434400       0.259138
     9546.539400       0.262614
     9555.661700       0.266112
     9564.801500       0.269631
     9573.958800       0.273174
     9583.133700       0.276738
     9592.326100       0.280323
     9601.536200       0.283931
     9610.764100       0.287560
     9620.009600       0.291210
     9629.273000       0.294882
     9638.554200       0.298574
     9647.853400       0.302287
     9657.170400       0.306021
     9666.505600       0.309775
     9675.858700       0.313550
     9685.230000       0.317344
     9694.619500       0.321158
     9704.027200       0.324992
     9713.453100       0.328845
     9722.897400       0.332718
     9732.360100       0.336609
     9741.841200       0.340519
     9751.340800       0.344447
     9760.859000       0.348393
     9770.395700       0.352358
     9779.951100       0.356340
     9789.525200       0.360340
     9799.118100       0.364356
     9808.729800       0.368390
     9818.360300       0.372440
     9828.009800       0.376506
     9837.678300       0.380588
     9847.365800       0.384686
     9857.072400       0.388799
     9866.798200       0.392927
     9876.543200       0.397070
     9886.307500       0.401228
     9896.091000       0.405399
     9905.894000       0.409584
     9915.716400       0.413783
     9925.558300       0.417994
     9935.419800       0.422219
     9945.300800       0.426456
     9955.201600       0.430704
     9965.122100       0.434965
     9975.062300       0.439236
     9985.022500       0.443519
     9995.002500       0.447812
    10005.002500       0.452116
    10015.022500       0.456429
    10025.062700       0.460751
    10035.122900       0.465083
    10045.203400       0.469423
    10055.304200       0.473771
    10065.425300       0.478128
    10075.566800       0.482491
    10085.728700       0.486862
    10095.911200       0.491240
    10106.114200       0.495623
    10116.337900       0.500013
    10126.582300       0.504407
    10136.847400       0.508807
    10147.133400       0.513212
    10157.440300       0.517620
    10167.768200       0.522032
    10178.117000       0.526447
    10188.487000       0.530865
    10198.878100       0.535286
    10209.290500       0.539709
    10219.724100       0.544133
    10230.179000       0.548558
    10240.655400       0.552984
    10251.153300       0.557410
    10261.672700       0.561835
    10272.213700       0.566260
    10282.776300       0.570684
    10293.360800       0.575106
    10303.967000       0.579526
    10314.595200       0.583944
    10325.245200       0.588359
    10335.917300       0.592770
    10346.611500       0.597177
    10357.327800       0.601580
    10368.066400       0.605978
    10378.827200       0.610371
    10389.610400       0.614759
    10400.416000       0.619140
    10411.244100       0.623514
    10422.094800       0.627882
    10432.968200       0.632242
    10443.864200       0.636594
    10454.783100       0.640937
    10465.724800       0.645272
    10476.689400       0.649597
    10487.677000       0.653912
    10498.687700       0.658217
    10509.721500       0.662512
    10520.778500       0.666795
    10531.858900       0.671066
    10542.962600       0.675326
    10554.089700       0.679573
    10565.240400       0.683807
    10576.414600       0.688027
    10587.612500       0.692234
    10598.834100       0.696426
    10610.079600       0.700604
    10621.348900       0.704766
    10632.642200       0.708913
    10643.959600       0.713044
    10655.301000       0.717158
    10666.666700       0.721255
    10678.056600       0.725335
    10689.470900       0.729397
    10700.909600       0.733441
    10712.372800       0.737466
    10723.860600       0.741472
    10735.373100       0.745458
    10746.910300       0.749425
    10758.472300       0.753371
    10770.059200       0.757297
    10781.671200       0.761201
    10793.308100       0.765084
    10804.970300       0.768945
    10816.657700       0.772784
    10828.370300       0.776600
    10840.108400       0.780392
    10851.871900       0.784162
    10863.661100       0.787907
    10875.475800       0.791628
    10887.316300       0.795325
    10899.182600       0.798996
    10911.074700       0.802643
    10922.992900       0.806263
    10934.937100       0.809857
    10946.907500       0.813425
    10958.904100       0.816966
    10970.927000       0.820480
    10982.976400       0.823967
    10995.052200       0.827426
    11007.154700       0.830856
    11019.283700       0.834258
    11031.439600       0.837632
    11043.622300       0.840976
    11055.832000       0.844291
    11068.068600       0.847576
    11080.332400       0.850831
    11092.623400       0.854055
    11104.941700       0.857249
    11117.287400       0.860413
    11129.660500       0.863545
    11142.061300       0.866645
    11154.489700       0.869714
    11166.945800       0.872751
    11179.429800       0.875755
    11191.941800       0.878727
    11204.481800       0.881667
    11217.049900       0.884573
    11229.646300       0.887446
    11242.270900       0.890285
    11254.924000       0.893091
    11267.605600       0.895863
    11280.315800       0.898601
    11293.054800       0.901305
    11305.822500       0.903973
    11318.619100       0.906608
    11331.444800       0.909207
    11344.299500       0.911771
    11357.183400       0.914300
    11370.096600       0.916794
    11383.039300       0.919251
    11396.011400       0.921673
    11409.013100       0.924059
    11422.044500       0.926409
    11435.105800       0.928723
    11448.196900       0.931001
    11461.318100       0.933241
    11474.469300       0.935446
    11487.650800       0.937613
    11500.862600       0.939744
    11514.104800       0.941838
    11527.377500       0.943894
    11540.680900       0.945914
    11554.015000       0.947897
    11567.380000       0.949842
    11580.775900       0.951750
    11594.202900       0.953620
    11607.661100       0.955453
    11621.150500       0.957248
    11634.671300       0.959006
    11648.223600       0.960726
    11661.807600       0.962409
    11675.423200       0.964054
    11689.070700       0.965661
    11702.750100       0.967231
    11716.461600       0.968763
    11730.205300       0.970257
    11743.981200       0.971714
    11757.789500       0.973132
    11771.630400       0.974514
    11785.503800       0.975857
    11799.410000       0.977164
    11813.349100       0.978432
    11827.321100       0.979663
    11841.326200       0.980857
    11855.364600       0.982013
    11869.436200       0.983132
    11883.541300       0.984214
    11897.680000       0.985259
    11911.852300       0.986267
    11926.058400       0.987237
    11940.298500       0.988171
    11954.572600       0.989068
    11968.880900       0.989929
    11983.223500       0.990753
    11997.600500       0.991540
    12012.012000       0.992292
    12026.458200       0.993007
    12040.939200       0.993686
    12055.455100       0.994330
    12070.006000       0.994938
    12084.592100       0.995510
    12099.213600       0.996047
    12113.870400       0.996549
    12128.562800       0.997016
    12143.290800       0.997448
    12158.054700       0.997846
    12172.854500       0.998209
    12187.690400       0.998538
    12202.562500       0.998834
    12217.471000       0.999095
    12232.415900       0.999323
    12247.397400       0.999518
    12262.415700       0.999679
    12277.470800       0.999808
    12292.563000       0.999904
    12307.692300       0.999968
    12322.858900       1.000000
    12338.062900       1.000000
    12353.304500       0.999969
    12368.583800       0.999906
    12383.900900       0.999812
    12399.256000       0.999688
    12414.649300       0.999533
    12430.080800       0.999348
    12445.550700       0.999134
    12461.059200       0.998890
    12476.606400       0.998617
    12492.192400       0.998314
    12507.817400       0.997984
    12523.481500       0.997625
    12539.185000       0.997238
    12554.927800       0.996824
    12570.710200       0.996382
    12586.532400       0.995914
    12602.394500       0.995419
    12618.296500       0.994897
    12634.238800       0.994350
    12650.221400       0.993778
    12666.244500       0.993180
    12682.308200       0.992558
    12698.412700       0.991911
    12714.558200       0.991240
    12730.744700       0.990546
    12746.972600       0.989828
    12763.241900       0.989088
    12779.552700       0.988325
    12795.905300       0.987540
    12812.299800       0.986733
    12828.736400       0.985905
    12845.215200       0.985056
    12861.736300       0.984186
    12878.300100       0.983297
    12894.906500       0.982388
    12911.555800       0.981459
    12928.248200       0.980512
    12944.983800       0.979547
    12961.762800       0.978563
    12978.585300       0.977562
    12995.451600       0.976543
    13012.361700       0.975508
    13029.316000       0.974457
    13046.314400       0.973390
    13063.357300       0.972307
    13080.444700       0.971210
    13097.576900       0.970097
    13114.754100       0.968971
    13131.976400       0.967831
    13149.243900       0.966678
    13166.556900       0.965512
    13183.915600       0.964334
    13201.320100       0.963143
    13218.770700       0.961942
    13236.267400       0.960729
    13253.810500       0.959506
    13271.400100       0.958273
    13289.036500       0.957030
    13306.719900       0.955778
    13324.450400       0.954517
    13342.228200       0.953248
    13360.053400       0.951971
    13377.926400       0.950686
    13395.847300       0.949395
    13413.816200       0.948097
    13431.833400       0.946793
    13449.899100       0.945484
    13468.013500       0.944169
    13486.176700       0.942850
    13504.388900       0.941526
    13522.650400       0.940199
    13540.961400       0.938868
    13559.322000       0.937535
    13577.732500       0.936199
    13596.193100       0.934860
    13614.703900       0.933521
    13633.265200       0.932180
    13651.877100       0.930839
    13670.540000       0.929497
    13689.253900       0.928156
    13708.019200       0.926815
    13726.836000       0.925475
    13745.704500       0.924137
    13764.624900       0.922801
    13783.597500       0.921467
    13802.622500       0.920136
    13821.700100       0.918808
    13840.830400       0.917483
    13860.013900       0.916163
    13879.250500       0.914847
    13898.540700       0.913536
    13917.884500       0.912230
    13937.282200       0.910930
    13956.734100       0.909636
    13976.240400       0.908348
    13995.801300       0.907068
    14015.417000       0.905794
    14035.087700       0.904529
    14054.813800       0.903271
    14074.595400       0.902021
    14094.432700       0.900781
    14114.326000       0.899549
    14134.275600       0.898327
    14154.281700       0.897115
    14174.344400       0.895913
    14194.464200       0.894722
    14214.641100       0.893542
    14234.875400       0.892373
    14255.167500       0.891215
    14275.517500       0.890070
    14295.925700       0.888937
    14316.392300       0.887816
    14336.917600       0.886708
    14357.501800       0.885614
    14378.145200       0.884533
    14398.848100       0.883466
    14419.610700       0.882413
    14440.433200       0.881375
    14461.316000       0.880351
    14482.259200       0.879342
    14503.263200       0.878349
    14524.328200       0.877371
    14545.454500       0.876408
    14566.642400       0.875462
    14587.892000       0.874532
    14609.203800       0.873619
    14630.577900       0.872722
    14652.014700       0.871843
    14673.514300       0.870980
    14695.077100       0.870135
    14716.703500       0.869308
    14738.393500       0.868498
    14760.147600       0.867707
    14781.966000       0.866934
    14803.849000       0.866179
    14825.796900       0.865442
    14847.809900       0.864724
    14869.888500       0.864025
    14892.032800       0.863346
    14914.243100       0.862685
    14936.519800       0.862043
    14958.863100       0.861421
    14981.273400       0.860819
    15003.750900       0.860236
    15026.296000       0.859672
    15048.909000       0.859129
    15071.590100       0.858605
    15094.339600       0.858101
    15117.158000       0.857618
    15140.045400       0.857154
    15163.002300       0.856711
    15186.028900       0.856287
    15209.125500       0.855884
    15232.292500       0.855501
    15255.530100       0.855138
    15278.838800       0.854796
    15302.218800       0.854473
    15325.670500       0.854171
    15349.194200       0.853889
    15372.790200       0.853627
    15396.458800       0.853385
    15420.200500       0.853163
    15444.015400       0.852961
    15467.904100       0.852779
    15491.866800       0.852617
    15515.903800       0.852475
    15540.015500       0.852352
    15564.202300       0.852248
    15588.464500       0.852164
    15612.802500       0.852100
    15637.216600       0.852054
    15661.707100       0.852027
    15686.274500       0.852020
    15710.919100       0.852030
    15735.641200       0.852060
    15760.441300       0.852107
    15785.319700       0.852173
    15810.276700       0.852256
    15835.312700       0.852357
    15860.428200       0.852476
    15885.623500       0.852611
    15910.899000       0.852764
    15936.255000       0.852933
    15961.691900       0.853119
    15987.210200       0.853321
    16012.810200       0.853538
    16038.492400       0.853771
    16064.257000       0.854020
    16090.104600       0.854283
    16116.035500       0.854561
    16142.050000       0.854853
    16168.148700       0.855159
    16194.332000       0.855478
    16220.600200       0.855811
    16246.953700       0.856156
    16273.393000       0.856514
    16299.918500       0.856884
    16326.530600       0.857265
    16353.229800       0.857658
    16380.016400       0.858061
    16406.890900       0.858474
    16433.853700       0.858898
    16460.905300       0.859330
    16488.046200       0.859772
    16515.276600       0.860222
    16542.597200       0.860680
    16570.008300       0.861146
    16597.510400       0.861618
    16625.103900       0.862097
    16652.789300       0.862582
    16680.567100       0.863072
    16708.437800       0.863567
    16736.401700       0.864066
    16764.459300       0.864569
    16792.611300       0.865075
    16820.857900       0.865583
    16849.199700       0.866094
    16877.637100       0.866605
    16906.170800       0.867118
    16934.801000       0.867631
    16963.528400       0.868143
    16992.353400       0.868654
    17021.276600       0.869163
    17050.298400       0.869670
    17079.419300       0.870174
    17108.639900       0.870674
    17137.960600       0.871169
    17167.382000       0.871659
    17196.904600       0.872144
    17226.528900       0.872622
    17256.255400       0.873093
    17286.084700       0.873556
    17316.017300       0.874010
    17346.053800       0.874454
    17376.194600       0.874889
    17406.440400       0.875313
    17436.791600       0.875725
    17467.248900       0.876124
    17497.812800       0.876511
    17528.483800       0.876883
    17559.262500       0.877241
    17590.149500       0.877583
    17621.145400       0.877909
    17652.250700       0.878218
    17683.466000       0.878509
