45,   45, MVIRI VIS channel from srf_MET5_1996303_1996304_1801-Release_S10EL_10.dat
Number of data points:
806
Wavenumber (cm-1)   Filter response
     8350.730700       0.000000
     8357.710000       0.000000
     8364.701000       0.000000
     8371.703600       0.000002
     8378.718100       0.000004
     8385.744200       0.000009
     8392.782200       0.000016
     8399.832000       0.000027
     8406.893700       0.000041
     8413.967200       0.000059
     8421.052600       0.000082
     8428.150000       0.000110
     8435.259400       0.000143
     8442.380800       0.000183
     8449.514200       0.000229
     8456.659600       0.000281
     8463.817200       0.000341
     8470.986900       0.000409
     8478.168700       0.000484
     8485.362700       0.000568
     8492.569000       0.000660
     8499.787500       0.000761
     8507.018300       0.000872
     8514.261400       0.000992
     8521.516800       0.001121
     8528.784600       0.001261
     8536.064900       0.001412
     8543.357500       0.001573
     8550.662700       0.001745
     8557.980300       0.001929
     8565.310500       0.002123
     8572.653200       0.002330
     8580.008600       0.002548
     8587.376600       0.002779
     8594.757200       0.003022
     8602.150500       0.003277
     8609.556600       0.003545
     8616.975400       0.003827
     8624.407100       0.004121
     8631.851500       0.004429
     8639.308900       0.004750
     8646.779100       0.005085
     8654.262200       0.005434
     8661.758300       0.005796
     8669.267400       0.006173
     8676.789600       0.006565
     8684.324800       0.006971
     8691.873100       0.007391
     8699.434500       0.007826
     8707.009100       0.008277
     8714.596900       0.008742
     8722.198000       0.009223
     8729.812300       0.009719
     8737.439900       0.010230
     8745.080900       0.010758
     8752.735200       0.011300
     8760.403000       0.011859
     8768.084200       0.012434
     8775.778900       0.013025
     8783.487000       0.013633
     8791.208800       0.014256
     8798.944100       0.014896
     8806.693100       0.015553
     8814.455700       0.016227
     8822.232000       0.016917
     8830.022100       0.017624
     8837.825900       0.018349
     8845.643500       0.019090
     8853.475000       0.019849
     8861.320300       0.020626
     8869.179600       0.021420
     8877.052800       0.022231
     8884.940000       0.023060
     8892.841300       0.023907
     8900.756600       0.024772
     8908.686000       0.025656
     8916.629500       0.026557
     8924.587200       0.027476
     8932.559200       0.028414
     8940.545400       0.029371
     8948.545900       0.030346
     8956.560700       0.031339
     8964.589900       0.032352
     8972.633500       0.033383
     8980.691500       0.034433
     8988.764000       0.035503
     8996.851100       0.036591
     9004.952700       0.037699
     9013.068900       0.038827
     9021.199800       0.039973
     9029.345400       0.041140
     9037.505600       0.042326
     9045.680700       0.043532
     9053.870500       0.044758
     9062.075200       0.046003
     9070.294800       0.047269
     9078.529300       0.048555
     9086.778700       0.049862
     9095.043200       0.051189
     9103.322700       0.052536
     9111.617300       0.053904
     9119.927000       0.055292
     9128.251900       0.056701
     9136.592100       0.058131
     9144.947400       0.059582
     9153.318100       0.061054
     9161.704100       0.062548
     9170.105500       0.064062
     9178.522300       0.065598
     9186.954500       0.067155
     9195.402300       0.068734
     9203.865600       0.070334
     9212.344500       0.071956
     9220.839100       0.073599
     9229.349300       0.075265
     9237.875300       0.076952
     9246.417000       0.078661
     9254.974500       0.080393
     9263.547900       0.082146
     9272.137200       0.083922
     9280.742500       0.085720
     9289.363700       0.087540
     9298.000900       0.089384
     9306.654300       0.091249
     9315.323700       0.093137
     9324.009300       0.095047
     9332.711200       0.096981
     9341.429200       0.098937
     9350.163600       0.100916
     9358.914400       0.102918
     9367.681500       0.104942
     9376.465100       0.106990
     9385.265100       0.109061
     9394.081700       0.111155
     9402.914900       0.113272
     9411.764700       0.115412
     9420.631200       0.117576
     9429.514400       0.119763
     9438.414300       0.121973
     9447.331100       0.124206
     9456.264800       0.126464
     9465.215300       0.128744
     9474.182900       0.131048
     9483.167400       0.133375
     9492.169000       0.135726
     9501.187600       0.138100
     9510.223500       0.140498
     9519.276500       0.142920
     9528.346800       0.145365
     9537.434400       0.147834
     9546.539400       0.150326
     9555.661700       0.152842
     9564.801500       0.155381
     9573.958800       0.157944
     9583.133700       0.160531
     9592.326100       0.163141
     9601.536200       0.165775
     9610.764100       0.168432
     9620.009600       0.171113
     9629.273000       0.173817
     9638.554200       0.176545
     9647.853400       0.179296
     9657.170400       0.182070
     9666.505600       0.184869
     9675.858700       0.187690
     9685.230000       0.190534
     9694.619500       0.193402
     9704.027200       0.196293
     9713.453100       0.199207
     9722.897400       0.202145
     9732.360100       0.205104
     9741.841200       0.208088
     9751.340800       0.211093
     9760.859000       0.214122
     9770.395700       0.217174
     9779.951100       0.220248
     9789.525200       0.223344
     9799.118100       0.226463
     9808.729800       0.229604
     9818.360300       0.232768
     9828.009800       0.235953
     9837.678300       0.239161
     9847.365800       0.242391
     9857.072400       0.245642
     9866.798200       0.248915
     9876.543200       0.252210
     9886.307500       0.255526
     9896.091000       0.258863
     9905.894000       0.262222
     9915.716400       0.265601
     9925.558300       0.269001
     9935.419800       0.272423
     9945.300800       0.275864
     9955.201600       0.279326
     9965.122100       0.282808
     9975.062300       0.286310
     9985.022500       0.289833
     9995.002500       0.293375
    10005.002500       0.296936
    10015.022500       0.300517
    10025.062700       0.304117
    10035.122900       0.307736
    10045.203400       0.311374
    10055.304200       0.315030
    10065.425300       0.318705
    10075.566800       0.322397
    10085.728700       0.326108
    10095.911200       0.329837
    10106.114200       0.333583
    10116.337900       0.337346
    10126.582300       0.341127
    10136.847400       0.344924
    10147.133400       0.348738
    10157.440300       0.352568
    10167.768200       0.356414
    10178.117000       0.360276
    10188.487000       0.364154
    10198.878100       0.368047
    10209.290500       0.371955
    10219.724100       0.375878
    10230.179000       0.379816
    10240.655400       0.383768
    10251.153300       0.387733
    10261.672700       0.391713
    10272.213700       0.395706
    10282.776300       0.399712
    10293.360800       0.403731
    10303.967000       0.407763
    10314.595200       0.411806
    10325.245200       0.415862
    10335.917300       0.419930
    10346.611500       0.424009
    10357.327800       0.428098
    10368.066400       0.432199
    10378.827200       0.436310
    10389.610400       0.440431
    10400.416000       0.444562
    10411.244100       0.448702
    10422.094800       0.452852
    10432.968200       0.457010
    10443.864200       0.461177
    10454.783100       0.465351
    10465.724800       0.469534
    10476.689400       0.473724
    10487.677000       0.477921
    10498.687700       0.482125
    10509.721500       0.486335
    10520.778500       0.490551
    10531.858900       0.494772
    10542.962600       0.498999
    10554.089700       0.503231
    10565.240400       0.507468
    10576.414600       0.511709
    10587.612500       0.515953
    10598.834100       0.520201
    10610.079600       0.524452
    10621.348900       0.528706
    10632.642200       0.532962
    10643.959600       0.537220
    10655.301000       0.541480
    10666.666700       0.545741
    10678.056600       0.550002
    10689.470900       0.554264
    10700.909600       0.558527
    10712.372800       0.562788
    10723.860600       0.567049
    10735.373100       0.571309
    10746.910300       0.575568
    10758.472300       0.579824
    10770.059200       0.584078
    10781.671200       0.588329
    10793.308100       0.592577
    10804.970300       0.596822
    10816.657700       0.601063
    10828.370300       0.605300
    10840.108400       0.609531
    10851.871900       0.613758
    10863.661100       0.617979
    10875.475800       0.622195
    10887.316300       0.626403
    10899.182600       0.630606
    10911.074700       0.634801
    10922.992900       0.638989
    10934.937100       0.643168
    10946.907500       0.647340
    10958.904100       0.651502
    10970.927000       0.655656
    10982.976400       0.659800
    10995.052200       0.663934
    11007.154700       0.668058
    11019.283700       0.672170
    11031.439600       0.676273
    11043.622300       0.680363
    11055.832000       0.684441
    11068.068600       0.688507
    11080.332400       0.692561
    11092.623400       0.696601
    11104.941700       0.700628
    11117.287400       0.704641
    11129.660500       0.708640
    11142.061300       0.712624
    11154.489700       0.716593
    11166.945800       0.720546
    11179.429800       0.724484
    11191.941800       0.728405
    11204.481800       0.732310
    11217.049900       0.736198
    11229.646300       0.740068
    11242.270900       0.743921
    11254.924000       0.747755
    11267.605600       0.751572
    11280.315800       0.755369
    11293.054800       0.759147
    11305.822500       0.762905
    11318.619100       0.766644
    11331.444800       0.770362
    11344.299500       0.774060
    11357.183400       0.777736
    11370.096600       0.781392
    11383.039300       0.785025
    11396.011400       0.788636
    11409.013100       0.792225
    11422.044500       0.795792
    11435.105800       0.799335
    11448.196900       0.802855
    11461.318100       0.806351
    11474.469300       0.809822
    11487.650800       0.813270
    11500.862600       0.816693
    11514.104800       0.820091
    11527.377500       0.823463
    11540.680900       0.826810
    11554.015000       0.830131
    11567.380000       0.833425
    11580.775900       0.836693
    11594.202900       0.839934
    11607.661100       0.843148
    11621.150500       0.846335
    11634.671300       0.849493
    11648.223600       0.852624
    11661.807600       0.855727
    11675.423200       0.858801
    11689.070700       0.861846
    11702.750100       0.864862
    11716.461600       0.867849
    11730.205300       0.870806
    11743.981200       0.873733
    11757.789500       0.876631
    11771.630400       0.879498
    11785.503800       0.882334
    11799.410000       0.885140
    11813.349100       0.887915
    11827.321100       0.890659
    11841.326200       0.893371
    11855.364600       0.896051
    11869.436200       0.898700
    11883.541300       0.901317
    11897.680000       0.903901
    11911.852300       0.906453
    11926.058400       0.908973
    11940.298500       0.911460
    11954.572600       0.913914
    11968.880900       0.916334
    11983.223500       0.918722
    11997.600500       0.921076
    12012.012000       0.923397
    12026.458200       0.925683
    12040.939200       0.927936
    12055.455100       0.930155
    12070.006000       0.932340
    12084.592100       0.934491
    12099.213600       0.936608
    12113.870400       0.938689
    12128.562800       0.940737
    12143.290800       0.942750
    12158.054700       0.944728
    12172.854500       0.946671
    12187.690400       0.948579
    12202.562500       0.950453
    12217.471000       0.952291
    12232.415900       0.954094
    12247.397400       0.955862
    12262.415700       0.957595
    12277.470800       0.959292
    12292.563000       0.960955
    12307.692300       0.962581
    12322.858900       0.964173
    12338.062900       0.965729
    12353.304500       0.967250
    12368.583800       0.968735
    12383.900900       0.970185
    12399.256000       0.971600
    12414.649300       0.972979
    12430.080800       0.974323
    12445.550700       0.975631
    12461.059200       0.976904
    12476.606400       0.978142
    12492.192400       0.979345
    12507.817400       0.980512
    12523.481500       0.981644
    12539.185000       0.982742
    12554.927800       0.983804
    12570.710200       0.984831
    12586.532400       0.985823
    12602.394500       0.986781
    12618.296500       0.987703
    12634.238800       0.988592
    12650.221400       0.989445
    12666.244500       0.990265
    12682.308200       0.991050
    12698.412700       0.991800
    12714.558200       0.992517
    12730.744700       0.993200
    12746.972600       0.993849
    12763.241900       0.994465
    12779.552700       0.995047
    12795.905300       0.995595
    12812.299800       0.996111
    12828.736400       0.996593
    12845.215200       0.997043
    12861.736300       0.997460
    12878.300100       0.997844
    12894.906500       0.998197
    12911.555800       0.998517
    12928.248200       0.998805
    12944.983800       0.999061
    12961.762800       0.999287
    12978.585300       0.999480
    12995.451600       0.999643
    13012.361700       0.999775
    13029.316000       0.999877
    13046.314400       0.999948
    13063.357300       0.999989
    13080.444700       1.000000
    13097.576900       0.999982
    13114.754100       0.999934
    13131.976400       0.999857
    13149.243900       0.999751
    13166.556900       0.999617
    13183.915600       0.999455
    13201.320100       0.999264
    13218.770700       0.999046
    13236.267400       0.998801
    13253.810500       0.998528
    13271.400100       0.998229
    13289.036500       0.997903
    13306.719900       0.997551
    13324.450400       0.997173
    13342.228200       0.996770
    13360.053400       0.996341
    13377.926400       0.995888
    13395.847300       0.995410
    13413.816200       0.994907
    13431.833400       0.994381
    13449.899100       0.993831
    13468.013500       0.993258
    13486.176700       0.992662
    13504.388900       0.992044
    13522.650400       0.991403
    13540.961400       0.990741
    13559.322000       0.990057
    13577.732500       0.989353
    13596.193100       0.988627
    13614.703900       0.987881
    13633.265200       0.987116
    13651.877100       0.986330
    13670.540000       0.985526
    13689.253900       0.984703
    13708.019200       0.983861
    13726.836000       0.983001
    13745.704500       0.982124
    13764.624900       0.981229
    13783.597500       0.980318
    13802.622500       0.979390
    13821.700100       0.978446
    13840.830400       0.977487
    13860.013900       0.976512
    13879.250500       0.975522
    13898.540700       0.974518
    13917.884500       0.973500
    13937.282200       0.972469
    13956.734100       0.971424
    13976.240400       0.970366
    13995.801300       0.969296
    14015.417000       0.968215
    14035.087700       0.967121
    14054.813800       0.966017
    14074.595400       0.964901
    14094.432700       0.963776
    14114.326000       0.962640
    14134.275600       0.961495
    14154.281700       0.960342
    14174.344400       0.959179
    14194.464200       0.958008
    14214.641100       0.956830
    14234.875400       0.955644
    14255.167500       0.954451
    14275.517500       0.953252
    14295.925700       0.952047
    14316.392300       0.950836
    14336.917600       0.949620
    14357.501800       0.948398
    14378.145200       0.947173
    14398.848100       0.945943
    14419.610700       0.944710
    14440.433200       0.943474
    14461.316000       0.942234
    14482.259200       0.940993
    14503.263200       0.939749
    14524.328200       0.938504
    14545.454500       0.937258
    14566.642400       0.936011
    14587.892000       0.934763
    14609.203800       0.933516
    14630.577900       0.932269
    14652.014700       0.931023
    14673.514300       0.929778
    14695.077100       0.928534
    14716.703500       0.927293
    14738.393500       0.926054
    14760.147600       0.924817
    14781.966000       0.923584
    14803.849000       0.922354
    14825.796900       0.921128
    14847.809900       0.919906
    14869.888500       0.918688
    14892.032800       0.917476
    14914.243100       0.916269
    14936.519800       0.915067
    14958.863100       0.913871
    14981.273400       0.912682
    15003.750900       0.911499
    15026.296000       0.910323
    15048.909000       0.909154
    15071.590100       0.907993
    15094.339600       0.906840
    15117.158000       0.905695
    15140.045400       0.904559
    15163.002300       0.903431
    15186.028900       0.902312
    15209.125500       0.901203
    15232.292500       0.900103
    15255.530100       0.899014
    15278.838800       0.897934
    15302.218800       0.896865
    15325.670500       0.895807
    15349.194200       0.894760
    15372.790200       0.893724
    15396.458800       0.892699
    15420.200500       0.891686
    15444.015400       0.890685
    15467.904100       0.889697
    15491.866800       0.888720
    15515.903800       0.887756
    15540.015500       0.886805
    15564.202300       0.885867
    15588.464500       0.884942
    15612.802500       0.884030
    15637.216600       0.883132
    15661.707100       0.882248
    15686.274500       0.881377
    15710.919100       0.880520
    15735.641200       0.879677
    15760.441300       0.878849
    15785.319700       0.878034
    15810.276700       0.877235
    15835.312700       0.876449
    15860.428200       0.875679
    15885.623500       0.874923
    15910.899000       0.874182
    15936.255000       0.873456
    15961.691900       0.872745
    15987.210200       0.872049
    16012.810200       0.871368
    16038.492400       0.870702
    16064.257000       0.870051
    16090.104600       0.869415
    16116.035500       0.868795
    16142.050000       0.868189
    16168.148700       0.867599
    16194.332000       0.867024
    16220.600200       0.866464
    16246.953700       0.865919
    16273.393000       0.865389
    16299.918500       0.864874
    16326.530600       0.864374
    16353.229800       0.863888
    16380.016400       0.863418
    16406.890900       0.862962
    16433.853700       0.862520
    16460.905300       0.862093
    16488.046200       0.861680
    16515.276600       0.861282
    16542.597200       0.860897
    16570.008300       0.860526
    16597.510400       0.860169
    16625.103900       0.859826
    16652.789300       0.859496
    16680.567100       0.859178
    16708.437800       0.858874
    16736.401700       0.858583
    16764.459300       0.858303
    16792.611300       0.858037
    16820.857900       0.857782
    16849.199700       0.857539
    16877.637100       0.857307
    16906.170800       0.857086
    16934.801000       0.856877
    16963.528400       0.856677
    16992.353400       0.856488
    17021.276600       0.856309
    17050.298400       0.856140
    17079.419300       0.855980
    17108.639900       0.855829
    17137.960600       0.855686
    17167.382000       0.855551
    17196.904600       0.855425
    17226.528900       0.855305
    17256.255400       0.855193
    17286.084700       0.855087
