18,   18, MVIRI VIS channel from srf_MET5_1993168_1993169_1801-Release_S10EL_10.dat
Number of data points:
806
Wavenumber (cm-1)   Filter response
     8350.730700       0.000000
     8357.710000       0.000000
     8364.701000       0.000000
     8371.703600       0.000001
     8378.718100       0.000004
     8385.744200       0.000009
     8392.782200       0.000016
     8399.832000       0.000026
     8406.893700       0.000040
     8413.967200       0.000058
     8421.052600       0.000081
     8428.150000       0.000108
     8435.259400       0.000141
     8442.380800       0.000180
     8449.514200       0.000225
     8456.659600       0.000277
     8463.817200       0.000335
     8470.986900       0.000402
     8478.168700       0.000476
     8485.362700       0.000558
     8492.569000       0.000649
     8499.787500       0.000748
     8507.018300       0.000857
     8514.261400       0.000975
     8521.516800       0.001103
     8528.784600       0.001240
     8536.064900       0.001388
     8543.357500       0.001547
     8550.662700       0.001716
     8557.980300       0.001896
     8565.310500       0.002088
     8572.653200       0.002291
     8580.008600       0.002506
     8587.376600       0.002733
     8594.757200       0.002972
     8602.150500       0.003223
     8609.556600       0.003487
     8616.975400       0.003764
     8624.407100       0.004053
     8631.851500       0.004356
     8639.308900       0.004672
     8646.779100       0.005002
     8654.262200       0.005345
     8661.758300       0.005702
     8669.267400       0.006073
     8676.789600       0.006458
     8684.324800       0.006858
     8691.873100       0.007272
     8699.434500       0.007700
     8707.009100       0.008144
     8714.596900       0.008602
     8722.198000       0.009075
     8729.812300       0.009563
     8737.439900       0.010067
     8745.080900       0.010586
     8752.735200       0.011121
     8760.403000       0.011671
     8768.084200       0.012237
     8775.778900       0.012819
     8783.487000       0.013417
     8791.208800       0.014031
     8798.944100       0.014662
     8806.693100       0.015308
     8814.455700       0.015972
     8822.232000       0.016652
     8830.022100       0.017349
     8837.825900       0.018062
     8845.643500       0.018793
     8853.475000       0.019541
     8861.320300       0.020306
     8869.179600       0.021088
     8877.052800       0.021887
     8884.940000       0.022704
     8892.841300       0.023539
     8900.756600       0.024391
     8908.686000       0.025262
     8916.629500       0.026150
     8924.587200       0.027056
     8932.559200       0.027981
     8940.545400       0.028923
     8948.545900       0.029884
     8956.560700       0.030864
     8964.589900       0.031862
     8972.633500       0.032878
     8980.691500       0.033914
     8988.764000       0.034968
     8996.851100       0.036042
     9004.952700       0.037134
     9013.068900       0.038246
     9021.199800       0.039377
     9029.345400       0.040527
     9037.505600       0.041696
     9045.680700       0.042886
     9053.870500       0.044095
     9062.075200       0.045324
     9070.294800       0.046572
     9078.529300       0.047841
     9086.778700       0.049129
     9095.043200       0.050438
     9103.322700       0.051767
     9111.617300       0.053117
     9119.927000       0.054487
     9128.251900       0.055877
     9136.592100       0.057288
     9144.947400       0.058720
     9153.318100       0.060173
     9161.704100       0.061646
     9170.105500       0.063141
     9178.522300       0.064657
     9186.954500       0.066194
     9195.402300       0.067752
     9203.865600       0.069331
     9212.344500       0.070932
     9220.839100       0.072555
     9229.349300       0.074199
     9237.875300       0.075865
     9246.417000       0.077553
     9254.974500       0.079262
     9263.547900       0.080994
     9272.137200       0.082747
     9280.742500       0.084523
     9289.363700       0.086321
     9298.000900       0.088141
     9306.654300       0.089983
     9315.323700       0.091848
     9324.009300       0.093735
     9332.711200       0.095645
     9341.429200       0.097577
     9350.163600       0.099532
     9358.914400       0.101510
     9367.681500       0.103511
     9376.465100       0.105534
     9385.265100       0.107580
     9394.081700       0.109650
     9402.914900       0.111742
     9411.764700       0.113857
     9420.631200       0.115995
     9429.514400       0.118157
     9438.414300       0.120341
     9447.331100       0.122549
     9456.264800       0.124780
     9465.215300       0.127035
     9474.182900       0.129312
     9483.167400       0.131613
     9492.169000       0.133937
     9501.187600       0.136285
     9510.223500       0.138656
     9519.276500       0.141051
     9528.346800       0.143469
     9537.434400       0.145911
     9546.539400       0.148375
     9555.661700       0.150864
     9564.801500       0.153376
     9573.958800       0.155911
     9583.133700       0.158470
     9592.326100       0.161052
     9601.536200       0.163658
     9610.764100       0.166287
     9620.009600       0.168940
     9629.273000       0.171616
     9638.554200       0.174315
     9647.853400       0.177038
     9657.170400       0.179783
     9666.505600       0.182553
     9675.858700       0.185345
     9685.230000       0.188161
     9694.619500       0.191000
     9704.027200       0.193862
     9713.453100       0.196747
     9722.897400       0.199655
     9732.360100       0.202586
     9741.841200       0.205540
     9751.340800       0.208516
     9760.859000       0.211516
     9770.395700       0.214538
     9779.951100       0.217582
     9789.525200       0.220649
     9799.118100       0.223739
     9808.729800       0.226850
     9818.360300       0.229984
     9828.009800       0.233140
     9837.678300       0.236319
     9847.365800       0.239519
     9857.072400       0.242740
     9866.798200       0.245984
     9876.543200       0.249249
     9886.307500       0.252535
     9896.091000       0.255843
     9905.894000       0.259172
     9915.716400       0.262522
     9925.558300       0.265892
     9935.419800       0.269284
     9945.300800       0.272696
     9955.201600       0.276129
     9965.122100       0.279582
     9975.062300       0.283054
     9985.022500       0.286547
     9995.002500       0.290060
    10005.002500       0.293593
    10015.022500       0.297144
    10025.062700       0.300715
    10035.122900       0.304305
    10045.203400       0.307914
    10055.304200       0.311542
    10065.425300       0.315188
    10075.566800       0.318852
    10085.728700       0.322535
    10095.911200       0.326235
    10106.114200       0.329953
    10116.337900       0.333688
    10126.582300       0.337440
    10136.847400       0.341210
    10147.133400       0.344996
    10157.440300       0.348799
    10167.768200       0.352618
    10178.117000       0.356453
    10188.487000       0.360303
    10198.878100       0.364170
    10209.290500       0.368051
    10219.724100       0.371947
    10230.179000       0.375859
    10240.655400       0.379784
    10251.153300       0.383724
    10261.672700       0.387678
    10272.213700       0.391645
    10282.776300       0.395626
    10293.360800       0.399620
    10303.967000       0.403627
    10314.595200       0.407646
    10325.245200       0.411677
    10335.917300       0.415721
    10346.611500       0.419775
    10357.327800       0.423841
    10368.066400       0.427919
    10378.827200       0.432006
    10389.610400       0.436105
    10400.416000       0.440213
    10411.244100       0.444331
    10422.094800       0.448458
    10432.968200       0.452594
    10443.864200       0.456740
    10454.783100       0.460893
    10465.724800       0.465055
    10476.689400       0.469224
    10487.677000       0.473401
    10498.687700       0.477585
    10509.721500       0.481775
    10520.778500       0.485972
    10531.858900       0.490174
    10542.962600       0.494383
    10554.089700       0.498597
    10565.240400       0.502815
    10576.414600       0.507038
    10587.612500       0.511265
    10598.834100       0.515497
    10610.079600       0.519731
    10621.348900       0.523969
    10632.642200       0.528209
    10643.959600       0.532452
    10655.301000       0.536697
    10666.666700       0.540943
    10678.056600       0.545190
    10689.470900       0.549439
    10700.909600       0.553688
    10712.372800       0.557936
    10723.860600       0.562185
    10735.373100       0.566433
    10746.910300       0.570679
    10758.472300       0.574924
    10770.059200       0.579168
    10781.671200       0.583409
    10793.308100       0.587647
    10804.970300       0.591882
    10816.657700       0.596114
    10828.370300       0.600342
    10840.108400       0.604566
    10851.871900       0.608785
    10863.661100       0.612999
    10875.475800       0.617207
    10887.316300       0.621410
    10899.182600       0.625606
    10911.074700       0.629796
    10922.992900       0.633979
    10934.937100       0.638155
    10946.907500       0.642322
    10958.904100       0.646481
    10970.927000       0.650632
    10982.976400       0.654774
    10995.052200       0.658906
    11007.154700       0.663028
    11019.283700       0.667141
    11031.439600       0.671242
    11043.622300       0.675333
    11055.832000       0.679412
    11068.068600       0.683480
    11080.332400       0.687535
    11092.623400       0.691578
    11104.941700       0.695607
    11117.287400       0.699623
    11129.660500       0.703626
    11142.061300       0.707614
    11154.489700       0.711588
    11166.945800       0.715547
    11179.429800       0.719491
    11191.941800       0.723419
    11204.481800       0.727331
    11217.049900       0.731226
    11229.646300       0.735105
    11242.270900       0.738966
    11254.924000       0.742810
    11267.605600       0.746636
    11280.315800       0.750444
    11293.054800       0.754233
    11305.822500       0.758003
    11318.619100       0.761754
    11331.444800       0.765484
    11344.299500       0.769195
    11357.183400       0.772885
    11370.096600       0.776555
    11383.039300       0.780203
    11396.011400       0.783830
    11409.013100       0.787435
    11422.044500       0.791018
    11435.105800       0.794578
    11448.196900       0.798115
    11461.318100       0.801629
    11474.469300       0.805120
    11487.650800       0.808587
    11500.862600       0.812029
    11514.104800       0.815448
    11527.377500       0.818841
    11540.680900       0.822209
    11554.015000       0.825552
    11567.380000       0.828869
    11580.775900       0.832160
    11594.202900       0.835425
    11607.661100       0.838663
    11621.150500       0.841874
    11634.671300       0.845058
    11648.223600       0.848215
    11661.807600       0.851344
    11675.423200       0.854445
    11689.070700       0.857517
    11702.750100       0.860561
    11716.461600       0.863577
    11730.205300       0.866563
    11743.981200       0.869520
    11757.789500       0.872447
    11771.630400       0.875345
    11785.503800       0.878213
    11799.410000       0.881050
    11813.349100       0.883857
    11827.321100       0.886633
    11841.326200       0.889379
    11855.364600       0.892093
    11869.436200       0.894776
    11883.541300       0.897427
    11897.680000       0.900047
    11911.852300       0.902635
    11926.058400       0.905190
    11940.298500       0.907714
    11954.572600       0.910205
    11968.880900       0.912663
    11983.223500       0.915089
    11997.600500       0.917481
    12012.012000       0.919841
    12026.458200       0.922167
    12040.939200       0.924460
    12055.455100       0.926720
    12070.006000       0.928946
    12084.592100       0.931138
    12099.213600       0.933296
    12113.870400       0.935420
    12128.562800       0.937510
    12143.290800       0.939566
    12158.054700       0.941588
    12172.854500       0.943575
    12187.690400       0.945527
    12202.562500       0.947446
    12217.471000       0.949329
    12232.415900       0.951178
    12247.397400       0.952992
    12262.415700       0.954771
    12277.470800       0.956515
    12292.563000       0.958225
    12307.692300       0.959899
    12322.858900       0.961539
    12338.062900       0.963143
    12353.304500       0.964713
    12368.583800       0.966247
    12383.900900       0.967746
    12399.256000       0.969211
    12414.649300       0.970640
    12430.080800       0.972034
    12445.550700       0.973393
    12461.059200       0.974718
    12476.606400       0.976007
    12492.192400       0.977261
    12507.817400       0.978481
    12523.481500       0.979665
    12539.185000       0.980815
    12554.927800       0.981930
    12570.710200       0.983011
    12586.532400       0.984056
    12602.394500       0.985068
    12618.296500       0.986045
    12634.238800       0.986987
    12650.221400       0.987895
    12666.244500       0.988770
    12682.308200       0.989610
    12698.412700       0.990416
    12714.558200       0.991189
    12730.744700       0.991927
    12746.972600       0.992632
    12763.241900       0.993304
    12779.552700       0.993943
    12795.905300       0.994548
    12812.299800       0.995121
    12828.736400       0.995660
    12845.215200       0.996167
    12861.736300       0.996642
    12878.300100       0.997084
    12894.906500       0.997495
    12911.555800       0.997873
    12928.248200       0.998220
    12944.983800       0.998535
    12961.762800       0.998818
    12978.585300       0.999071
    12995.451600       0.999293
    13012.361700       0.999484
    13029.316000       0.999645
    13046.314400       0.999775
    13063.357300       0.999876
    13080.444700       0.999947
    13097.576900       0.999988
    13114.754100       1.000000
    13131.976400       0.999983
    13149.243900       0.999938
    13166.556900       0.999864
    13183.915600       0.999762
    13201.320100       0.999632
    13218.770700       0.999474
    13236.267400       0.999289
    13253.810500       0.999077
    13271.400100       0.998839
    13289.036500       0.998573
    13306.719900       0.998282
    13324.450400       0.997965
    13342.228200       0.997623
    13360.053400       0.997255
    13377.926400       0.996863
    13395.847300       0.996446
    13413.816200       0.996004
    13431.833400       0.995539
    13449.899100       0.995051
    13468.013500       0.994539
    13486.176700       0.994004
    13504.388900       0.993447
    13522.650400       0.992868
    13540.961400       0.992267
    13559.322000       0.991645
    13577.732500       0.991001
    13596.193100       0.990337
    13614.703900       0.989652
    13633.265200       0.988948
    13651.877100       0.988224
    13670.540000       0.987481
    13689.253900       0.986719
    13708.019200       0.985938
    13726.836000       0.985140
    13745.704500       0.984324
    13764.624900       0.983490
    13783.597500       0.982640
    13802.622500       0.981773
    13821.700100       0.980890
    13840.830400       0.979992
    13860.013900       0.979078
    13879.250500       0.978150
    13898.540700       0.977206
    13917.884500       0.976249
    13937.282200       0.975278
    13956.734100       0.974294
    13976.240400       0.973298
    13995.801300       0.972288
    14015.417000       0.971267
    14035.087700       0.970234
    14054.813800       0.969190
    14074.595400       0.968135
    14094.432700       0.967070
    14114.326000       0.965995
    14134.275600       0.964911
    14154.281700       0.963817
    14174.344400       0.962715
    14194.464200       0.961604
    14214.641100       0.960486
    14234.875400       0.959360
    14255.167500       0.958227
    14275.517500       0.957088
    14295.925700       0.955942
    14316.392300       0.954791
    14336.917600       0.953634
    14357.501800       0.952473
    14378.145200       0.951307
    14398.848100       0.950137
    14419.610700       0.948963
    14440.433200       0.947786
    14461.316000       0.946607
    14482.259200       0.945424
    14503.263200       0.944240
    14524.328200       0.943054
    14545.454500       0.941867
    14566.642400       0.940679
    14587.892000       0.939491
    14609.203800       0.938302
    14630.577900       0.937114
    14652.014700       0.935927
    14673.514300       0.934741
    14695.077100       0.933556
    14716.703500       0.932374
    14738.393500       0.931194
    14760.147600       0.930016
    14781.966000       0.928841
    14803.849000       0.927670
    14825.796900       0.926503
    14847.809900       0.925340
    14869.888500       0.924181
    14892.032800       0.923027
    14914.243100       0.921879
    14936.519800       0.920736
    14958.863100       0.919599
    14981.273400       0.918468
    15003.750900       0.917344
    15026.296000       0.916227
    15048.909000       0.915117
    15071.590100       0.914014
    15094.339600       0.912920
    15117.158000       0.911833
    15140.045400       0.910756
    15163.002300       0.909687
    15186.028900       0.908627
    15209.125500       0.907577
    15232.292500       0.906536
    15255.530100       0.905505
    15278.838800       0.904485
    15302.218800       0.903475
    15325.670500       0.902476
    15349.194200       0.901488
    15372.790200       0.900511
    15396.458800       0.899546
    15420.200500       0.898592
    15444.015400       0.897650
    15467.904100       0.896721
    15491.866800       0.895804
    15515.903800       0.894900
    15540.015500       0.894009
    15564.202300       0.893131
    15588.464500       0.892266
    15612.802500       0.891414
    15637.216600       0.890576
    15661.707100       0.889752
    15686.274500       0.888941
    15710.919100       0.888145
    15735.641200       0.887363
    15760.441300       0.886595
    15785.319700       0.885842
    15810.276700       0.885103
    15835.312700       0.884379
    15860.428200       0.883670
    15885.623500       0.882976
    15910.899000       0.882296
    15936.255000       0.881632
    15961.691900       0.880983
    15987.210200       0.880349
    16012.810200       0.879730
    16038.492400       0.879127
    16064.257000       0.878539
    16090.104600       0.877966
    16116.035500       0.877409
    16142.050000       0.876867
    16168.148700       0.876340
    16194.332000       0.875828
    16220.600200       0.875332
    16246.953700       0.874851
    16273.393000       0.874386
    16299.918500       0.873935
    16326.530600       0.873500
    16353.229800       0.873079
    16380.016400       0.872674
    16406.890900       0.872283
    16433.853700       0.871907
    16460.905300       0.871546
    16488.046200       0.871200
    16515.276600       0.870867
    16542.597200       0.870549
    16570.008300       0.870245
    16597.510400       0.869955
    16625.103900       0.869679
    16652.789300       0.869416
    16680.567100       0.869167
    16708.437800       0.868930
    16736.401700       0.868707
    16764.459300       0.868497
    16792.611300       0.868298
    16820.857900       0.868112
    16849.199700       0.867939
    16877.637100       0.867776
    16906.170800       0.867625
    16934.801000       0.867486
    16963.528400       0.867357
    16992.353400       0.867238
    17021.276600       0.867130
    17050.298400       0.867031
    17079.419300       0.866942
    17108.639900       0.866862
    17137.960600       0.866791
    17167.382000       0.866729
    17196.904600       0.866674
    17226.528900       0.866627
    17256.255400       0.866587
    17286.084700       0.866554
