5,   5, MVIRI VIS channel from srf_MET7_1998078_1998079_1801-Release_S10EE_10.dat
Number of data points:
793
Wavenumber (cm-1)   Filter response
     8442.380800       0.000000
     8449.514200       0.000000
     8456.659600       0.000004
     8463.817200       0.000051
     8470.986900       0.000152
     8478.168700       0.000304
     8485.362700       0.000507
     8492.569000       0.000758
     8499.787500       0.001056
     8507.018300       0.001400
     8514.261400       0.001789
     8521.516800       0.002221
     8528.784600       0.002695
     8536.064900       0.003210
     8543.357500       0.003765
     8550.662700       0.004359
     8557.980300       0.004991
     8565.310500       0.005659
     8572.653200       0.006363
     8580.008600       0.007101
     8587.376600       0.007874
     8594.757200       0.008680
     8602.150500       0.009518
     8609.556600       0.010388
     8616.975400       0.011288
     8624.407100       0.012219
     8631.851500       0.013179
     8639.308900       0.014167
     8646.779100       0.015184
     8654.262200       0.016228
     8661.758300       0.017299
     8669.267400       0.018397
     8676.789600       0.019520
     8684.324800       0.020669
     8691.873100       0.021843
     8699.434500       0.023041
     8707.009100       0.024263
     8714.596900       0.025509
     8722.198000       0.026778
     8729.812300       0.028071
     8737.439900       0.029386
     8745.080900       0.030723
     8752.735200       0.032082
     8760.403000       0.033464
     8768.084200       0.034867
     8775.778900       0.036291
     8783.487000       0.037736
     8791.208800       0.039203
     8798.944100       0.040690
     8806.693100       0.042198
     8814.455700       0.043726
     8822.232000       0.045275
     8830.022100       0.046843
     8837.825900       0.048432
     8845.643500       0.050042
     8853.475000       0.051671
     8861.320300       0.053319
     8869.179600       0.054988
     8877.052800       0.056677
     8884.940000       0.058385
     8892.841300       0.060114
     8900.756600       0.061861
     8908.686000       0.063629
     8916.629500       0.065417
     8924.587200       0.067224
     8932.559200       0.069051
     8940.545400       0.070898
     8948.545900       0.072764
     8956.560700       0.074651
     8964.589900       0.076557
     8972.633500       0.078483
     8980.691500       0.080430
     8988.764000       0.082397
     8996.851100       0.084383
     9004.952700       0.086390
     9013.068900       0.088418
     9021.199800       0.090466
     9029.345400       0.092534
     9037.505600       0.094623
     9045.680700       0.096732
     9053.870500       0.098862
     9062.075200       0.101013
     9070.294800       0.103186
     9078.529300       0.105379
     9086.778700       0.107593
     9095.043200       0.109828
     9103.322700       0.112085
     9111.617300       0.114363
     9119.927000       0.116663
     9128.251900       0.118984
     9136.592100       0.121327
     9144.947400       0.123692
     9153.318100       0.126079
     9161.704100       0.128487
     9170.105500       0.130918
     9178.522300       0.133371
     9186.954500       0.135846
     9195.402300       0.138344
     9203.865600       0.140864
     9212.344500       0.143407
     9220.839100       0.145972
     9229.349300       0.148560
     9237.875300       0.151170
     9246.417000       0.153804
     9254.974500       0.156460
     9263.547900       0.159139
     9272.137200       0.161841
     9280.742500       0.164567
     9289.363700       0.167315
     9298.000900       0.170087
     9306.654300       0.172882
     9315.323700       0.175700
     9324.009300       0.178541
     9332.711200       0.181406
     9341.429200       0.184294
     9350.163600       0.187205
     9358.914400       0.190140
     9367.681500       0.193098
     9376.465100       0.196080
     9385.265100       0.199084
     9394.081700       0.202113
     9402.914900       0.205164
     9411.764700       0.208239
     9420.631200       0.211338
     9429.514400       0.214459
     9438.414300       0.217604
     9447.331100       0.220772
     9456.264800       0.223964
     9465.215300       0.227179
     9474.182900       0.230416
     9483.167400       0.233677
     9492.169000       0.236960
     9501.187600       0.240267
     9510.223500       0.243597
     9519.276500       0.246949
     9528.346800       0.250324
     9537.434400       0.253721
     9546.539400       0.257141
     9555.661700       0.260583
     9564.801500       0.264047
     9573.958800       0.267534
     9583.133700       0.271042
     9592.326100       0.274572
     9601.536200       0.278124
     9610.764100       0.281698
     9620.009600       0.285293
     9629.273000       0.288909
     9638.554200       0.292546
     9647.853400       0.296205
     9657.170400       0.299883
     9666.505600       0.303583
     9675.858700       0.307303
     9685.230000       0.311043
     9694.619500       0.314803
     9704.027200       0.318583
     9713.453100       0.322382
     9722.897400       0.326201
     9732.360100       0.330039
     9741.841200       0.333895
     9751.340800       0.337770
     9760.859000       0.341664
     9770.395700       0.345577
     9779.951100       0.349506
     9789.525200       0.353454
     9799.118100       0.357419
     9808.729800       0.361401
     9818.360300       0.365400
     9828.009800       0.369415
     9837.678300       0.373447
     9847.365800       0.377495
     9857.072400       0.381558
     9866.798200       0.385637
     9876.543200       0.389731
     9886.307500       0.393840
     9896.091000       0.397963
     9905.894000       0.402100
     9915.716400       0.406251
     9925.558300       0.410416
     9935.419800       0.414594
     9945.300800       0.418785
     9955.201600       0.422987
     9965.122100       0.427203
     9975.062300       0.431430
     9985.022500       0.435668
     9995.002500       0.439918
    10005.002500       0.444178
    10015.022500       0.448449
    10025.062700       0.452729
    10035.122900       0.457019
    10045.203400       0.461318
    10055.304200       0.465627
    10065.425300       0.469943
    10075.566800       0.474268
    10085.728700       0.478600
    10095.911200       0.482939
    10106.114200       0.487286
    10116.337900       0.491638
    10126.582300       0.495997
    10136.847400       0.500362
    10147.133400       0.504731
    10157.440300       0.509106
    10167.768200       0.513485
    10178.117000       0.517867
    10188.487000       0.522254
    10198.878100       0.526643
    10209.290500       0.531035
    10219.724100       0.535430
    10230.179000       0.539826
    10240.655400       0.544224
    10251.153300       0.548622
    10261.672700       0.553021
    10272.213700       0.557420
    10282.776300       0.561819
    10293.360800       0.566217
    10303.967000       0.570614
    10314.595200       0.575009
    10325.245200       0.579402
    10335.917300       0.583793
    10346.611500       0.588180
    10357.327800       0.592564
    10368.066400       0.596944
    10378.827200       0.601320
    10389.610400       0.605691
    10400.416000       0.610057
    10411.244100       0.614417
    10422.094800       0.618770
    10432.968200       0.623118
    10443.864200       0.627458
    10454.783100       0.631790
    10465.724800       0.636115
    10476.689400       0.640431
    10487.677000       0.644739
    10498.687700       0.649037
    10509.721500       0.653325
    10520.778500       0.657603
    10531.858900       0.661871
    10542.962600       0.666128
    10554.089700       0.670372
    10565.240400       0.674605
    10576.414600       0.678826
    10587.612500       0.683033
    10598.834100       0.687228
    10610.079600       0.691409
    10621.348900       0.695575
    10632.642200       0.699727
    10643.959600       0.703864
    10655.301000       0.707985
    10666.666700       0.712091
    10678.056600       0.716180
    10689.470900       0.720252
    10700.909600       0.724307
    10712.372800       0.728345
    10723.860600       0.732365
    10735.373100       0.736366
    10746.910300       0.740348
    10758.472300       0.744312
    10770.059200       0.748255
    10781.671200       0.752178
    10793.308100       0.756081
    10804.970300       0.759964
    10816.657700       0.763825
    10828.370300       0.767664
    10840.108400       0.771481
    10851.871900       0.775276
    10863.661100       0.779048
    10875.475800       0.782797
    10887.316300       0.786523
    10899.182600       0.790224
    10911.074700       0.793901
    10922.992900       0.797554
    10934.937100       0.801181
    10946.907500       0.804784
    10958.904100       0.808360
    10970.927000       0.811911
    10982.976400       0.815435
    10995.052200       0.818932
    11007.154700       0.822403
    11019.283700       0.825846
    11031.439600       0.829261
    11043.622300       0.832649
    11055.832000       0.836007
    11068.068600       0.839338
    11080.332400       0.842639
    11092.623400       0.845911
    11104.941700       0.849154
    11117.287400       0.852367
    11129.660500       0.855549
    11142.061300       0.858702
    11154.489700       0.861823
    11166.945800       0.864914
    11179.429800       0.867973
    11191.941800       0.871001
    11204.481800       0.873997
    11217.049900       0.876962
    11229.646300       0.879894
    11242.270900       0.882793
    11254.924000       0.885660
    11267.605600       0.888494
    11280.315800       0.891295
    11293.054800       0.894063
    11305.822500       0.896797
    11318.619100       0.899497
    11331.444800       0.902164
    11344.299500       0.904796
    11357.183400       0.907394
    11370.096600       0.909957
    11383.039300       0.912486
    11396.011400       0.914980
    11409.013100       0.917439
    11422.044500       0.919863
    11435.105800       0.922252
    11448.196900       0.924605
    11461.318100       0.926922
    11474.469300       0.929204
    11487.650800       0.931450
    11500.862600       0.933660
    11514.104800       0.935834
    11527.377500       0.937972
    11540.680900       0.940074
    11554.015000       0.942139
    11567.380000       0.944168
    11580.775900       0.946160
    11594.202900       0.948116
    11607.661100       0.950035
    11621.150500       0.951918
    11634.671300       0.953763
    11648.223600       0.955572
    11661.807600       0.957344
    11675.423200       0.959080
    11689.070700       0.960778
    11702.750100       0.962439
    11716.461600       0.964064
    11730.205300       0.965651
    11743.981200       0.967202
    11757.789500       0.968715
    11771.630400       0.970192
    11785.503800       0.971632
    11799.410000       0.973035
    11813.349100       0.974401
    11827.321100       0.975730
    11841.326200       0.977023
    11855.364600       0.978279
    11869.436200       0.979498
    11883.541300       0.980680
    11897.680000       0.981826
    11911.852300       0.982936
    11926.058400       0.984009
    11940.298500       0.985046
    11954.572600       0.986047
    11968.880900       0.987012
    11983.223500       0.987941
    11997.600500       0.988834
    12012.012000       0.989691
    12026.458200       0.990513
    12040.939200       0.991299
    12055.455100       0.992050
    12070.006000       0.992766
    12084.592100       0.993447
    12099.213600       0.994092
    12113.870400       0.994704
    12128.562800       0.995280
    12143.290800       0.995823
    12158.054700       0.996331
    12172.854500       0.996805
    12187.690400       0.997246
    12202.562500       0.997653
    12217.471000       0.998027
    12232.415900       0.998367
    12247.397400       0.998675
    12262.415700       0.998949
    12277.470800       0.999192
    12292.563000       0.999402
    12307.692300       0.999580
    12322.858900       0.999727
    12338.062900       0.999842
    12353.304500       0.999925
    12368.583800       0.999978
    12383.900900       1.000000
    12399.256000       0.999992
    12414.649300       0.999953
    12430.080800       0.999885
    12445.550700       0.999787
    12461.059200       0.999660
    12476.606400       0.999503
    12492.192400       0.999318
    12507.817400       0.999105
    12523.481500       0.998864
    12539.185000       0.998595
    12554.927800       0.998298
    12570.710200       0.997975
    12586.532400       0.997625
    12602.394500       0.997248
    12618.296500       0.996845
    12634.238800       0.996417
    12650.221400       0.995963
    12666.244500       0.995484
    12682.308200       0.994981
    12698.412700       0.994453
    12714.558200       0.993901
    12730.744700       0.993326
    12746.972600       0.992728
    12763.241900       0.992106
    12779.552700       0.991463
    12795.905300       0.990797
    12812.299800       0.990109
    12828.736400       0.989401
    12845.215200       0.988671
    12861.736300       0.987921
    12878.300100       0.987151
    12894.906500       0.986362
    12911.555800       0.985553
    12928.248200       0.984725
    12944.983800       0.983879
    12961.762800       0.983014
    12978.585300       0.982133
    12995.451600       0.981234
    13012.361700       0.980318
    13029.316000       0.979386
    13046.314400       0.978438
    13063.357300       0.977474
    13080.444700       0.976496
    13097.576900       0.975503
    13114.754100       0.974495
    13131.976400       0.973474
    13149.243900       0.972440
    13166.556900       0.971393
    13183.915600       0.970333
    13201.320100       0.969262
    13218.770700       0.968179
    13236.267400       0.967085
    13253.810500       0.965980
    13271.400100       0.964865
    13289.036500       0.963741
    13306.719900       0.962607
    13324.450400       0.961464
    13342.228200       0.960313
    13360.053400       0.959154
    13377.926400       0.957987
    13395.847300       0.956814
    13413.816200       0.955634
    13431.833400       0.954447
    13449.899100       0.953255
    13468.013500       0.952058
    13486.176700       0.950856
    13504.388900       0.949650
    13522.650400       0.948440
    13540.961400       0.947227
    13559.322000       0.946010
    13577.732500       0.944791
    13596.193100       0.943570
    13614.703900       0.942348
    13633.265200       0.941124
    13651.877100       0.939899
    13670.540000       0.938674
    13689.253900       0.937449
    13708.019200       0.936225
    13726.836000       0.935002
    13745.704500       0.933781
    13764.624900       0.932561
    13783.597500       0.931343
    13802.622500       0.930129
    13821.700100       0.928917
    13840.830400       0.927709
    13860.013900       0.926505
    13879.250500       0.925306
    13898.540700       0.924111
    13917.884500       0.922922
    13937.282200       0.921738
    13956.734100       0.920561
    13976.240400       0.919390
    13995.801300       0.918226
    14015.417000       0.917069
    14035.087700       0.915920
    14054.813800       0.914779
    14074.595400       0.913646
    14094.432700       0.912522
    14114.326000       0.911408
    14134.275600       0.910303
    14154.281700       0.909208
    14174.344400       0.908124
    14194.464200       0.907050
    14214.641100       0.905987
    14234.875400       0.904936
    14255.167500       0.903896
    14275.517500       0.902869
    14295.925700       0.901853
    14316.392300       0.900851
    14336.917600       0.899862
    14357.501800       0.898886
    14378.145200       0.897924
    14398.848100       0.896976
    14419.610700       0.896043
    14440.433200       0.895124
    14461.316000       0.894220
    14482.259200       0.893331
    14503.263200       0.892458
    14524.328200       0.891601
    14545.454500       0.890760
    14566.642400       0.889935
    14587.892000       0.889127
    14609.203800       0.888335
    14630.577900       0.887561
    14652.014700       0.886804
    14673.514300       0.886064
    14695.077100       0.885343
    14716.703500       0.884639
    14738.393500       0.883954
    14760.147600       0.883287
    14781.966000       0.882639
    14803.849000       0.882009
    14825.796900       0.881398
    14847.809900       0.880807
    14869.888500       0.880235
    14892.032800       0.879682
    14914.243100       0.879149
    14936.519800       0.878636
    14958.863100       0.878143
    14981.273400       0.877670
    15003.750900       0.877216
    15026.296000       0.876784
    15048.909000       0.876371
    15071.590100       0.875979
    15094.339600       0.875608
    15117.158000       0.875257
    15140.045400       0.874926
    15163.002300       0.874617
    15186.028900       0.874328
    15209.125500       0.874060
    15232.292500       0.873813
    15255.530100       0.873587
    15278.838800       0.873382
    15302.218800       0.873197
    15325.670500       0.873034
    15349.194200       0.872891
    15372.790200       0.872770
    15396.458800       0.872669
    15420.200500       0.872588
    15444.015400       0.872529
    15467.904100       0.872490
    15491.866800       0.872472
    15515.903800       0.872474
    15540.015500       0.872496
    15564.202300       0.872539
    15588.464500       0.872602
    15612.802500       0.872686
    15637.216600       0.872789
    15661.707100       0.872911
    15686.274500       0.873054
    15710.919100       0.873216
    15735.641200       0.873397
    15760.441300       0.873598
    15785.319700       0.873817
    15810.276700       0.874055
    15835.312700       0.874312
    15860.428200       0.874586
    15885.623500       0.874879
    15910.899000       0.875190
    15936.255000       0.875518
    15961.691900       0.875864
    15987.210200       0.876226
    16012.810200       0.876606
    16038.492400       0.877001
    16064.257000       0.877413
    16090.104600       0.877841
    16116.035500       0.878284
    16142.050000       0.878742
    16168.148700       0.879215
    16194.332000       0.879703
    16220.600200       0.880204
    16246.953700       0.880719
    16273.393000       0.881248
    16299.918500       0.881789
    16326.530600       0.882343
    16353.229800       0.882909
    16380.016400       0.883486
    16406.890900       0.884075
    16433.853700       0.884674
    16460.905300       0.885283
    16488.046200       0.885903
    16515.276600       0.886531
    16542.597200       0.887169
    16570.008300       0.887814
    16597.510400       0.888468
    16625.103900       0.889128
    16652.789300       0.889796
    16680.567100       0.890469
    16708.437800       0.891148
    16736.401700       0.891832
    16764.459300       0.892521
    16792.611300       0.893213
    16820.857900       0.893908
    16849.199700       0.894607
    16877.637100       0.895307
    16906.170800       0.896009
    16934.801000       0.896711
    16963.528400       0.897414
    16992.353400       0.898116
    17021.276600       0.898817
    17050.298400       0.899515
    17079.419300       0.900212
    17108.639900       0.900905
    17137.960600       0.901594
    17167.382000       0.902279
    17196.904600       0.902958
    17226.528900       0.903631
    17256.255400       0.904297
    17286.084700       0.904956
    17316.017300       0.905606
    17346.053800       0.906247
    17376.194600       0.906878
    17406.440400       0.907499
    17436.791600       0.908108
    17467.248900       0.908705
    17497.812800       0.909289
    17528.483800       0.909859
    17559.262500       0.910414
    17590.149500       0.910954
    17621.145400       0.911478
    17652.250700       0.911984
    17683.466000       0.912472
