2,   channel 2 SRF from file SRF_SIRS-D_Ch02.asc received July 2019 from Carsten Stanfuss
Number of data points:
281
Wavenumber (cm-1)   Filter response
      743.000000       0.000000
      743.050000       0.000000
      743.100000       0.000000
      743.150000       0.000000
      743.200000       0.000000
      743.250000       0.000000
      743.300000       0.000000
      743.350000       0.000000
      743.400000       0.000000
      743.450000       0.000000
      743.500000       0.000000
      743.550000       0.000000
      743.600000       0.000000
      743.650000       0.000000
      743.700000       0.000000
      743.750000       0.000000
      743.800000       0.000000
      743.850000       0.000000
      743.900000       0.000000
      743.950000       0.000000
      744.000000       0.000000
      744.050000       0.000000
      744.100000       0.003000
      744.150000       0.013000
      744.200000       0.023000
      744.250000       0.033000
      744.300000       0.043000
      744.350000       0.053000
      744.400000       0.063000
      744.450000       0.073000
      744.500000       0.083000
      744.550000       0.093000
      744.600000       0.103000
      744.650000       0.113000
      744.700000       0.123000
      744.750000       0.133000
      744.800000       0.143000
      744.850000       0.153000
      744.900000       0.163000
      744.950000       0.173000
      745.000000       0.183000
      745.050000       0.193000
      745.100000       0.203000
      745.150000       0.213000
      745.200000       0.223000
      745.250000       0.233000
      745.300000       0.243000
      745.350000       0.253000
      745.400000       0.263000
      745.450000       0.273000
      745.500000       0.283000
      745.550000       0.293000
      745.600000       0.303000
      745.650000       0.313000
      745.700000       0.323000
      745.750000       0.333000
      745.800000       0.343000
      745.850000       0.353000
      745.900000       0.363000
      745.950000       0.373000
      746.000000       0.383000
      746.050000       0.393000
      746.100000       0.403000
      746.150000       0.413000
      746.200000       0.423000
      746.250000       0.433000
      746.300000       0.443000
      746.350000       0.453000
      746.400000       0.463000
      746.450000       0.473000
      746.500000       0.483000
      746.550000       0.493000
      746.600000       0.503000
      746.650000       0.513000
      746.700000       0.523000
      746.750000       0.533000
      746.800000       0.543000
      746.850000       0.553000
      746.900000       0.563000
      746.950000       0.573000
      747.000000       0.583000
      747.050000       0.593000
      747.100000       0.603000
      747.150000       0.613000
      747.200000       0.623000
      747.250000       0.633000
      747.300000       0.643000
      747.350000       0.653000
      747.400000       0.663000
      747.450000       0.673000
      747.500000       0.683000
      747.550000       0.693000
      747.600000       0.703000
      747.650000       0.713000
      747.700000       0.723000
      747.750000       0.733000
      747.800000       0.743000
      747.850000       0.753000
      747.900000       0.763000
      747.950000       0.773000
      748.000000       0.783000
      748.050000       0.793000
      748.100000       0.803000
      748.150000       0.813000
      748.200000       0.823000
      748.250000       0.833000
      748.300000       0.843000
      748.350000       0.853000
      748.400000       0.863000
      748.450000       0.873000
      748.500000       0.883000
      748.550000       0.893000
      748.600000       0.903000
      748.650000       0.913000
      748.700000       0.923000
      748.750000       0.933000
      748.800000       0.943000
      748.850000       0.953000
      748.900000       0.963000
      748.950000       0.973000
      749.000000       0.983000
      749.050000       0.993000
      749.100000       1.000000
      749.150000       1.000000
      749.200000       1.000000
      749.250000       1.000000
      749.300000       1.000000
      749.350000       1.000000
      749.400000       1.000000
      749.450000       1.000000
      749.500000       1.000000
      749.550000       1.000000
      749.600000       1.000000
      749.650000       1.000000
      749.700000       1.000000
      749.750000       1.000000
      749.800000       1.000000
      749.850000       1.000000
      749.900000       1.000000
      749.950000       1.000000
      750.000000       1.000000
      750.050000       1.000000
      750.100000       1.000000
      750.150000       1.000000
      750.200000       1.000000
      750.250000       1.000000
      750.300000       1.000000
      750.350000       1.000000
      750.400000       1.000000
      750.450000       1.000000
      750.500000       1.000000
      750.550000       1.000000
      750.600000       1.000000
      750.650000       1.000000
      750.700000       1.000000
      750.750000       1.000000
      750.800000       1.000000
      750.850000       1.000000
      750.900000       1.000000
      750.950000       0.993000
      751.000000       0.983000
      751.050000       0.973000
      751.100000       0.963000
      751.150000       0.953000
      751.200000       0.943000
      751.250000       0.933000
      751.300000       0.923000
      751.350000       0.913000
      751.400000       0.903000
      751.450000       0.893000
      751.500000       0.883000
      751.550000       0.873000
      751.600000       0.863000
      751.650000       0.853000
      751.700000       0.843000
      751.750000       0.833000
      751.800000       0.823000
      751.850000       0.813000
      751.900000       0.803000
      751.950000       0.793000
      752.000000       0.783000
      752.050000       0.773000
      752.100000       0.763000
      752.150000       0.753000
      752.200000       0.743000
      752.250000       0.733000
      752.300000       0.723000
      752.350000       0.713000
      752.400000       0.703000
      752.450000       0.693000
      752.500000       0.683000
      752.550000       0.673000
      752.600000       0.663000
      752.650000       0.653000
      752.700000       0.643000
      752.750000       0.633000
      752.800000       0.623000
      752.850000       0.613000
      752.900000       0.603000
      752.950000       0.593000
      753.000000       0.583000
      753.050000       0.573000
      753.100000       0.563000
      753.150000       0.553000
      753.200000       0.543000
      753.250000       0.533000
      753.300000       0.523000
      753.350000       0.513000
      753.400000       0.503000
      753.450000       0.493000
      753.500000       0.483000
      753.550000       0.473000
      753.600000       0.463000
      753.650000       0.453000
      753.700000       0.443000
      753.750000       0.433000
      753.800000       0.423000
      753.850000       0.413000
      753.900000       0.403000
      753.950000       0.393000
      754.000000       0.383000
      754.050000       0.373000
      754.100000       0.363000
      754.150000       0.353000
      754.200000       0.343000
      754.250000       0.333000
      754.300000       0.323000
      754.350000       0.313000
      754.400000       0.303000
      754.450000       0.293000
      754.500000       0.283000
      754.550000       0.273000
      754.600000       0.263000
      754.650000       0.253000
      754.700000       0.243000
      754.750000       0.233000
      754.800000       0.223000
      754.850000       0.213000
      754.900000       0.203000
      754.950000       0.193000
      755.000000       0.183000
      755.050000       0.173000
      755.100000       0.163000
      755.150000       0.153000
      755.200000       0.143000
      755.250000       0.133000
      755.300000       0.123000
      755.350000       0.113000
      755.400000       0.103000
      755.450000       0.093000
      755.500000       0.083000
      755.550000       0.073000
      755.600000       0.063000
      755.650000       0.053000
      755.700000       0.043000
      755.750000       0.033000
      755.800000       0.023000
      755.850000       0.013000
      755.900000       0.003000
      755.950000       0.000000
      756.000000       0.000000
      756.050000       0.000000
      756.100000       0.000000
      756.150000       0.000000
      756.200000       0.000000
      756.250000       0.000000
      756.300000       0.000000
      756.350000       0.000000
      756.400000       0.000000
      756.450000       0.000000
      756.500000       0.000000
      756.550000       0.000000
      756.600000       0.000000
      756.650000       0.000000
      756.700000       0.000000
      756.750000       0.000000
      756.800000       0.000000
      756.850000       0.000000
      756.900000       0.000000
      756.950000       0.000000
      757.000000       0.000000
