23,   23, MVIRI VIS channel from srf_MET2_1984348_1984349_1801-Release_S10EL_10.dat
Number of data points:
730
Wavenumber (cm-1)   Filter response
     8916.629500       0.000000
     8924.587200       0.000000
     8932.559200       0.000002
     8940.545400       0.000011
     8948.545900       0.000032
     8956.560700       0.000068
     8964.589900       0.000125
     8972.633500       0.000207
     8980.691500       0.000316
     8988.764000       0.000458
     8996.851100       0.000635
     9004.952700       0.000852
     9013.068900       0.001112
     9021.199800       0.001417
     9029.345400       0.001771
     9037.505600       0.002177
     9045.680700       0.002637
     9053.870500       0.003154
     9062.075200       0.003731
     9070.294800       0.004370
     9078.529300       0.005073
     9086.778700       0.005842
     9095.043200       0.006679
     9103.322700       0.007586
     9111.617300       0.008565
     9119.927000       0.009617
     9128.251900       0.010744
     9136.592100       0.011947
     9144.947400       0.013228
     9153.318100       0.014587
     9161.704100       0.016027
     9170.105500       0.017547
     9178.522300       0.019149
     9186.954500       0.020834
     9195.402300       0.022602
     9203.865600       0.024454
     9212.344500       0.026390
     9220.839100       0.028412
     9229.349300       0.030518
     9237.875300       0.032711
     9246.417000       0.034989
     9254.974500       0.037353
     9263.547900       0.039804
     9272.137200       0.042341
     9280.742500       0.044964
     9289.363700       0.047673
     9298.000900       0.050468
     9306.654300       0.053349
     9315.323700       0.056314
     9324.009300       0.059365
     9332.711200       0.062501
     9341.429200       0.065721
     9350.163600       0.069024
     9358.914400       0.072410
     9367.681500       0.075880
     9376.465100       0.079431
     9385.265100       0.083062
     9394.081700       0.086775
     9402.914900       0.090567
     9411.764700       0.094438
     9420.631200       0.098388
     9429.514400       0.102413
     9438.414300       0.106516
     9447.331100       0.110693
     9456.264800       0.114945
     9465.215300       0.119270
     9474.182900       0.123667
     9483.167400       0.128135
     9492.169000       0.132673
     9501.187600       0.137280
     9510.223500       0.141955
     9519.276500       0.146696
     9528.346800       0.151503
     9537.434400       0.156373
     9546.539400       0.161306
     9555.661700       0.166302
     9564.801500       0.171357
     9573.958800       0.176471
     9583.133700       0.181643
     9592.326100       0.186871
     9601.536200       0.192155
     9610.764100       0.197491
     9620.009600       0.202881
     9629.273000       0.208322
     9638.554200       0.213811
     9647.853400       0.219350
     9657.170400       0.224935
     9666.505600       0.230565
     9675.858700       0.236240
     9685.230000       0.241957
     9694.619500       0.247716
     9704.027200       0.253513
     9713.453100       0.259350
     9722.897400       0.265224
     9732.360100       0.271133
     9741.841200       0.277076
     9751.340800       0.283051
     9760.859000       0.289059
     9770.395700       0.295096
     9779.951100       0.301161
     9789.525200       0.307254
     9799.118100       0.313373
     9808.729800       0.319515
     9818.360300       0.325680
     9828.009800       0.331867
     9837.678300       0.338074
     9847.365800       0.344300
     9857.072400       0.350542
     9866.798200       0.356801
     9876.543200       0.363074
     9886.307500       0.369361
     9896.091000       0.375660
     9905.894000       0.381969
     9915.716400       0.388287
     9925.558300       0.394613
     9935.419800       0.400946
     9945.300800       0.407285
     9955.201600       0.413627
     9965.122100       0.419972
     9975.062300       0.426319
     9985.022500       0.432666
     9995.002500       0.439012
    10005.002500       0.445356
    10015.022500       0.451697
    10025.062700       0.458033
    10035.122900       0.464363
    10045.203400       0.470686
    10055.304200       0.477002
    10065.425300       0.483308
    10075.566800       0.489604
    10085.728700       0.495888
    10095.911200       0.502160
    10106.114200       0.508418
    10116.337900       0.514662
    10126.582300       0.520890
    10136.847400       0.527101
    10147.133400       0.533294
    10157.440300       0.539469
    10167.768200       0.545624
    10178.117000       0.551758
    10188.487000       0.557870
    10198.878100       0.563960
    10209.290500       0.570026
    10219.724100       0.576068
    10230.179000       0.582084
    10240.655400       0.588075
    10251.153300       0.594038
    10261.672700       0.599973
    10272.213700       0.605880
    10282.776300       0.611756
    10293.360800       0.617603
    10303.967000       0.623419
    10314.595200       0.629202
    10325.245200       0.634953
    10335.917300       0.640671
    10346.611500       0.646354
    10357.327800       0.652003
    10368.066400       0.657616
    10378.827200       0.663193
    10389.610400       0.668733
    10400.416000       0.674236
    10411.244100       0.679701
    10422.094800       0.685127
    10432.968200       0.690515
    10443.864200       0.695862
    10454.783100       0.701169
    10465.724800       0.706436
    10476.689400       0.711661
    10487.677000       0.716844
    10498.687700       0.721985
    10509.721500       0.727083
    10520.778500       0.732138
    10531.858900       0.737149
    10542.962600       0.742116
    10554.089700       0.747039
    10565.240400       0.751916
    10576.414600       0.756749
    10587.612500       0.761535
    10598.834100       0.766276
    10610.079600       0.770971
    10621.348900       0.775618
    10632.642200       0.780219
    10643.959600       0.784773
    10655.301000       0.789279
    10666.666700       0.793737
    10678.056600       0.798147
    10689.470900       0.802509
    10700.909600       0.806823
    10712.372800       0.811088
    10723.860600       0.815304
    10735.373100       0.819470
    10746.910300       0.823588
    10758.472300       0.827656
    10770.059200       0.831675
    10781.671200       0.835644
    10793.308100       0.839563
    10804.970300       0.843433
    10816.657700       0.847252
    10828.370300       0.851021
    10840.108400       0.854740
    10851.871900       0.858409
    10863.661100       0.862028
    10875.475800       0.865597
    10887.316300       0.869115
    10899.182600       0.872582
    10911.074700       0.876000
    10922.992900       0.879367
    10934.937100       0.882684
    10946.907500       0.885950
    10958.904100       0.889167
    10970.927000       0.892333
    10982.976400       0.895449
    10995.052200       0.898514
    11007.154700       0.901530
    11019.283700       0.904496
    11031.439600       0.907412
    11043.622300       0.910278
    11055.832000       0.913095
    11068.068600       0.915862
    11080.332400       0.918580
    11092.623400       0.921248
    11104.941700       0.923868
    11117.287400       0.926438
    11129.660500       0.928960
    11142.061300       0.931433
    11154.489700       0.933857
    11166.945800       0.936233
    11179.429800       0.938561
    11191.941800       0.940841
    11204.481800       0.943074
    11217.049900       0.945259
    11229.646300       0.947396
    11242.270900       0.949486
    11254.924000       0.951530
    11267.605600       0.953527
    11280.315800       0.955477
    11293.054800       0.957382
    11305.822500       0.959240
    11318.619100       0.961052
    11331.444800       0.962820
    11344.299500       0.964542
    11357.183400       0.966219
    11370.096600       0.967851
    11383.039300       0.969439
    11396.011400       0.970983
    11409.013100       0.972483
    11422.044500       0.973939
    11435.105800       0.975352
    11448.196900       0.976722
    11461.318100       0.978049
    11474.469300       0.979334
    11487.650800       0.980577
    11500.862600       0.981778
    11514.104800       0.982938
    11527.377500       0.984056
    11540.680900       0.985133
    11554.015000       0.986170
    11567.380000       0.987166
    11580.775900       0.988123
    11594.202900       0.989039
    11607.661100       0.989917
    11621.150500       0.990755
    11634.671300       0.991554
    11648.223600       0.992316
    11661.807600       0.993039
    11675.423200       0.993724
    11689.070700       0.994372
    11702.750100       0.994983
    11716.461600       0.995557
    11730.205300       0.996094
    11743.981200       0.996595
    11757.789500       0.997061
    11771.630400       0.997491
    11785.503800       0.997886
    11799.410000       0.998246
    11813.349100       0.998571
    11827.321100       0.998862
    11841.326200       0.999120
    11855.364600       0.999344
    11869.436200       0.999534
    11883.541300       0.999692
    11897.680000       0.999817
    11911.852300       0.999910
    11926.058400       0.999971
    11940.298500       1.000000
    11954.572600       0.999998
    11968.880900       0.999965
    11983.223500       0.999901
    11997.600500       0.999807
    12012.012000       0.999683
    12026.458200       0.999529
    12040.939200       0.999346
    12055.455100       0.999133
    12070.006000       0.998892
    12084.592100       0.998622
    12099.213600       0.998324
    12113.870400       0.997999
    12128.562800       0.997645
    12143.290800       0.997264
    12158.054700       0.996856
    12172.854500       0.996422
    12187.690400       0.995961
    12202.562500       0.995474
    12217.471000       0.994961
    12232.415900       0.994422
    12247.397400       0.993858
    12262.415700       0.993270
    12277.470800       0.992656
    12292.563000       0.992018
    12307.692300       0.991356
    12322.858900       0.990670
    12338.062900       0.989960
    12353.304500       0.989226
    12368.583800       0.988470
    12383.900900       0.987691
    12399.256000       0.986889
    12414.649300       0.986065
    12430.080800       0.985218
    12445.550700       0.984350
    12461.059200       0.983460
    12476.606400       0.982549
    12492.192400       0.981616
    12507.817400       0.980663
    12523.481500       0.979689
    12539.185000       0.978695
    12554.927800       0.977680
    12570.710200       0.976645
    12586.532400       0.975591
    12602.394500       0.974517
    12618.296500       0.973423
    12634.238800       0.972311
    12650.221400       0.971179
    12666.244500       0.970029
    12682.308200       0.968860
    12698.412700       0.967673
    12714.558200       0.966468
    12730.744700       0.965245
    12746.972600       0.964004
    12763.241900       0.962746
    12779.552700       0.961470
    12795.905300       0.960177
    12812.299800       0.958867
    12828.736400       0.957540
    12845.215200       0.956197
    12861.736300       0.954837
    12878.300100       0.953460
    12894.906500       0.952068
    12911.555800       0.950659
    12928.248200       0.949235
    12944.983800       0.947795
    12961.762800       0.946340
    12978.585300       0.944869
    12995.451600       0.943383
    13012.361700       0.941882
    13029.316000       0.940365
    13046.314400       0.938835
    13063.357300       0.937289
    13080.444700       0.935729
    13097.576900       0.934154
    13114.754100       0.932566
    13131.976400       0.930963
    13149.243900       0.929346
    13166.556900       0.927715
    13183.915600       0.926070
    13201.320100       0.924412
    13218.770700       0.922741
    13236.267400       0.921055
    13253.810500       0.919357
    13271.400100       0.917645
    13289.036500       0.915920
    13306.719900       0.914183
    13324.450400       0.912432
    13342.228200       0.910668
    13360.053400       0.908892
    13377.926400       0.907104
    13395.847300       0.905302
    13413.816200       0.903489
    13431.833400       0.901663
    13449.899100       0.899825
    13468.013500       0.897974
    13486.176700       0.896112
    13504.388900       0.894238
    13522.650400       0.892352
    13540.961400       0.890454
    13559.322000       0.888544
    13577.732500       0.886623
    13596.193100       0.884690
    13614.703900       0.882745
    13633.265200       0.880789
    13651.877100       0.878822
    13670.540000       0.876844
    13689.253900       0.874854
    13708.019200       0.872853
    13726.836000       0.870842
    13745.704500       0.868819
    13764.624900       0.866785
    13783.597500       0.864740
    13802.622500       0.862685
    13821.700100       0.860619
    13840.830400       0.858542
    13860.013900       0.856455
    13879.250500       0.854357
    13898.540700       0.852248
    13917.884500       0.850129
    13937.282200       0.848000
    13956.734100       0.845861
    13976.240400       0.843711
    13995.801300       0.841551
    14015.417000       0.839381
    14035.087700       0.837201
    14054.813800       0.835011
    14074.595400       0.832811
    14094.432700       0.830601
    14114.326000       0.828381
    14134.275600       0.826152
    14154.281700       0.823913
    14174.344400       0.821664
    14194.464200       0.819405
    14214.641100       0.817137
    14234.875400       0.814860
    14255.167500       0.812573
    14275.517500       0.810277
    14295.925700       0.807971
    14316.392300       0.805656
    14336.917600       0.803332
    14357.501800       0.800999
    14378.145200       0.798657
    14398.848100       0.796306
    14419.610700       0.793946
    14440.433200       0.791577
    14461.316000       0.789199
    14482.259200       0.786813
    14503.263200       0.784417
    14524.328200       0.782013
    14545.454500       0.779601
    14566.642400       0.777180
    14587.892000       0.774751
    14609.203800       0.772313
    14630.577900       0.769867
    14652.014700       0.767413
    14673.514300       0.764951
    14695.077100       0.762481
    14716.703500       0.760003
    14738.393500       0.757516
    14760.147600       0.755022
    14781.966000       0.752521
    14803.849000       0.750011
    14825.796900       0.747494
    14847.809900       0.744969
    14869.888500       0.742437
    14892.032800       0.739898
    14914.243100       0.737351
    14936.519800       0.734797
    14958.863100       0.732236
    14981.273400       0.729668
    15003.750900       0.727093
    15026.296000       0.724512
    15048.909000       0.721923
    15071.590100       0.719328
    15094.339600       0.716726
    15117.158000       0.714118
    15140.045400       0.711503
    15163.002300       0.708882
    15186.028900       0.706255
    15209.125500       0.703622
    15232.292500       0.700983
    15255.530100       0.698338
    15278.838800       0.695687
    15302.218800       0.693031
    15325.670500       0.690369
    15349.194200       0.687701
    15372.790200       0.685029
    15396.458800       0.682351
    15420.200500       0.679668
    15444.015400       0.676979
    15467.904100       0.674286
    15491.866800       0.671589
    15515.903800       0.668886
    15540.015500       0.666179
    15564.202300       0.663468
    15588.464500       0.660752
    15612.802500       0.658032
    15637.216600       0.655308
    15661.707100       0.652580
    15686.274500       0.649849
    15710.919100       0.647114
    15735.641200       0.644375
    15760.441300       0.641633
    15785.319700       0.638887
    15810.276700       0.636138
    15835.312700       0.633387
    15860.428200       0.630632
    15885.623500       0.627875
    15910.899000       0.625115
    15936.255000       0.622353
    15961.691900       0.619588
    15987.210200       0.616821
    16012.810200       0.614052
    16038.492400       0.611282
    16064.257000       0.608509
    16090.104600       0.605735
    16116.035500       0.602959
    16142.050000       0.600182
    16168.148700       0.597404
    16194.332000       0.594625
    16220.600200       0.591845
    16246.953700       0.589063
    16273.393000       0.586282
    16299.918500       0.583500
    16326.530600       0.580718
    16353.229800       0.577935
    16380.016400       0.575153
    16406.890900       0.572370
    16433.853700       0.569588
    16460.905300       0.566807
    16488.046200       0.564025
    16515.276600       0.561245
    16542.597200       0.558465
    16570.008300       0.555687
    16597.510400       0.552910
    16625.103900       0.550134
    16652.789300       0.547359
    16680.567100       0.544586
    16708.437800       0.541815
    16736.401700       0.539046
    16764.459300       0.536278
    16792.611300       0.533513
    16820.857900       0.530751
    16849.199700       0.527991
    16877.637100       0.525233
    16906.170800       0.522478
    16934.801000       0.519726
    16963.528400       0.516978
    16992.353400       0.514232
    17021.276600       0.511490
    17050.298400       0.508751
    17079.419300       0.506016
    17108.639900       0.503285
    17137.960600       0.500557
    17167.382000       0.497833
    17196.904600       0.495114
    17226.528900       0.492399
    17256.255400       0.489689
    17286.084700       0.486982
    17316.017300       0.484281
    17346.053800       0.481584
    17376.194600       0.478893
    17406.440400       0.476206
    17436.791600       0.473525
    17467.248900       0.470848
    17497.812800       0.468178
    17528.483800       0.465512
    17559.262500       0.462853
    17590.149500       0.460199
    17621.145400       0.457550
    17652.250700       0.454908
    17683.466000       0.452272
    17714.791900       0.449642
    17746.228900       0.447018
    17777.777800       0.444401
    17809.439000       0.441790
    17841.213200       0.439185
    17873.101000       0.436587
    17905.103000       0.433995
    17937.219700       0.431411
    17969.451900       0.428833
    18001.800200       0.426262
    18034.265100       0.423698
    18066.847300       0.421141
    18099.547500       0.418591
    18132.366300       0.416049
    18165.304300       0.413513
    18198.362100       0.410985
    18231.540600       0.408464
    18264.840200       0.405950
    18298.261700       0.403444
    18331.805700       0.400945
    18365.472900       0.398454
    18399.264000       0.395970
    18433.179700       0.393494
    18467.220700       0.391025
    18501.387600       0.388564
    18535.681200       0.386110
    18570.102100       0.383664
    18604.651200       0.381226
    18639.329000       0.378795
    18674.136300       0.376371
    18709.073900       0.373956
    18744.142500       0.371548
    18779.342700       0.369147
    18814.675400       0.366754
    18850.141400       0.364369
    18885.741300       0.361991
    18921.475900       0.359620
    18957.346000       0.357257
    18993.352300       0.354901
    19029.495700       0.352553
    19065.776900       0.350212
    19102.196800       0.347878
    19138.756000       0.345552
    19175.455400       0.343232
    19212.295900       0.340920
    19249.278200       0.338614
    19286.403100       0.336315
    19323.671500       0.334024
    19361.084200       0.331739
    19398.642100       0.329460
    19436.346000       0.327188
    19474.196700       0.324923
    19512.195100       0.322664
    19550.342100       0.320411
    19588.638600       0.318164
    19627.085400       0.315923
    19665.683400       0.313688
    19704.433500       0.311459
    19743.336600       0.309235
    19782.393700       0.307017
    19821.605600       0.304804
    19860.973200       0.302597
    19900.497500       0.300394
