67,   67, MVIRI VIS channel from srf_MET2_1990168_1990169_1801-Release_S10EL_10.dat
Number of data points:
730
Wavenumber (cm-1)   Filter response
     8916.629500       0.000000
     8924.587200       0.000000
     8932.559200       0.000002
     8940.545400       0.000012
     8948.545900       0.000033
     8956.560700       0.000070
     8964.589900       0.000128
     8972.633500       0.000211
     8980.691500       0.000322
     8988.764000       0.000467
     8996.851100       0.000648
     9004.952700       0.000869
     9013.068900       0.001134
     9021.199800       0.001445
     9029.345400       0.001806
     9037.505600       0.002219
     9045.680700       0.002688
     9053.870500       0.003216
     9062.075200       0.003804
     9070.294800       0.004454
     9078.529300       0.005171
     9086.778700       0.005954
     9095.043200       0.006807
     9103.322700       0.007731
     9111.617300       0.008729
     9119.927000       0.009801
     9128.251900       0.010949
     9136.592100       0.012175
     9144.947400       0.013479
     9153.318100       0.014864
     9161.704100       0.016330
     9170.105500       0.017879
     9178.522300       0.019510
     9186.954500       0.021226
     9195.402300       0.023026
     9203.865600       0.024912
     9212.344500       0.026884
     9220.839100       0.028942
     9229.349300       0.031086
     9237.875300       0.033318
     9246.417000       0.035637
     9254.974500       0.038044
     9263.547900       0.040538
     9272.137200       0.043120
     9280.742500       0.045789
     9289.363700       0.048546
     9298.000900       0.051390
     9306.654300       0.054321
     9315.323700       0.057339
     9324.009300       0.060443
     9332.711200       0.063633
     9341.429200       0.066908
     9350.163600       0.070268
     9358.914400       0.073712
     9367.681500       0.077240
     9376.465100       0.080852
     9385.265100       0.084545
     9394.081700       0.088320
     9402.914900       0.092175
     9411.764700       0.096111
     9420.631200       0.100126
     9429.514400       0.104218
     9438.414300       0.108388
     9447.331100       0.112634
     9456.264800       0.116955
     9465.215300       0.121350
     9474.182900       0.125818
     9483.167400       0.130358
     9492.169000       0.134968
     9501.187600       0.139649
     9510.223500       0.144398
     9519.276500       0.149213
     9528.346800       0.154095
     9537.434400       0.159042
     9546.539400       0.164051
     9555.661700       0.169123
     9564.801500       0.174255
     9573.958800       0.179448
     9583.133700       0.184698
     9592.326100       0.190005
     9601.536200       0.195368
     9610.764100       0.200784
     9620.009600       0.206253
     9629.273000       0.211774
     9638.554200       0.217344
     9647.853400       0.222963
     9657.170400       0.228628
     9666.505600       0.234339
     9675.858700       0.240095
     9685.230000       0.245892
     9694.619500       0.251732
     9704.027200       0.257610
     9713.453100       0.263528
     9722.897400       0.269483
     9732.360100       0.275472
     9741.841200       0.281496
     9751.340800       0.287551
     9760.859000       0.293639
     9770.395700       0.299756
     9779.951100       0.305901
     9789.525200       0.312073
     9799.118100       0.318270
     9808.729800       0.324491
     9818.360300       0.330734
     9828.009800       0.336998
     9837.678300       0.343283
     9847.365800       0.349585
     9857.072400       0.355904
     9866.798200       0.362238
     9876.543200       0.368586
     9886.307500       0.374948
     9896.091000       0.381320
     9905.894000       0.387702
     9915.716400       0.394093
     9925.558300       0.400491
     9935.419800       0.406895
     9945.300800       0.413304
     9955.201600       0.419715
     9965.122100       0.426129
     9975.062300       0.432543
     9985.022500       0.438957
     9995.002500       0.445370
    10005.002500       0.451779
    10015.022500       0.458183
    10025.062700       0.464582
    10035.122900       0.470975
    10045.203400       0.477359
    10055.304200       0.483735
    10065.425300       0.490100
    10075.566800       0.496454
    10085.728700       0.502795
    10095.911200       0.509123
    10106.114200       0.515436
    10116.337900       0.521733
    10126.582300       0.528013
    10136.847400       0.534275
    10147.133400       0.540519
    10157.440300       0.546742
    10167.768200       0.552945
    10178.117000       0.559125
    10188.487000       0.565283
    10198.878100       0.571417
    10209.290500       0.577525
    10219.724100       0.583608
    10230.179000       0.589664
    10240.655400       0.595694
    10251.153300       0.601694
    10261.672700       0.607665
    10272.213700       0.613606
    10282.776300       0.619516
    10293.360800       0.625394
    10303.967000       0.631240
    10314.595200       0.637052
    10325.245200       0.642831
    10335.917300       0.648575
    10346.611500       0.654283
    10357.327800       0.659954
    10368.066400       0.665589
    10378.827200       0.671187
    10389.610400       0.676746
    10400.416000       0.682267
    10411.244100       0.687748
    10422.094800       0.693188
    10432.968200       0.698588
    10443.864200       0.703948
    10454.783100       0.709265
    10465.724800       0.714540
    10476.689400       0.719772
    10487.677000       0.724961
    10498.687700       0.730106
    10509.721500       0.735206
    10520.778500       0.740262
    10531.858900       0.745272
    10542.962600       0.750238
    10554.089700       0.755157
    10565.240400       0.760029
    10576.414600       0.764855
    10587.612500       0.769634
    10598.834100       0.774365
    10610.079600       0.779048
    10621.348900       0.783684
    10632.642200       0.788270
    10643.959600       0.792808
    10655.301000       0.797297
    10666.666700       0.801737
    10678.056600       0.806127
    10689.470900       0.810467
    10700.909600       0.814758
    10712.372800       0.818998
    10723.860600       0.823188
    10735.373100       0.827327
    10746.910300       0.831416
    10758.472300       0.835454
    10770.059200       0.839440
    10781.671200       0.843376
    10793.308100       0.847260
    10804.970300       0.851093
    10816.657700       0.854875
    10828.370300       0.858605
    10840.108400       0.862283
    10851.871900       0.865910
    10863.661100       0.869485
    10875.475800       0.873009
    10887.316300       0.876481
    10899.182600       0.879901
    10911.074700       0.883269
    10922.992900       0.886586
    10934.937100       0.889851
    10946.907500       0.893064
    10958.904100       0.896225
    10970.927000       0.899336
    10982.976400       0.902394
    10995.052200       0.905401
    11007.154700       0.908357
    11019.283700       0.911261
    11031.439600       0.914115
    11043.622300       0.916917
    11055.832000       0.919669
    11068.068600       0.922369
    11080.332400       0.925019
    11092.623400       0.927619
    11104.941700       0.930168
    11117.287400       0.932667
    11129.660500       0.935115
    11142.061300       0.937515
    11154.489700       0.939864
    11166.945800       0.942163
    11179.429800       0.944414
    11191.941800       0.946615
    11204.481800       0.948768
    11217.049900       0.950871
    11229.646300       0.952927
    11242.270900       0.954933
    11254.924000       0.956893
    11267.605600       0.958804
    11280.315800       0.960667
    11293.054800       0.962484
    11305.822500       0.964253
    11318.619100       0.965976
    11331.444800       0.967652
    11344.299500       0.969281
    11357.183400       0.970865
    11370.096600       0.972403
    11383.039300       0.973896
    11396.011400       0.975343
    11409.013100       0.976746
    11422.044500       0.978104
    11435.105800       0.979418
    11448.196900       0.980688
    11461.318100       0.981914
    11474.469300       0.983096
    11487.650800       0.984236
    11500.862600       0.985333
    11514.104800       0.986387
    11527.377500       0.987400
    11540.680900       0.988370
    11554.015000       0.989299
    11567.380000       0.990187
    11580.775900       0.991034
    11594.202900       0.991841
    11607.661100       0.992607
    11621.150500       0.993333
    11634.671300       0.994020
    11648.223600       0.994668
    11661.807600       0.995277
    11675.423200       0.995847
    11689.070700       0.996379
    11702.750100       0.996873
    11716.461600       0.997329
    11730.205300       0.997749
    11743.981200       0.998131
    11757.789500       0.998477
    11771.630400       0.998787
    11785.503800       0.999060
    11799.410000       0.999299
    11813.349100       0.999502
    11827.321100       0.999670
    11841.326200       0.999803
    11855.364600       0.999903
    11869.436200       0.999968
    11883.541300       1.000000
    11897.680000       0.999999
    11911.852300       0.999965
    11926.058400       0.999898
    11940.298500       0.999799
    11954.572600       0.999668
    11968.880900       0.999506
    11983.223500       0.999312
    11997.600500       0.999087
    12012.012000       0.998832
    12026.458200       0.998546
    12040.939200       0.998231
    12055.455100       0.997886
    12070.006000       0.997511
    12084.592100       0.997108
    12099.213600       0.996676
    12113.870400       0.996215
    12128.562800       0.995726
    12143.290800       0.995210
    12158.054700       0.994666
    12172.854500       0.994095
    12187.690400       0.993497
    12202.562500       0.992872
    12217.471000       0.992221
    12232.415900       0.991544
    12247.397400       0.990842
    12262.415700       0.990114
    12277.470800       0.989361
    12292.563000       0.988583
    12307.692300       0.987780
    12322.858900       0.986953
    12338.062900       0.986102
    12353.304500       0.985227
    12368.583800       0.984329
    12383.900900       0.983408
    12399.256000       0.982463
    12414.649300       0.981496
    12430.080800       0.980507
    12445.550700       0.979495
    12461.059200       0.978461
    12476.606400       0.977406
    12492.192400       0.976329
    12507.817400       0.975231
    12523.481500       0.974112
    12539.185000       0.972972
    12554.927800       0.971812
    12570.710200       0.970631
    12586.532400       0.969431
    12602.394500       0.968210
    12618.296500       0.966971
    12634.238800       0.965711
    12650.221400       0.964433
    12666.244500       0.963135
    12682.308200       0.961819
    12698.412700       0.960485
    12714.558200       0.959131
    12730.744700       0.957760
    12746.972600       0.956371
    12763.241900       0.954965
    12779.552700       0.953540
    12795.905300       0.952099
    12812.299800       0.950640
    12828.736400       0.949164
    12845.215200       0.947671
    12861.736300       0.946162
    12878.300100       0.944636
    12894.906500       0.943094
    12911.555800       0.941536
    12928.248200       0.939962
    12944.983800       0.938372
    12961.762800       0.936767
    12978.585300       0.935146
    12995.451600       0.933510
    13012.361700       0.931858
    13029.316000       0.930192
    13046.314400       0.928511
    13063.357300       0.926815
    13080.444700       0.925104
    13097.576900       0.923379
    13114.754100       0.921640
    13131.976400       0.919887
    13149.243900       0.918119
    13166.556900       0.916338
    13183.915600       0.914542
    13201.320100       0.912734
    13218.770700       0.910911
    13236.267400       0.909076
    13253.810500       0.907226
    13271.400100       0.905364
    13289.036500       0.903489
    13306.719900       0.901601
    13324.450400       0.899700
    13342.228200       0.897786
    13360.053400       0.895859
    13377.926400       0.893920
    13395.847300       0.891969
    13413.816200       0.890005
    13431.833400       0.888029
    13449.899100       0.886041
    13468.013500       0.884041
    13486.176700       0.882029
    13504.388900       0.880005
    13522.650400       0.877970
    13540.961400       0.875922
    13559.322000       0.873864
    13577.732500       0.871793
    13596.193100       0.869711
    13614.703900       0.867618
    13633.265200       0.865514
    13651.877100       0.863399
    13670.540000       0.861272
    13689.253900       0.859134
    13708.019200       0.856986
    13726.836000       0.854827
    13745.704500       0.852656
    13764.624900       0.850476
    13783.597500       0.848284
    13802.622500       0.846082
    13821.700100       0.843870
    13840.830400       0.841647
    13860.013900       0.839414
    13879.250500       0.837170
    13898.540700       0.834916
    13917.884500       0.832653
    13937.282200       0.830379
    13956.734100       0.828095
    13976.240400       0.825801
    13995.801300       0.823498
    14015.417000       0.821184
    14035.087700       0.818861
    14054.813800       0.816528
    14074.595400       0.814186
    14094.432700       0.811834
    14114.326000       0.809473
    14134.275600       0.807102
    14154.281700       0.804722
    14174.344400       0.802333
    14194.464200       0.799934
    14214.641100       0.797527
    14234.875400       0.795110
    14255.167500       0.792684
    14275.517500       0.790250
    14295.925700       0.787807
    14316.392300       0.785354
    14336.917600       0.782894
    14357.501800       0.780424
    14378.145200       0.777946
    14398.848100       0.775460
    14419.610700       0.772965
    14440.433200       0.770462
    14461.316000       0.767950
    14482.259200       0.765430
    14503.263200       0.762902
    14524.328200       0.760366
    14545.454500       0.757822
    14566.642400       0.755271
    14587.892000       0.752711
    14609.203800       0.750143
    14630.577900       0.747568
    14652.014700       0.744986
    14673.514300       0.742395
    14695.077100       0.739798
    14716.703500       0.737193
    14738.393500       0.734581
    14760.147600       0.731961
    14781.966000       0.729335
    14803.849000       0.726701
    14825.796900       0.724061
    14847.809900       0.721413
    14869.888500       0.718759
    14892.032800       0.716099
    14914.243100       0.713431
    14936.519800       0.710758
    14958.863100       0.708078
    14981.273400       0.705391
    15003.750900       0.702699
    15026.296000       0.700000
    15048.909000       0.697296
    15071.590100       0.694585
    15094.339600       0.691869
    15117.158000       0.689147
    15140.045400       0.686420
    15163.002300       0.683687
    15186.028900       0.680948
    15209.125500       0.678205
    15232.292500       0.675456
    15255.530100       0.672702
    15278.838800       0.669944
    15302.218800       0.667180
    15325.670500       0.664412
    15349.194200       0.661639
    15372.790200       0.658862
    15396.458800       0.656081
    15420.200500       0.653295
    15444.015400       0.650505
    15467.904100       0.647712
    15491.866800       0.644914
    15515.903800       0.642113
    15540.015500       0.639308
    15564.202300       0.636499
    15588.464500       0.633688
    15612.802500       0.630873
    15637.216600       0.628055
    15661.707100       0.625234
    15686.274500       0.622410
    15710.919100       0.619584
    15735.641200       0.616755
    15760.441300       0.613923
    15785.319700       0.611089
    15810.276700       0.608254
    15835.312700       0.605416
    15860.428200       0.602576
    15885.623500       0.599734
    15910.899000       0.596892
    15936.255000       0.594047
    15961.691900       0.591201
    15987.210200       0.588355
    16012.810200       0.585506
    16038.492400       0.582658
    16064.257000       0.579808
    16090.104600       0.576958
    16116.035500       0.574108
    16142.050000       0.571257
    16168.148700       0.568406
    16194.332000       0.565555
    16220.600200       0.562705
    16246.953700       0.559854
    16273.393000       0.557004
    16299.918500       0.554155
    16326.530600       0.551306
    16353.229800       0.548459
    16380.016400       0.545612
    16406.890900       0.542767
    16433.853700       0.539923
    16460.905300       0.537080
    16488.046200       0.534240
    16515.276600       0.531400
    16542.597200       0.528563
    16570.008300       0.525728
    16597.510400       0.522896
    16625.103900       0.520065
    16652.789300       0.517238
    16680.567100       0.514413
    16708.437800       0.511591
    16736.401700       0.508772
    16764.459300       0.505956
    16792.611300       0.503143
    16820.857900       0.500334
    16849.199700       0.497528
    16877.637100       0.494726
    16906.170800       0.491928
    16934.801000       0.489134
    16963.528400       0.486344
    16992.353400       0.483559
    17021.276600       0.480777
    17050.298400       0.478001
    17079.419300       0.475229
    17108.639900       0.472462
    17137.960600       0.469700
    17167.382000       0.466943
    17196.904600       0.464191
    17226.528900       0.461445
    17256.255400       0.458704
    17286.084700       0.455969
    17316.017300       0.453239
    17346.053800       0.450515
    17376.194600       0.447798
    17406.440400       0.445086
    17436.791600       0.442381
    17467.248900       0.439682
    17497.812800       0.436989
    17528.483800       0.434303
    17559.262500       0.431624
    17590.149500       0.428951
    17621.145400       0.426285
    17652.250700       0.423626
    17683.466000       0.420974
    17714.791900       0.418330
    17746.228900       0.415692
    17777.777800       0.413062
    17809.439000       0.410440
    17841.213200       0.407825
    17873.101000       0.405217
    17905.103000       0.402617
    17937.219700       0.400025
    17969.451900       0.397441
    18001.800200       0.394864
    18034.265100       0.392296
    18066.847300       0.389736
    18099.547500       0.387183
    18132.366300       0.384639
    18165.304300       0.382103
    18198.362100       0.379575
    18231.540600       0.377056
    18264.840200       0.374545
    18298.261700       0.372042
    18331.805700       0.369548
    18365.472900       0.367062
    18399.264000       0.364584
    18433.179700       0.362115
    18467.220700       0.359655
    18501.387600       0.357203
    18535.681200       0.354760
    18570.102100       0.352325
    18604.651200       0.349899
    18639.329000       0.347481
    18674.136300       0.345072
    18709.073900       0.342672
    18744.142500       0.340280
    18779.342700       0.337896
    18814.675400       0.335521
    18850.141400       0.333155
    18885.741300       0.330797
    18921.475900       0.328448
    18957.346000       0.326107
    18993.352300       0.323774
    19029.495700       0.321450
    19065.776900       0.319134
    19102.196800       0.316827
    19138.756000       0.314527
    19175.455400       0.312236
    19212.295900       0.309953
    19249.278200       0.307678
    19286.403100       0.305410
    19323.671500       0.303151
    19361.084200       0.300899
    19398.642100       0.298656
    19436.346000       0.296420
    19474.196700       0.294191
    19512.195100       0.291970
    19550.342100       0.289756
    19588.638600       0.287549
    19627.085400       0.285350
    19665.683400       0.283158
    19704.433500       0.280972
    19743.336600       0.278794
    19782.393700       0.276622
    19821.605600       0.274456
    19860.973200       0.272298
    19900.497500       0.270145
