87,   87, MVIRI VIS channel from srf_MET5_2002033_2002034_1801-Release_S10EL_10.dat
Number of data points:
806
Wavenumber (cm-1)   Filter response
     8350.730700       0.000000
     8357.710000       0.000000
     8364.701000       0.000000
     8371.703600       0.000002
     8378.718100       0.000004
     8385.744200       0.000009
     8392.782200       0.000017
     8399.832000       0.000027
     8406.893700       0.000042
     8413.967200       0.000061
     8421.052600       0.000084
     8428.150000       0.000113
     8435.259400       0.000147
     8442.380800       0.000188
     8449.514200       0.000235
     8456.659600       0.000289
     8463.817200       0.000350
     8470.986900       0.000420
     8478.168700       0.000497
     8485.362700       0.000583
     8492.569000       0.000678
     8499.787500       0.000781
     8507.018300       0.000895
     8514.261400       0.001018
     8521.516800       0.001151
     8528.784600       0.001295
     8536.064900       0.001449
     8543.357500       0.001615
     8550.662700       0.001791
     8557.980300       0.001979
     8565.310500       0.002179
     8572.653200       0.002391
     8580.008600       0.002615
     8587.376600       0.002851
     8594.757200       0.003101
     8602.150500       0.003363
     8609.556600       0.003638
     8616.975400       0.003926
     8624.407100       0.004228
     8631.851500       0.004543
     8639.308900       0.004873
     8646.779100       0.005216
     8654.262200       0.005573
     8661.758300       0.005945
     8669.267400       0.006332
     8676.789600       0.006733
     8684.324800       0.007149
     8691.873100       0.007580
     8699.434500       0.008026
     8707.009100       0.008487
     8714.596900       0.008964
     8722.198000       0.009457
     8729.812300       0.009965
     8737.439900       0.010489
     8745.080900       0.011029
     8752.735200       0.011585
     8760.403000       0.012157
     8768.084200       0.012746
     8775.778900       0.013351
     8783.487000       0.013973
     8791.208800       0.014611
     8798.944100       0.015267
     8806.693100       0.015939
     8814.455700       0.016629
     8822.232000       0.017336
     8830.022100       0.018059
     8837.825900       0.018801
     8845.643500       0.019560
     8853.475000       0.020337
     8861.320300       0.021131
     8869.179600       0.021943
     8877.052800       0.022774
     8884.940000       0.023622
     8892.841300       0.024489
     8900.756600       0.025374
     8908.686000       0.026277
     8916.629500       0.027199
     8924.587200       0.028139
     8932.559200       0.029098
     8940.545400       0.030076
     8948.545900       0.031073
     8956.560700       0.032089
     8964.589900       0.033124
     8972.633500       0.034179
     8980.691500       0.035252
     8988.764000       0.036346
     8996.851100       0.037458
     9004.952700       0.038590
     9013.068900       0.039743
     9021.199800       0.040914
     9029.345400       0.042106
     9037.505600       0.043318
     9045.680700       0.044550
     9053.870500       0.045802
     9062.075200       0.047075
     9070.294800       0.048368
     9078.529300       0.049682
     9086.778700       0.051016
     9095.043200       0.052371
     9103.322700       0.053747
     9111.617300       0.055143
     9119.927000       0.056561
     9128.251900       0.058000
     9136.592100       0.059459
     9144.947400       0.060941
     9153.318100       0.062443
     9161.704100       0.063967
     9170.105500       0.065513
     9178.522300       0.067080
     9186.954500       0.068669
     9195.402300       0.070280
     9203.865600       0.071912
     9212.344500       0.073567
     9220.839100       0.075244
     9229.349300       0.076942
     9237.875300       0.078663
     9246.417000       0.080406
     9254.974500       0.082172
     9263.547900       0.083960
     9272.137200       0.085771
     9280.742500       0.087604
     9289.363700       0.089460
     9298.000900       0.091339
     9306.654300       0.093240
     9315.323700       0.095164
     9324.009300       0.097111
     9332.711200       0.099082
     9341.429200       0.101075
     9350.163600       0.103091
     9358.914400       0.105131
     9367.681500       0.107194
     9376.465100       0.109280
     9385.265100       0.111389
     9394.081700       0.113522
     9402.914900       0.115678
     9411.764700       0.117857
     9420.631200       0.120061
     9429.514400       0.122287
     9438.414300       0.124538
     9447.331100       0.126811
     9456.264800       0.129109
     9465.215300       0.131430
     9474.182900       0.133775
     9483.167400       0.136143
     9492.169000       0.138535
     9501.187600       0.140952
     9510.223500       0.143391
     9519.276500       0.145855
     9528.346800       0.148342
     9537.434400       0.150854
     9546.539400       0.153388
     9555.661700       0.155947
     9564.801500       0.158529
     9573.958800       0.161136
     9583.133700       0.163766
     9592.326100       0.166419
     9601.536200       0.169097
     9610.764100       0.171798
     9620.009600       0.174523
     9629.273000       0.177271
     9638.554200       0.180043
     9647.853400       0.182839
     9657.170400       0.185658
     9666.505600       0.188501
     9675.858700       0.191367
     9685.230000       0.194257
     9694.619500       0.197170
     9704.027200       0.200105
     9713.453100       0.203065
     9722.897400       0.206048
     9732.360100       0.209053
     9741.841200       0.212082
     9751.340800       0.215133
     9760.859000       0.218208
     9770.395700       0.221305
     9779.951100       0.224424
     9789.525200       0.227567
     9799.118100       0.230732
     9808.729800       0.233919
     9818.360300       0.237128
     9828.009800       0.240360
     9837.678300       0.243614
     9847.365800       0.246889
     9857.072400       0.250186
     9866.798200       0.253506
     9876.543200       0.256846
     9886.307500       0.260208
     9896.091000       0.263591
     9905.894000       0.266996
     9915.716400       0.270421
     9925.558300       0.273867
     9935.419800       0.277334
     9945.300800       0.280821
     9955.201600       0.284328
     9965.122100       0.287856
     9975.062300       0.291404
     9985.022500       0.294971
     9995.002500       0.298559
    10005.002500       0.302165
    10015.022500       0.305791
    10025.062700       0.309435
    10035.122900       0.313099
    10045.203400       0.316781
    10055.304200       0.320482
    10065.425300       0.324201
    10075.566800       0.327938
    10085.728700       0.331692
    10095.911200       0.335465
    10106.114200       0.339254
    10116.337900       0.343061
    10126.582300       0.346884
    10136.847400       0.350724
    10147.133400       0.354581
    10157.440300       0.358453
    10167.768200       0.362342
    10178.117000       0.366246
    10188.487000       0.370165
    10198.878100       0.374100
    10209.290500       0.378049
    10219.724100       0.382012
    10230.179000       0.385990
    10240.655400       0.389983
    10251.153300       0.393988
    10261.672700       0.398007
    10272.213700       0.402039
    10282.776300       0.406084
    10293.360800       0.410142
    10303.967000       0.414211
    10314.595200       0.418293
    10325.245200       0.422386
    10335.917300       0.426491
    10346.611500       0.430606
    10357.327800       0.434732
    10368.066400       0.438868
    10378.827200       0.443015
    10389.610400       0.447171
    10400.416000       0.451336
    10411.244100       0.455511
    10422.094800       0.459694
    10432.968200       0.463885
    10443.864200       0.468084
    10454.783100       0.472291
    10465.724800       0.476505
    10476.689400       0.480726
    10487.677000       0.484954
    10498.687700       0.489188
    10509.721500       0.493428
    10520.778500       0.497673
    10531.858900       0.501923
    10542.962600       0.506179
    10554.089700       0.510438
    10565.240400       0.514701
    10576.414600       0.518968
    10587.612500       0.523239
    10598.834100       0.527512
    10610.079600       0.531788
    10621.348900       0.536066
    10632.642200       0.540345
    10643.959600       0.544626
    10655.301000       0.548908
    10666.666700       0.553190
    10678.056600       0.557473
    10689.470900       0.561755
    10700.909600       0.566037
    10712.372800       0.570318
    10723.860600       0.574597
    10735.373100       0.578875
    10746.910300       0.583150
    10758.472300       0.587423
    10770.059200       0.591692
    10781.671200       0.595959
    10793.308100       0.600221
    10804.970300       0.604480
    10816.657700       0.608733
    10828.370300       0.612982
    10840.108400       0.617225
    10851.871900       0.621462
    10863.661100       0.625693
    10875.475800       0.629918
    10887.316300       0.634135
    10899.182600       0.638345
    10911.074700       0.642547
    10922.992900       0.646741
    10934.937100       0.650926
    10946.907500       0.655102
    10958.904100       0.659268
    10970.927000       0.663425
    10982.976400       0.667571
    10995.052200       0.671706
    11007.154700       0.675831
    11019.283700       0.679943
    11031.439600       0.684044
    11043.622300       0.688133
    11055.832000       0.692209
    11068.068600       0.696271
    11080.332400       0.700321
    11092.623400       0.704356
    11104.941700       0.708377
    11117.287400       0.712383
    11129.660500       0.716374
    11142.061300       0.720350
    11154.489700       0.724309
    11166.945800       0.728253
    11179.429800       0.732179
    11191.941800       0.736089
    11204.481800       0.739981
    11217.049900       0.743856
    11229.646300       0.747712
    11242.270900       0.751549
    11254.924000       0.755368
    11267.605600       0.759167
    11280.315800       0.762947
    11293.054800       0.766706
    11305.822500       0.770445
    11318.619100       0.774163
    11331.444800       0.777860
    11344.299500       0.781536
    11357.183400       0.785189
    11370.096600       0.788821
    11383.039300       0.792430
    11396.011400       0.796015
    11409.013100       0.799578
    11422.044500       0.803117
    11435.105800       0.806632
    11448.196900       0.810123
    11461.318100       0.813589
    11474.469300       0.817030
    11487.650800       0.820446
    11500.862600       0.823836
    11514.104800       0.827201
    11527.377500       0.830539
    11540.680900       0.833851
    11554.015000       0.837136
    11567.380000       0.840394
    11580.775900       0.843624
    11594.202900       0.846826
    11607.661100       0.850001
    11621.150500       0.853148
    11634.671300       0.856265
    11648.223600       0.859354
    11661.807600       0.862414
    11675.423200       0.865445
    11689.070700       0.868446
    11702.750100       0.871417
    11716.461600       0.874357
    11730.205300       0.877268
    11743.981200       0.880148
    11757.789500       0.882997
    11771.630400       0.885815
    11785.503800       0.888601
    11799.410000       0.891356
    11813.349100       0.894079
    11827.321100       0.896770
    11841.326200       0.899429
    11855.364600       0.902056
    11869.436200       0.904650
    11883.541300       0.907211
    11897.680000       0.909739
    11911.852300       0.912234
    11926.058400       0.914696
    11940.298500       0.917124
    11954.572600       0.919519
    11968.880900       0.921880
    11983.223500       0.924206
    11997.600500       0.926499
    12012.012000       0.928757
    12026.458200       0.930981
    12040.939200       0.933171
    12055.455100       0.935325
    12070.006000       0.937445
    12084.592100       0.939530
    12099.213600       0.941580
    12113.870400       0.943595
    12128.562800       0.945575
    12143.290800       0.947519
    12158.054700       0.949428
    12172.854500       0.951302
    12187.690400       0.953139
    12202.562500       0.954942
    12217.471000       0.956708
    12232.415900       0.958439
    12247.397400       0.960134
    12262.415700       0.961794
    12277.470800       0.963417
    12292.563000       0.965005
    12307.692300       0.966556
    12322.858900       0.968072
    12338.062900       0.969552
    12353.304500       0.970996
    12368.583800       0.972404
    12383.900900       0.973776
    12399.256000       0.975112
    12414.649300       0.976412
    12430.080800       0.977676
    12445.550700       0.978904
    12461.059200       0.980097
    12476.606400       0.981253
    12492.192400       0.982375
    12507.817400       0.983460
    12523.481500       0.984510
    12539.185000       0.985524
    12554.927800       0.986502
    12570.710200       0.987446
    12586.532400       0.988354
    12602.394500       0.989226
    12618.296500       0.990064
    12634.238800       0.990867
    12650.221400       0.991635
    12666.244500       0.992367
    12682.308200       0.993066
    12698.412700       0.993730
    12714.558200       0.994359
    12730.744700       0.994954
    12746.972600       0.995515
    12763.241900       0.996042
    12779.552700       0.996535
    12795.905300       0.996995
    12812.299800       0.997421
    12828.736400       0.997813
    12845.215200       0.998173
    12861.736300       0.998500
    12878.300100       0.998794
    12894.906500       0.999055
    12911.555800       0.999284
    12928.248200       0.999481
    12944.983800       0.999646
    12961.762800       0.999779
    12978.585300       0.999881
    12995.451600       0.999952
    13012.361700       0.999991
    13029.316000       1.000000
    13046.314400       0.999978
    13063.357300       0.999926
    13080.444700       0.999844
    13097.576900       0.999732
    13114.754100       0.999591
    13131.976400       0.999421
    13149.243900       0.999221
    13166.556900       0.998993
    13183.915600       0.998736
    13201.320100       0.998452
    13218.770700       0.998139
    13236.267400       0.997800
    13253.810500       0.997432
    13271.400100       0.997038
    13289.036500       0.996618
    13306.719900       0.996171
    13324.450400       0.995698
    13342.228200       0.995200
    13360.053400       0.994676
    13377.926400       0.994128
    13395.847300       0.993555
    13413.816200       0.992957
    13431.833400       0.992336
    13449.899100       0.991691
    13468.013500       0.991023
    13486.176700       0.990332
    13504.388900       0.989618
    13522.650400       0.988882
    13540.961400       0.988125
    13559.322000       0.987346
    13577.732500       0.986546
    13596.193100       0.985725
    13614.703900       0.984885
    13633.265200       0.984024
    13651.877100       0.983143
    13670.540000       0.982244
    13689.253900       0.981326
    13708.019200       0.980389
    13726.836000       0.979434
    13745.704500       0.978462
    13764.624900       0.977473
    13783.597500       0.976467
    13802.622500       0.975444
    13821.700100       0.974406
    13840.830400       0.973352
    13860.013900       0.972283
    13879.250500       0.971199
    13898.540700       0.970101
    13917.884500       0.968989
    13937.282200       0.967863
    13956.734100       0.966724
    13976.240400       0.965573
    13995.801300       0.964409
    14015.417000       0.963233
    14035.087700       0.962046
    14054.813800       0.960848
    14074.595400       0.959640
    14094.432700       0.958421
    14114.326000       0.957192
    14134.275600       0.955954
    14154.281700       0.954707
    14174.344400       0.953452
    14194.464200       0.952189
    14214.641100       0.950918
    14234.875400       0.949639
    14255.167500       0.948354
    14275.517500       0.947063
    14295.925700       0.945765
    14316.392300       0.944462
    14336.917600       0.943154
    14357.501800       0.941841
    14378.145200       0.940523
    14398.848100       0.939202
    14419.610700       0.937877
    14440.433200       0.936550
    14461.316000       0.935219
    14482.259200       0.933886
    14503.263200       0.932551
    14524.328200       0.931215
    14545.454500       0.929878
    14566.642400       0.928540
    14587.892000       0.927202
    14609.203800       0.925864
    14630.577900       0.924526
    14652.014700       0.923189
    14673.514300       0.921854
    14695.077100       0.920520
    14716.703500       0.919188
    14738.393500       0.917859
    14760.147600       0.916532
    14781.966000       0.915209
    14803.849000       0.913888
    14825.796900       0.912572
    14847.809900       0.911260
    14869.888500       0.909953
    14892.032800       0.908651
    14914.243100       0.907354
    14936.519800       0.906062
    14958.863100       0.904777
    14981.273400       0.903497
    15003.750900       0.902225
    15026.296000       0.900959
    15048.909000       0.899700
    15071.590100       0.898450
    15094.339600       0.897206
    15117.158000       0.895972
    15140.045400       0.894745
    15163.002300       0.893528
    15186.028900       0.892319
    15209.125500       0.891120
    15232.292500       0.889930
    15255.530100       0.888751
    15278.838800       0.887581
    15302.218800       0.886422
    15325.670500       0.885274
    15349.194200       0.884136
    15372.790200       0.883010
    15396.458800       0.881895
    15420.200500       0.880791
    15444.015400       0.879699
    15467.904100       0.878620
    15491.866800       0.877553
    15515.903800       0.876498
    15540.015500       0.875455
    15564.202300       0.874426
    15588.464500       0.873410
    15612.802500       0.872406
    15637.216600       0.871416
    15661.707100       0.870440
    15686.274500       0.869477
    15710.919100       0.868528
    15735.641200       0.867593
    15760.441300       0.866672
    15785.319700       0.865765
    15810.276700       0.864872
    15835.312700       0.863994
    15860.428200       0.863130
    15885.623500       0.862280
    15910.899000       0.861445
    15936.255000       0.860625
    15961.691900       0.859820
    15987.210200       0.859029
    16012.810200       0.858253
    16038.492400       0.857492
    16064.257000       0.856746
    16090.104600       0.856015
    16116.035500       0.855298
    16142.050000       0.854597
    16168.148700       0.853910
    16194.332000       0.853238
    16220.600200       0.852581
    16246.953700       0.851939
    16273.393000       0.851311
    16299.918500       0.850698
    16326.530600       0.850100
    16353.229800       0.849516
    16380.016400       0.848947
    16406.890900       0.848391
    16433.853700       0.847851
    16460.905300       0.847324
    16488.046200       0.846811
    16515.276600       0.846312
    16542.597200       0.845826
    16570.008300       0.845354
    16597.510400       0.844896
    16625.103900       0.844450
    16652.789300       0.844018
    16680.567100       0.843598
    16708.437800       0.843191
    16736.401700       0.842796
    16764.459300       0.842413
    16792.611300       0.842042
    16820.857900       0.841683
    16849.199700       0.841335
    16877.637100       0.840998
    16906.170800       0.840672
    16934.801000       0.840357
    16963.528400       0.840052
    16992.353400       0.839756
    17021.276600       0.839470
    17050.298400       0.839194
    17079.419300       0.838926
    17108.639900       0.838667
    17137.960600       0.838416
    17167.382000       0.838173
    17196.904600       0.837938
    17226.528900       0.837709
    17256.255400       0.837487
    17286.084700       0.837271
