8, GOES 6.19um ABI FM3 SRF CWG processed March 10, 2016
Number of data points:
3727
Wavenumber (cm-1)   Filter response
     1436.500000       0.001001
     1436.600000       0.001034
     1436.700000       0.001064
     1436.800000       0.001101
     1436.900000       0.001160
     1437.000000       0.001202
     1437.100000       0.001219
     1437.200000       0.001227
     1437.300000       0.001231
     1437.400000       0.001233
     1437.500000       0.001230
     1437.600000       0.001225
     1437.700000       0.001219
     1437.800000       0.001213
     1437.900000       0.001211
     1438.000000       0.001210
     1438.100000       0.001213
     1438.200000       0.001222
     1438.300000       0.001233
     1438.400000       0.001250
     1438.500000       0.001271
     1438.600000       0.001294
     1438.700000       0.001320
     1438.800000       0.001347
     1438.900000       0.001374
     1439.000000       0.001401
     1439.100000       0.001424
     1439.200000       0.001445
     1439.300000       0.001461
     1439.400000       0.001475
     1439.500000       0.001484
     1439.600000       0.001490
     1439.700000       0.001492
     1439.800000       0.001492
     1439.900000       0.001492
     1440.000000       0.001491
     1440.100000       0.001490
     1440.200000       0.001492
     1440.300000       0.001494
     1440.400000       0.001500
     1440.500000       0.001508
     1440.600000       0.001519
     1440.700000       0.001532
     1440.800000       0.001547
     1440.900000       0.001562
     1441.000000       0.001578
     1441.100000       0.001594
     1441.200000       0.001607
     1441.300000       0.001618
     1441.400000       0.001625
     1441.500000       0.001630
     1441.600000       0.001631
     1441.700000       0.001628
     1441.800000       0.001624
     1441.900000       0.001616
     1442.000000       0.001607
     1442.100000       0.001596
     1442.200000       0.001587
     1442.300000       0.001579
     1442.400000       0.001574
     1442.500000       0.001572
     1442.600000       0.001572
     1442.700000       0.001577
     1442.800000       0.001585
     1442.900000       0.001597
     1443.000000       0.001611
     1443.100000       0.001627
     1443.200000       0.001644
     1443.300000       0.001660
     1443.400000       0.001675
     1443.500000       0.001688
     1443.600000       0.001698
     1443.700000       0.001701
     1443.800000       0.001703
     1443.900000       0.001701
     1444.000000       0.001693
     1444.100000       0.001683
     1444.200000       0.001669
     1444.300000       0.001653
     1444.400000       0.001636
     1444.500000       0.001620
     1444.600000       0.001605
     1444.700000       0.001594
     1444.800000       0.001584
     1444.900000       0.001581
     1445.000000       0.001581
     1445.100000       0.001582
     1445.200000       0.001589
     1445.300000       0.001600
     1445.400000       0.001612
     1445.500000       0.001625
     1445.600000       0.001638
     1445.700000       0.001650
     1445.800000       0.001658
     1445.900000       0.001663
     1446.000000       0.001662
     1446.100000       0.001659
     1446.200000       0.001653
     1446.300000       0.001639
     1446.400000       0.001623
     1446.500000       0.001603
     1446.600000       0.001581
     1446.700000       0.001559
     1446.800000       0.001538
     1446.900000       0.001518
     1447.000000       0.001501
     1447.100000       0.001488
     1447.200000       0.001480
     1447.300000       0.001476
     1447.400000       0.001475
     1447.500000       0.001480
     1447.600000       0.001488
     1447.700000       0.001500
     1447.800000       0.001513
     1447.900000       0.001527
     1448.000000       0.001541
     1448.100000       0.001554
     1448.200000       0.001564
     1448.300000       0.001572
     1448.400000       0.001577
     1448.500000       0.001578
     1448.600000       0.001576
     1448.700000       0.001573
     1448.800000       0.001565
     1448.900000       0.001557
     1449.000000       0.001548
     1449.100000       0.001540
     1449.200000       0.001532
     1449.300000       0.001527
     1449.400000       0.001524
     1449.500000       0.001523
     1449.600000       0.001524
     1449.700000       0.001528
     1449.800000       0.001533
     1449.900000       0.001539
     1450.000000       0.001545
     1450.100000       0.001550
     1450.200000       0.001550
     1450.300000       0.001549
     1450.400000       0.001546
     1450.500000       0.001536
     1450.600000       0.001523
     1450.700000       0.001505
     1450.800000       0.001483
     1450.900000       0.001457
     1451.000000       0.001429
     1451.100000       0.001399
     1451.200000       0.001370
     1451.300000       0.001343
     1451.400000       0.001318
     1451.500000       0.001298
     1451.600000       0.001283
     1451.700000       0.001273
     1451.800000       0.001268
     1451.900000       0.001270
     1452.000000       0.001275
     1452.100000       0.001285
     1452.200000       0.001299
     1452.300000       0.001315
     1452.400000       0.001331
     1452.500000       0.001345
     1452.600000       0.001358
     1452.700000       0.001367
     1452.800000       0.001373
     1452.900000       0.001373
     1453.000000       0.001369
     1453.100000       0.001362
     1453.200000       0.001349
     1453.300000       0.001333
     1453.400000       0.001314
     1453.500000       0.001295
     1453.600000       0.001276
     1453.700000       0.001259
     1453.800000       0.001245
     1453.900000       0.001234
     1454.000000       0.001228
     1454.100000       0.001226
     1454.200000       0.001228
     1454.300000       0.001236
     1454.400000       0.001245
     1454.500000       0.001260
     1454.600000       0.001275
     1454.700000       0.001291
     1454.800000       0.001306
     1454.900000       0.001320
     1455.000000       0.001330
     1455.100000       0.001339
     1455.200000       0.001342
     1455.300000       0.001342
     1455.400000       0.001342
     1455.500000       0.001337
     1455.600000       0.001329
     1455.700000       0.001322
     1455.800000       0.001316
     1455.900000       0.001313
     1456.000000       0.001312
     1456.100000       0.001315
     1456.200000       0.001324
     1456.300000       0.001336
     1456.400000       0.001356
     1456.500000       0.001379
     1456.600000       0.001407
     1456.700000       0.001439
     1456.800000       0.001473
     1456.900000       0.001506
     1457.000000       0.001539
     1457.100000       0.001568
     1457.200000       0.001593
     1457.300000       0.001612
     1457.400000       0.001625
     1457.500000       0.001633
     1457.600000       0.001631
     1457.700000       0.001627
     1457.800000       0.001617
     1457.900000       0.001600
     1458.000000       0.001581
     1458.100000       0.001560
     1458.200000       0.001541
     1458.300000       0.001521
     1458.400000       0.001507
     1458.500000       0.001494
     1458.600000       0.001490
     1458.700000       0.001490
     1458.800000       0.001490
     1458.900000       0.001498
     1459.000000       0.001512
     1459.100000       0.001528
     1459.200000       0.001547
     1459.300000       0.001567
     1459.400000       0.001587
     1459.500000       0.001605
     1459.600000       0.001621
     1459.700000       0.001633
     1459.800000       0.001643
     1459.900000       0.001648
     1460.000000       0.001650
     1460.100000       0.001651
     1460.200000       0.001648
     1460.300000       0.001645
     1460.400000       0.001643
     1460.500000       0.001641
     1460.600000       0.001643
     1460.700000       0.001648
     1460.800000       0.001656
     1460.900000       0.001670
     1461.000000       0.001687
     1461.100000       0.001709
     1461.200000       0.001734
     1461.300000       0.001762
     1461.400000       0.001790
     1461.500000       0.001819
     1461.600000       0.001846
     1461.700000       0.001871
     1461.800000       0.001889
     1461.900000       0.001905
     1462.000000       0.001911
     1462.100000       0.001910
     1462.200000       0.001909
     1462.300000       0.001901
     1462.400000       0.001885
     1462.500000       0.001867
     1462.600000       0.001846
     1462.700000       0.001823
     1462.800000       0.001801
     1462.900000       0.001781
     1463.000000       0.001763
     1463.100000       0.001751
     1463.200000       0.001741
     1463.300000       0.001738
     1463.400000       0.001740
     1463.500000       0.001742
     1463.600000       0.001750
     1463.700000       0.001762
     1463.800000       0.001774
     1463.900000       0.001788
     1464.000000       0.001801
     1464.100000       0.001814
     1464.200000       0.001824
     1464.300000       0.001833
     1464.400000       0.001839
     1464.500000       0.001843
     1464.600000       0.001846
     1464.700000       0.001849
     1464.800000       0.001852
     1464.900000       0.001856
     1465.000000       0.001863
     1465.100000       0.001873
     1465.200000       0.001887
     1465.300000       0.001907
     1465.400000       0.001932
     1465.500000       0.001962
     1465.600000       0.001998
     1465.700000       0.002038
     1465.800000       0.002081
     1465.900000       0.002124
     1466.000000       0.002169
     1466.100000       0.002213
     1466.200000       0.002254
     1466.300000       0.002292
     1466.400000       0.002325
     1466.500000       0.002352
     1466.600000       0.002373
     1466.700000       0.002387
     1466.800000       0.002394
     1466.900000       0.002397
     1467.000000       0.002395
     1467.100000       0.002390
     1467.200000       0.002384
     1467.300000       0.002376
     1467.400000       0.002369
     1467.500000       0.002363
     1467.600000       0.002362
     1467.700000       0.002362
     1467.800000       0.002363
     1467.900000       0.002370
     1468.000000       0.002380
     1468.100000       0.002391
     1468.200000       0.002404
     1468.300000       0.002416
     1468.400000       0.002427
     1468.500000       0.002435
     1468.600000       0.002441
     1468.700000       0.002441
     1468.800000       0.002439
     1468.900000       0.002435
     1469.000000       0.002425
     1469.100000       0.002413
     1469.200000       0.002399
     1469.300000       0.002386
     1469.400000       0.002372
     1469.500000       0.002365
     1469.600000       0.002364
     1469.700000       0.002364
     1469.800000       0.002369
     1469.900000       0.002386
     1470.000000       0.002407
     1470.100000       0.002436
     1470.200000       0.002470
     1470.300000       0.002510
     1470.400000       0.002554
     1470.500000       0.002600
     1470.600000       0.002646
     1470.700000       0.002691
     1470.800000       0.002732
     1470.900000       0.002769
     1471.000000       0.002801
     1471.100000       0.002825
     1471.200000       0.002845
     1471.300000       0.002859
     1471.400000       0.002868
     1471.500000       0.002872
     1471.600000       0.002874
     1471.700000       0.002875
     1471.800000       0.002877
     1471.900000       0.002879
     1472.000000       0.002887
     1472.100000       0.002899
     1472.200000       0.002918
     1472.300000       0.002944
     1472.400000       0.002975
     1472.500000       0.003013
     1472.600000       0.003054
     1472.700000       0.003101
     1472.800000       0.003150
     1472.900000       0.003201
     1473.000000       0.003251
     1473.100000       0.003300
     1473.200000       0.003345
     1473.300000       0.003386
     1473.400000       0.003423
     1473.500000       0.003455
     1473.600000       0.003483
     1473.700000       0.003508
     1473.800000       0.003530
     1473.900000       0.003553
     1474.000000       0.003575
     1474.100000       0.003600
     1474.200000       0.003629
     1474.300000       0.003662
     1474.400000       0.003701
     1474.500000       0.003747
     1474.600000       0.003801
     1474.700000       0.003861
     1474.800000       0.003926
     1474.900000       0.003997
     1475.000000       0.004068
     1475.100000       0.004140
     1475.200000       0.004211
     1475.300000       0.004279
     1475.400000       0.004342
     1475.500000       0.004399
     1475.600000       0.004451
     1475.700000       0.004494
     1475.800000       0.004531
     1475.900000       0.004561
     1476.000000       0.004585
     1476.100000       0.004606
     1476.200000       0.004624
     1476.300000       0.004644
     1476.400000       0.004666
     1476.500000       0.004692
     1476.600000       0.004724
     1476.700000       0.004763
     1476.800000       0.004811
     1476.900000       0.004865
     1477.000000       0.004929
     1477.100000       0.004999
     1477.200000       0.005076
     1477.300000       0.005157
     1477.400000       0.005241
     1477.500000       0.005326
     1477.600000       0.005409
     1477.700000       0.005489
     1477.800000       0.005565
     1477.900000       0.005634
     1478.000000       0.005697
     1478.100000       0.005754
     1478.200000       0.005805
     1478.300000       0.005851
     1478.400000       0.005894
     1478.500000       0.005934
     1478.600000       0.005973
     1478.700000       0.006015
     1478.800000       0.006059
     1478.900000       0.006109
     1479.000000       0.006167
     1479.100000       0.006231
     1479.200000       0.006305
     1479.300000       0.006387
     1479.400000       0.006476
     1479.500000       0.006571
     1479.600000       0.006670
     1479.700000       0.006774
     1479.800000       0.006879
     1479.900000       0.006986
     1480.000000       0.007090
     1480.100000       0.007193
     1480.200000       0.007292
     1480.300000       0.007386
     1480.400000       0.007478
     1480.500000       0.007564
     1480.600000       0.007649
     1480.700000       0.007733
     1480.800000       0.007818
     1480.900000       0.007907
     1481.000000       0.007999
     1481.100000       0.008097
     1481.200000       0.008201
     1481.300000       0.008312
     1481.400000       0.008432
     1481.500000       0.008559
     1481.600000       0.008694
     1481.700000       0.008836
     1481.800000       0.008982
     1481.900000       0.009132
     1482.000000       0.009282
     1482.100000       0.009432
     1482.200000       0.009578
     1482.300000       0.009720
     1482.400000       0.009855
     1482.500000       0.009985
     1482.600000       0.010110
     1482.700000       0.010228
     1482.800000       0.010341
     1482.900000       0.010450
     1483.000000       0.010557
     1483.100000       0.010665
     1483.200000       0.010772
     1483.300000       0.010882
     1483.400000       0.010994
     1483.500000       0.011115
     1483.600000       0.011246
     1483.700000       0.011385
     1483.800000       0.011534
     1483.900000       0.011691
     1484.000000       0.011857
     1484.100000       0.012029
     1484.200000       0.012205
     1484.300000       0.012386
     1484.400000       0.012568
     1484.500000       0.012751
     1484.600000       0.012931
     1484.700000       0.013109
     1484.800000       0.013283
     1484.900000       0.013452
     1485.000000       0.013617
     1485.100000       0.013778
     1485.200000       0.013938
     1485.300000       0.014098
     1485.400000       0.014258
     1485.500000       0.014422
     1485.600000       0.014590
     1485.700000       0.014765
     1485.800000       0.014947
     1485.900000       0.015137
     1486.000000       0.015338
     1486.100000       0.015547
     1486.200000       0.015767
     1486.300000       0.015996
     1486.400000       0.016233
     1486.500000       0.016477
     1486.600000       0.016725
     1486.700000       0.016976
     1486.800000       0.017228
     1486.900000       0.017480
     1487.000000       0.017731
     1487.100000       0.017981
     1487.200000       0.018231
     1487.300000       0.018478
     1487.400000       0.018726
     1487.500000       0.018974
     1487.600000       0.019223
     1487.700000       0.019476
     1487.800000       0.019733
     1487.900000       0.019999
     1488.000000       0.020273
     1488.100000       0.020563
     1488.200000       0.020872
     1488.300000       0.021200
     1488.400000       0.021546
     1488.500000       0.021911
     1488.600000       0.022283
     1488.700000       0.022664
     1488.800000       0.023050
     1488.900000       0.023442
     1489.000000       0.023838
     1489.100000       0.024236
     1489.200000       0.024633
     1489.300000       0.025028
     1489.400000       0.025421
     1489.500000       0.025809
     1489.600000       0.026194
     1489.700000       0.026575
     1489.800000       0.026952
     1489.900000       0.027331
     1490.000000       0.027710
     1490.100000       0.028094
     1490.200000       0.028485
     1490.300000       0.028884
     1490.400000       0.029298
     1490.500000       0.029725
     1490.600000       0.030167
     1490.700000       0.030626
     1490.800000       0.031102
     1490.900000       0.031594
     1491.000000       0.032098
     1491.100000       0.032620
     1491.200000       0.033154
     1491.300000       0.033702
     1491.400000       0.034259
     1491.500000       0.034826
     1491.600000       0.035403
     1491.700000       0.035984
     1491.800000       0.036569
     1491.900000       0.037161
     1492.000000       0.037759
     1492.100000       0.038364
     1492.200000       0.038977
     1492.300000       0.039600
     1492.400000       0.040236
     1492.500000       0.040884
     1492.600000       0.041545
     1492.700000       0.042225
     1492.800000       0.042924
     1492.900000       0.043643
     1493.000000       0.044382
     1493.100000       0.045143
     1493.200000       0.045922
     1493.300000       0.046722
     1493.400000       0.047541
     1493.500000       0.048377
     1493.600000       0.049227
     1493.700000       0.050088
     1493.800000       0.050961
     1493.900000       0.051840
     1494.000000       0.052727
     1494.100000       0.053622
     1494.200000       0.054531
     1494.300000       0.055449
     1494.400000       0.056373
     1494.500000       0.057303
     1494.600000       0.058243
     1494.700000       0.059192
     1494.800000       0.060159
     1494.900000       0.061143
     1495.000000       0.062152
     1495.100000       0.063186
     1495.200000       0.064251
     1495.300000       0.065356
     1495.400000       0.066495
     1495.500000       0.067664
     1495.600000       0.068870
     1495.700000       0.070110
     1495.800000       0.071383
     1495.900000       0.072686
     1496.000000       0.074023
     1496.100000       0.075384
     1496.200000       0.076771
     1496.300000       0.078179
     1496.400000       0.079608
     1496.500000       0.081058
     1496.600000       0.082532
     1496.700000       0.084024
     1496.800000       0.085541
     1496.900000       0.087086
     1497.000000       0.088657
     1497.100000       0.090254
     1497.200000       0.091879
     1497.300000       0.093537
     1497.400000       0.095228
     1497.500000       0.096962
     1497.600000       0.098741
     1497.700000       0.100555
     1497.800000       0.102422
     1497.900000       0.104330
     1498.000000       0.106297
     1498.100000       0.108315
     1498.200000       0.110385
     1498.300000       0.112506
     1498.400000       0.114670
     1498.500000       0.116889
