51,   51, MVIRI VIS channel from srf_MET5_1997213_1997214_1801-Release_S10EL_10.dat
Number of data points:
806
Wavenumber (cm-1)   Filter response
     8350.730700       0.000000
     8357.710000       0.000000
     8364.701000       0.000000
     8371.703600       0.000002
     8378.718100       0.000004
     8385.744200       0.000009
     8392.782200       0.000016
     8399.832000       0.000027
     8406.893700       0.000041
     8413.967200       0.000059
     8421.052600       0.000082
     8428.150000       0.000110
     8435.259400       0.000144
     8442.380800       0.000184
     8449.514200       0.000230
     8456.659600       0.000282
     8463.817200       0.000343
     8470.986900       0.000410
     8478.168700       0.000486
     8485.362700       0.000570
     8492.569000       0.000662
     8499.787500       0.000764
     8507.018300       0.000875
     8514.261400       0.000995
     8521.516800       0.001126
     8528.784600       0.001266
     8536.064900       0.001417
     8543.357500       0.001579
     8550.662700       0.001752
     8557.980300       0.001936
     8565.310500       0.002131
     8572.653200       0.002339
     8580.008600       0.002558
     8587.376600       0.002789
     8594.757200       0.003033
     8602.150500       0.003289
     8609.556600       0.003559
     8616.975400       0.003841
     8624.407100       0.004136
     8631.851500       0.004445
     8639.308900       0.004767
     8646.779100       0.005103
     8654.262200       0.005453
     8661.758300       0.005818
     8669.267400       0.006196
     8676.789600       0.006589
     8684.324800       0.006996
     8691.873100       0.007418
     8699.434500       0.007855
     8707.009100       0.008307
     8714.596900       0.008774
     8722.198000       0.009256
     8729.812300       0.009754
     8737.439900       0.010267
     8745.080900       0.010796
     8752.735200       0.011341
     8760.403000       0.011902
     8768.084200       0.012479
     8775.778900       0.013072
     8783.487000       0.013681
     8791.208800       0.014307
     8798.944100       0.014949
     8806.693100       0.015608
     8814.455700       0.016284
     8822.232000       0.016977
     8830.022100       0.017687
     8837.825900       0.018413
     8845.643500       0.019158
     8853.475000       0.019919
     8861.320300       0.020698
     8869.179600       0.021494
     8877.052800       0.022309
     8884.940000       0.023141
     8892.841300       0.023990
     8900.756600       0.024858
     8908.686000       0.025744
     8916.629500       0.026648
     8924.587200       0.027571
     8932.559200       0.028512
     8940.545400       0.029472
     8948.545900       0.030450
     8956.560700       0.031447
     8964.589900       0.032462
     8972.633500       0.033497
     8980.691500       0.034550
     8988.764000       0.035623
     8996.851100       0.036715
     9004.952700       0.037827
     9013.068900       0.038958
     9021.199800       0.040108
     9029.345400       0.041278
     9037.505600       0.042468
     9045.680700       0.043678
     9053.870500       0.044907
     9062.075200       0.046157
     9070.294800       0.047427
     9078.529300       0.048717
     9086.778700       0.050027
     9095.043200       0.051358
     9103.322700       0.052709
     9111.617300       0.054081
     9119.927000       0.055474
     9128.251900       0.056887
     9136.592100       0.058321
     9144.947400       0.059777
     9153.318100       0.061253
     9161.704100       0.062751
     9170.105500       0.064270
     9178.522300       0.065810
     9186.954500       0.067372
     9195.402300       0.068955
     9203.865600       0.070560
     9212.344500       0.072186
     9220.839100       0.073835
     9229.349300       0.075505
     9237.875300       0.077197
     9246.417000       0.078911
     9254.974500       0.080648
     9263.547900       0.082406
     9272.137200       0.084187
     9280.742500       0.085990
     9289.363700       0.087815
     9298.000900       0.089663
     9306.654300       0.091534
     9315.323700       0.093427
     9324.009300       0.095343
     9332.711200       0.097282
     9341.429200       0.099243
     9350.163600       0.101227
     9358.914400       0.103235
     9367.681500       0.105265
     9376.465100       0.107318
     9385.265100       0.109394
     9394.081700       0.111494
     9402.914900       0.113617
     9411.764700       0.115763
     9420.631200       0.117932
     9429.514400       0.120124
     9438.414300       0.122340
     9447.331100       0.124580
     9456.264800       0.126843
     9465.215300       0.129129
     9474.182900       0.131439
     9483.167400       0.133772
     9492.169000       0.136129
     9501.187600       0.138509
     9510.223500       0.140913
     9519.276500       0.143340
     9528.346800       0.145792
     9537.434400       0.148267
     9546.539400       0.150765
     9555.661700       0.153287
     9564.801500       0.155832
     9573.958800       0.158402
     9583.133700       0.160995
     9592.326100       0.163611
     9601.536200       0.166251
     9610.764100       0.168915
     9620.009600       0.171602
     9629.273000       0.174313
     9638.554200       0.177046
     9647.853400       0.179804
     9657.170400       0.182585
     9666.505600       0.185390
     9675.858700       0.188217
     9685.230000       0.191068
     9694.619500       0.193943
     9704.027200       0.196840
     9713.453100       0.199761
     9722.897400       0.202705
     9732.360100       0.205671
     9741.841200       0.208661
     9751.340800       0.211673
     9760.859000       0.214708
     9770.395700       0.217767
     9779.951100       0.220847
     9789.525200       0.223950
     9799.118100       0.227076
     9808.729800       0.230224
     9818.360300       0.233394
     9828.009800       0.236586
     9837.678300       0.239800
     9847.365800       0.243037
     9857.072400       0.246295
     9866.798200       0.249574
     9876.543200       0.252875
     9886.307500       0.256198
     9896.091000       0.259542
     9905.894000       0.262907
     9915.716400       0.266293
     9925.558300       0.269700
     9935.419800       0.273128
     9945.300800       0.276576
     9955.201600       0.280045
     9965.122100       0.283534
     9975.062300       0.287042
     9985.022500       0.290571
     9995.002500       0.294120
    10005.002500       0.297688
    10015.022500       0.301275
    10025.062700       0.304881
    10035.122900       0.308507
    10045.203400       0.312151
    10055.304200       0.315814
    10065.425300       0.319495
    10075.566800       0.323194
    10085.728700       0.326911
    10095.911200       0.330646
    10106.114200       0.334398
    10116.337900       0.338168
    10126.582300       0.341954
    10136.847400       0.345758
    10147.133400       0.349578
    10157.440300       0.353414
    10167.768200       0.357267
    10178.117000       0.361135
    10188.487000       0.365018
    10198.878100       0.368918
    10209.290500       0.372832
    10219.724100       0.376761
    10230.179000       0.380704
    10240.655400       0.384662
    10251.153300       0.388633
    10261.672700       0.392619
    10272.213700       0.396617
    10282.776300       0.400629
    10293.360800       0.404654
    10303.967000       0.408691
    10314.595200       0.412740
    10325.245200       0.416801
    10335.917300       0.420874
    10346.611500       0.424958
    10357.327800       0.429053
    10368.066400       0.433159
    10378.827200       0.437275
    10389.610400       0.441402
    10400.416000       0.445538
    10411.244100       0.449683
    10422.094800       0.453837
    10432.968200       0.458000
    10443.864200       0.462172
    10454.783100       0.466351
    10465.724800       0.470538
    10476.689400       0.474733
    10487.677000       0.478934
    10498.687700       0.483142
    10509.721500       0.487357
    10520.778500       0.491577
    10531.858900       0.495803
    10542.962600       0.500034
    10554.089700       0.504270
    10565.240400       0.508511
    10576.414600       0.512755
    10587.612500       0.517003
    10598.834100       0.521255
    10610.079600       0.525510
    10621.348900       0.529767
    10632.642200       0.534027
    10643.959600       0.538288
    10655.301000       0.542551
    10666.666700       0.546815
    10678.056600       0.551080
    10689.470900       0.555345
    10700.909600       0.559610
    10712.372800       0.563875
    10723.860600       0.568138
    10735.373100       0.572401
    10746.910300       0.576662
    10758.472300       0.580921
    10770.059200       0.585177
    10781.671200       0.589431
    10793.308100       0.593681
    10804.970300       0.597928
    10816.657700       0.602171
    10828.370300       0.606409
    10840.108400       0.610642
    10851.871900       0.614871
    10863.661100       0.619094
    10875.475800       0.623310
    10887.316300       0.627521
    10899.182600       0.631724
    10911.074700       0.635920
    10922.992900       0.640109
    10934.937100       0.644289
    10946.907500       0.648462
    10958.904100       0.652625
    10970.927000       0.656779
    10982.976400       0.660923
    10995.052200       0.665058
    11007.154700       0.669182
    11019.283700       0.673295
    11031.439600       0.677397
    11043.622300       0.681487
    11055.832000       0.685565
    11068.068600       0.689631
    11080.332400       0.693684
    11092.623400       0.697724
    11104.941700       0.701750
    11117.287400       0.705762
    11129.660500       0.709759
    11142.061300       0.713742
    11154.489700       0.717710
    11166.945800       0.721662
    11179.429800       0.725598
    11191.941800       0.729518
    11204.481800       0.733421
    11217.049900       0.737307
    11229.646300       0.741176
    11242.270900       0.745026
    11254.924000       0.748859
    11267.605600       0.752673
    11280.315800       0.756468
    11293.054800       0.760243
    11305.822500       0.763999
    11318.619100       0.767735
    11331.444800       0.771450
    11344.299500       0.775144
    11357.183400       0.778818
    11370.096600       0.782470
    11383.039300       0.786100
    11396.011400       0.789708
    11409.013100       0.793293
    11422.044500       0.796855
    11435.105800       0.800395
    11448.196900       0.803910
    11461.318100       0.807402
    11474.469300       0.810870
    11487.650800       0.814313
    11500.862600       0.817731
    11514.104800       0.821124
    11527.377500       0.824492
    11540.680900       0.827834
    11554.015000       0.831150
    11567.380000       0.834439
    11580.775900       0.837702
    11594.202900       0.840937
    11607.661100       0.844146
    11621.150500       0.847327
    11634.671300       0.850480
    11648.223600       0.853605
    11661.807600       0.856701
    11675.423200       0.859769
    11689.070700       0.862808
    11702.750100       0.865818
    11716.461600       0.868798
    11730.205300       0.871749
    11743.981200       0.874669
    11757.789500       0.877560
    11771.630400       0.880420
    11785.503800       0.883249
    11799.410000       0.886048
    11813.349100       0.888815
    11827.321100       0.891552
    11841.326200       0.894256
    11855.364600       0.896929
    11869.436200       0.899570
    11883.541300       0.902179
    11897.680000       0.904756
    11911.852300       0.907300
    11926.058400       0.909811
    11940.298500       0.912289
    11954.572600       0.914735
    11968.880900       0.917147
    11983.223500       0.919526
    11997.600500       0.921871
    12012.012000       0.924183
    12026.458200       0.926461
    12040.939200       0.928705
    12055.455100       0.930915
    12070.006000       0.933091
    12084.592100       0.935232
    12099.213600       0.937339
    12113.870400       0.939411
    12128.562800       0.941449
    12143.290800       0.943452
    12158.054700       0.945420
    12172.854500       0.947354
    12187.690400       0.949252
    12202.562500       0.951115
    12217.471000       0.952943
    12232.415900       0.954736
    12247.397400       0.956494
    12262.415700       0.958216
    12277.470800       0.959903
    12292.563000       0.961555
    12307.692300       0.963171
    12322.858900       0.964751
    12338.062900       0.966297
    12353.304500       0.967807
    12368.583800       0.969281
    12383.900900       0.970720
    12399.256000       0.972123
    12414.649300       0.973491
    12430.080800       0.974823
    12445.550700       0.976120
    12461.059200       0.977382
    12476.606400       0.978608
    12492.192400       0.979799
    12507.817400       0.980955
    12523.481500       0.982075
    12539.185000       0.983160
    12554.927800       0.984211
    12570.710200       0.985226
    12586.532400       0.986206
    12602.394500       0.987151
    12618.296500       0.988062
    12634.238800       0.988938
    12650.221400       0.989779
    12666.244500       0.990586
    12682.308200       0.991359
    12698.412700       0.992097
    12714.558200       0.992801
    12730.744700       0.993472
    12746.972600       0.994108
    12763.241900       0.994711
    12779.552700       0.995280
    12795.905300       0.995816
    12812.299800       0.996319
    12828.736400       0.996788
    12845.215200       0.997225
    12861.736300       0.997629
    12878.300100       0.998001
    12894.906500       0.998340
    12911.555800       0.998647
    12928.248200       0.998922
    12944.983800       0.999166
    12961.762800       0.999377
    12978.585300       0.999558
    12995.451600       0.999708
    13012.361700       0.999826
    13029.316000       0.999915
    13046.314400       0.999972
    13063.357300       1.000000
    13080.444700       0.999998
    13097.576900       0.999966
    13114.754100       0.999905
    13131.976400       0.999814
    13149.243900       0.999695
    13166.556900       0.999548
    13183.915600       0.999372
    13201.320100       0.999168
    13218.770700       0.998936
    13236.267400       0.998677
    13253.810500       0.998391
    13271.400100       0.998078
    13289.036500       0.997739
    13306.719900       0.997373
    13324.450400       0.996981
    13342.228200       0.996564
    13360.053400       0.996122
    13377.926400       0.995655
    13395.847300       0.995163
    13413.816200       0.994647
    13431.833400       0.994107
    13449.899100       0.993544
    13468.013500       0.992957
    13486.176700       0.992347
    13504.388900       0.991715
    13522.650400       0.991061
    13540.961400       0.990385
    13559.322000       0.989688
    13577.732500       0.988969
    13596.193100       0.988230
    13614.703900       0.987470
    13633.265200       0.986691
    13651.877100       0.985892
    13670.540000       0.985074
    13689.253900       0.984237
    13708.019200       0.983381
    13726.836000       0.982508
    13745.704500       0.981617
    13764.624900       0.980709
    13783.597500       0.979784
    13802.622500       0.978842
    13821.700100       0.977885
    13840.830400       0.976912
    13860.013900       0.975923
    13879.250500       0.974920
    13898.540700       0.973902
    13917.884500       0.972871
    13937.282200       0.971826
    13956.734100       0.970767
    13976.240400       0.969696
    13995.801300       0.968613
    14015.417000       0.967517
    14035.087700       0.966410
    14054.813800       0.965292
    14074.595400       0.964163
    14094.432700       0.963024
    14114.326000       0.961875
    14134.275600       0.960717
    14154.281700       0.959550
    14174.344400       0.958374
    14194.464200       0.957190
    14214.641100       0.955998
    14234.875400       0.954799
    14255.167500       0.953593
    14275.517500       0.952380
    14295.925700       0.951161
    14316.392300       0.949937
    14336.917600       0.948707
    14357.501800       0.947473
    14378.145200       0.946234
    14398.848100       0.944991
    14419.610700       0.943745
    14440.433200       0.942495
    14461.316000       0.941243
    14482.259200       0.939988
    14503.263200       0.938731
    14524.328200       0.937473
    14545.454500       0.936213
    14566.642400       0.934953
    14587.892000       0.933693
    14609.203800       0.932432
    14630.577900       0.931172
    14652.014700       0.929912
    14673.514300       0.928654
    14695.077100       0.927398
    14716.703500       0.926143
    14738.393500       0.924891
    14760.147600       0.923641
    14781.966000       0.922395
    14803.849000       0.921152
    14825.796900       0.919913
    14847.809900       0.918678
    14869.888500       0.917447
    14892.032800       0.916222
    14914.243100       0.915002
    14936.519800       0.913787
    14958.863100       0.912578
    14981.273400       0.911376
    15003.750900       0.910180
    15026.296000       0.908991
    15048.909000       0.907809
    15071.590100       0.906635
    15094.339600       0.905469
    15117.158000       0.904311
    15140.045400       0.903161
    15163.002300       0.902020
    15186.028900       0.900889
    15209.125500       0.899766
    15232.292500       0.898654
    15255.530100       0.897551
    15278.838800       0.896458
    15302.218800       0.895376
    15325.670500       0.894305
    15349.194200       0.893245
    15372.790200       0.892195
    15396.458800       0.891158
    15420.200500       0.890132
    15444.015400       0.889117
    15467.904100       0.888115
    15491.866800       0.887126
    15515.903800       0.886149
    15540.015500       0.885184
    15564.202300       0.884233
    15588.464500       0.883294
    15612.802500       0.882369
    15637.216600       0.881458
    15661.707100       0.880560
    15686.274500       0.879676
    15710.919100       0.878805
    15735.641200       0.877949
    15760.441300       0.877107
    15785.319700       0.876279
    15810.276700       0.875466
    15835.312700       0.874667
    15860.428200       0.873883
    15885.623500       0.873114
    15910.899000       0.872359
    15936.255000       0.871619
    15961.691900       0.870894
    15987.210200       0.870185
    16012.810200       0.869490
    16038.492400       0.868810
    16064.257000       0.868145
    16090.104600       0.867495
    16116.035500       0.866861
    16142.050000       0.866241
    16168.148700       0.865637
    16194.332000       0.865048
    16220.600200       0.864474
    16246.953700       0.863915
    16273.393000       0.863370
    16299.918500       0.862841
    16326.530600       0.862327
    16353.229800       0.861827
    16380.016400       0.861342
    16406.890900       0.860871
    16433.853700       0.860415
    16460.905300       0.859974
    16488.046200       0.859546
    16515.276600       0.859133
    16542.597200       0.858734
    16570.008300       0.858348
    16597.510400       0.857976
    16625.103900       0.857618
    16652.789300       0.857273
    16680.567100       0.856941
    16708.437800       0.856621
    16736.401700       0.856315
    16764.459300       0.856021
    16792.611300       0.855739
    16820.857900       0.855468
    16849.199700       0.855210
    16877.637100       0.854963
    16906.170800       0.854727
    16934.801000       0.854502
    16963.528400       0.854287
    16992.353400       0.854083
    17021.276600       0.853888
    17050.298400       0.853703
    17079.419300       0.853527
    17108.639900       0.853360
    17137.960600       0.853202
    17167.382000       0.853051
    17196.904600       0.852908
    17226.528900       0.852773
    17256.255400       0.852645
    17286.084700       0.852523
