16,   channel 16 SRF from file SRF_SSH-1_Delivery_220520/SRF_DMSP-F4_SSH_Chan16.asc received June 2022 from SPASCIA
Number of data points:
451
Wavenumber (cm-1)   Filter response
      998.600000       0.000950
      998.700000       0.001010
      998.800000       0.001080
      998.900000       0.001150
      999.000000       0.001220
      999.100000       0.001290
      999.200000       0.001380
      999.300000       0.001460
      999.400000       0.001550
      999.500000       0.001650
      999.600000       0.001750
      999.700000       0.001850
      999.800000       0.001960
      999.900000       0.002080
     1000.000000       0.002210
     1000.100000       0.002340
     1000.200000       0.002480
     1000.300000       0.002620
     1000.400000       0.002780
     1000.500000       0.002940
     1000.600000       0.003110
     1000.700000       0.003290
     1000.800000       0.003480
     1000.900000       0.003680
     1001.000000       0.003890
     1001.100000       0.004110
     1001.200000       0.004340
     1001.300000       0.004580
     1001.400000       0.004840
     1001.500000       0.005110
     1001.600000       0.005390
     1001.700000       0.005680
     1001.800000       0.005990
     1001.900000       0.006320
     1002.000000       0.006660
     1002.100000       0.007020
     1002.200000       0.007400
     1002.300000       0.007790
     1002.400000       0.008200
     1002.500000       0.008630
     1002.600000       0.009080
     1002.700000       0.009560
     1002.800000       0.010050
     1002.900000       0.010570
     1003.000000       0.011110
     1003.100000       0.011670
     1003.200000       0.012260
     1003.300000       0.012880
     1003.400000       0.013520
     1003.500000       0.014200
     1003.600000       0.014900
     1003.700000       0.015630
     1003.800000       0.016390
     1003.900000       0.017190
     1004.000000       0.018020
     1004.100000       0.018880
     1004.200000       0.019780
     1004.300000       0.020720
     1004.400000       0.021700
     1004.500000       0.022710
     1004.600000       0.023770
     1004.700000       0.024870
     1004.800000       0.026010
     1004.900000       0.027200
     1005.000000       0.028440
     1005.100000       0.029720
     1005.200000       0.031050
     1005.300000       0.032430
     1005.400000       0.033870
     1005.500000       0.035360
     1005.600000       0.036900
     1005.700000       0.038500
     1005.800000       0.040160
     1005.900000       0.041880
     1006.000000       0.043660
     1006.100000       0.045500
     1006.200000       0.047410
     1006.300000       0.049390
     1006.400000       0.051430
     1006.500000       0.053540
     1006.600000       0.055730
     1006.700000       0.057990
     1006.800000       0.060320
     1006.900000       0.062730
     1007.000000       0.065220
     1007.100000       0.067780
     1007.200000       0.070430
     1007.300000       0.073170
     1007.400000       0.075980
     1007.500000       0.078890
     1007.600000       0.081880
     1007.700000       0.084960
     1007.800000       0.088140
     1007.900000       0.091410
     1008.000000       0.094770
     1008.100000       0.098230
     1008.200000       0.101740
     1008.300000       0.105290
     1008.400000       0.108940
     1008.500000       0.112690
     1008.600000       0.116540
     1008.700000       0.120490
     1008.800000       0.124540
     1008.900000       0.128700
     1009.000000       0.132960
     1009.100000       0.137340
     1009.200000       0.141820
     1009.300000       0.146410
     1009.400000       0.151110
     1009.500000       0.155920
     1009.600000       0.160850
     1009.700000       0.165890
     1009.800000       0.171040
     1009.900000       0.176310
     1010.000000       0.181700
     1010.100000       0.187210
     1010.200000       0.192840
     1010.300000       0.198580
     1010.400000       0.204440
     1010.500000       0.210430
     1010.600000       0.216540
     1010.700000       0.222760
     1010.800000       0.229110
     1010.900000       0.235580
     1011.000000       0.242170
     1011.100000       0.248880
     1011.200000       0.255710
     1011.300000       0.262670
     1011.400000       0.269740
     1011.500000       0.276930
     1011.600000       0.284250
     1011.700000       0.291680
     1011.800000       0.299230
     1011.900000       0.306900
     1012.000000       0.314680
     1012.100000       0.322580
     1012.200000       0.330580
     1012.300000       0.338710
     1012.400000       0.346940
     1012.500000       0.355280
     1012.600000       0.363720
     1012.700000       0.372270
     1012.800000       0.380930
     1012.900000       0.389680
     1013.000000       0.398530
     1013.100000       0.407470
     1013.200000       0.416510
     1013.300000       0.425640
     1013.400000       0.434850
     1013.500000       0.444140
     1013.600000       0.453520
     1013.700000       0.462970
     1013.800000       0.472490
     1013.900000       0.482090
     1014.000000       0.491740
     1014.100000       0.501480
     1014.200000       0.511410
     1014.300000       0.521390
     1014.400000       0.531420
     1014.500000       0.541480
     1014.600000       0.551580
     1014.700000       0.561700
     1014.800000       0.571860
     1014.900000       0.582030
     1015.000000       0.592210
     1015.100000       0.602400
     1015.200000       0.612600
     1015.300000       0.622790
     1015.400000       0.632970
     1015.500000       0.643140
     1015.600000       0.653280
     1015.700000       0.663400
     1015.800000       0.673480
     1015.900000       0.683530
     1016.000000       0.693520
     1016.100000       0.703470
     1016.200000       0.713360
     1016.300000       0.723180
     1016.400000       0.732930
     1016.500000       0.742600
     1016.600000       0.752180
     1016.700000       0.761680
     1016.800000       0.771070
     1016.900000       0.780370
     1017.000000       0.789550
     1017.100000       0.798610
     1017.200000       0.807550
     1017.300000       0.816360
     1017.400000       0.825030
     1017.500000       0.833560
     1017.600000       0.841940
     1017.700000       0.850160
     1017.800000       0.858220
     1017.900000       0.866110
     1018.000000       0.873830
     1018.100000       0.881360
     1018.200000       0.888710
     1018.300000       0.895870
     1018.400000       0.902840
     1018.500000       0.909590
     1018.600000       0.916150
     1018.700000       0.922480
     1018.800000       0.928600
     1018.900000       0.934500
     1019.000000       0.940160
     1019.100000       0.945600
     1019.200000       0.950790
     1019.300000       0.955750
     1019.400000       0.960460
     1019.500000       0.964920
     1019.600000       0.969130
     1019.700000       0.973080
     1019.800000       0.976770
     1019.900000       0.980200
     1020.000000       0.983360
     1020.100000       0.986250
     1020.200000       0.988870
     1020.300000       0.991220
     1020.400000       0.993300
     1020.500000       0.995090
     1020.600000       0.996610
     1020.700000       0.997850
     1020.800000       0.998810
     1020.900000       0.999490
     1021.000000       0.999890
     1021.100000       1.000000
     1021.200000       0.999830
     1021.300000       0.999380
     1021.400000       0.998640
     1021.500000       0.997630
     1021.600000       0.996330
     1021.700000       0.994760
     1021.800000       0.992900
     1021.900000       0.990770
     1022.000000       0.988370
     1022.100000       0.985690
     1022.200000       0.982750
     1022.300000       0.979530
     1022.400000       0.976050
     1022.500000       0.972310
     1022.600000       0.968310
     1022.700000       0.964050
     1022.800000       0.959540
     1022.900000       0.954780
     1023.000000       0.949770
     1023.100000       0.944530
     1023.200000       0.939050
     1023.300000       0.933330
     1023.400000       0.927390
     1023.500000       0.921230
     1023.600000       0.914850
     1023.700000       0.908260
     1023.800000       0.901460
     1023.900000       0.894460
     1024.000000       0.887260
     1024.100000       0.879870
     1024.200000       0.872300
     1024.300000       0.864540
     1024.400000       0.856620
     1024.500000       0.848530
     1024.600000       0.840270
     1024.700000       0.831860
     1024.800000       0.823310
     1024.900000       0.814610
     1025.000000       0.805770
     1025.100000       0.796810
     1025.200000       0.787720
     1025.300000       0.778520
     1025.400000       0.769200
     1025.500000       0.759790
     1025.600000       0.750270
     1025.700000       0.740670
     1025.800000       0.730980
     1025.900000       0.721220
     1026.000000       0.711380
     1026.100000       0.701480
     1026.200000       0.691530
     1026.300000       0.681520
     1026.400000       0.671470
     1026.500000       0.661380
     1026.600000       0.651250
     1026.700000       0.641100
     1026.800000       0.630930
     1026.900000       0.620750
     1027.000000       0.610560
     1027.100000       0.600360
     1027.200000       0.590170
     1027.300000       0.579990
     1027.400000       0.569820
     1027.500000       0.559680
     1027.600000       0.549550
     1027.700000       0.539460
     1027.800000       0.529410
     1027.900000       0.519390
     1028.000000       0.509420
     1028.100000       0.499510
     1028.200000       0.489810
     1028.300000       0.480160
     1028.400000       0.470580
     1028.500000       0.461070
     1028.600000       0.451640
     1028.700000       0.442280
     1028.800000       0.433000
     1028.900000       0.423800
     1029.000000       0.414700
     1029.100000       0.405680
     1029.200000       0.396750
     1029.300000       0.387920
     1029.400000       0.379190
     1029.500000       0.370560
     1029.600000       0.362030
     1029.700000       0.353600
     1029.800000       0.345280
     1029.900000       0.337070
     1030.000000       0.328970
     1030.100000       0.320990
     1030.200000       0.313110
     1030.300000       0.305350
     1030.400000       0.297710
     1030.500000       0.290180
     1030.600000       0.282780
     1030.700000       0.275490
     1030.800000       0.268320
     1030.900000       0.261270
     1031.000000       0.254340
     1031.100000       0.247530
     1031.200000       0.240840
     1031.300000       0.234270
     1031.400000       0.227830
     1031.500000       0.221510
     1031.600000       0.215300
     1031.700000       0.209220
     1031.800000       0.203260
     1031.900000       0.197420
     1032.000000       0.191700
     1032.100000       0.186100
     1032.200000       0.180620
     1032.300000       0.175250
     1032.400000       0.170000
     1032.500000       0.164870
     1032.600000       0.159850
     1032.700000       0.154950
     1032.800000       0.150160
     1032.900000       0.145480
     1033.000000       0.140910
     1033.100000       0.136450
     1033.200000       0.132100
     1033.300000       0.127860
     1033.400000       0.123720
     1033.500000       0.119690
     1033.600000       0.115760
     1033.700000       0.111930
     1033.800000       0.108200
     1033.900000       0.104570
     1034.000000       0.101040
     1034.100000       0.097530
     1034.200000       0.094090
     1034.300000       0.090750
     1034.400000       0.087500
     1034.500000       0.084340
     1034.600000       0.081280
     1034.700000       0.078300
     1034.800000       0.075410
     1034.900000       0.072610
     1035.000000       0.069900
     1035.100000       0.067260
     1035.200000       0.064710
     1035.300000       0.062240
     1035.400000       0.059850
     1035.500000       0.057530
     1035.600000       0.055290
     1035.700000       0.053120
     1035.800000       0.051020
     1035.900000       0.048990
     1036.000000       0.047030
     1036.100000       0.045130
     1036.200000       0.043300
     1036.300000       0.041530
     1036.400000       0.039820
     1036.500000       0.038180
     1036.600000       0.036590
     1036.700000       0.035060
     1036.800000       0.033580
     1036.900000       0.032150
     1037.000000       0.030780
     1037.100000       0.029460
     1037.200000       0.028190
     1037.300000       0.026960
     1037.400000       0.025780
     1037.500000       0.024650
     1037.600000       0.023560
     1037.700000       0.022510
     1037.800000       0.021500
     1037.900000       0.020530
     1038.000000       0.019600
     1038.100000       0.018710
     1038.200000       0.017850
     1038.300000       0.017030
     1038.400000       0.016240
     1038.500000       0.015480
     1038.600000       0.014750
     1038.700000       0.014060
     1038.800000       0.013390
     1038.900000       0.012750
     1039.000000       0.012140
     1039.100000       0.011560
     1039.200000       0.011000
     1039.300000       0.010460
     1039.400000       0.009950
     1039.500000       0.009460
     1039.600000       0.008990
     1039.700000       0.008540
     1039.800000       0.008120
     1039.900000       0.007710
     1040.000000       0.007320
     1040.100000       0.006950
     1040.200000       0.006590
     1040.300000       0.006250
     1040.400000       0.005930
     1040.500000       0.005620
     1040.600000       0.005330
     1040.700000       0.005050
     1040.800000       0.004790
     1040.900000       0.004530
     1041.000000       0.004290
     1041.100000       0.004060
     1041.200000       0.003840
     1041.300000       0.003640
     1041.400000       0.003440
     1041.500000       0.003250
     1041.600000       0.003070
     1041.700000       0.002910
     1041.800000       0.002740
     1041.900000       0.002590
     1042.000000       0.002450
     1042.100000       0.002310
     1042.200000       0.002180
     1042.300000       0.002060
     1042.400000       0.001940
     1042.500000       0.001830
     1042.600000       0.001730
     1042.700000       0.001630
     1042.800000       0.001530
     1042.900000       0.001440
     1043.000000       0.001360
     1043.100000       0.001280
     1043.200000       0.001200
     1043.300000       0.001130
     1043.400000       0.001070
     1043.500000       0.001000
     1043.600000       0.000940
