55,   55, MVIRI VIS channel from srf_MET5_1998033_1998034_1801-Release_S10EL_10.dat
Number of data points:
806
Wavenumber (cm-1)   Filter response
     8350.730700       0.000000
     8357.710000       0.000000
     8364.701000       0.000000
     8371.703600       0.000002
     8378.718100       0.000004
     8385.744200       0.000009
     8392.782200       0.000016
     8399.832000       0.000027
     8406.893700       0.000041
     8413.967200       0.000059
     8421.052600       0.000082
     8428.150000       0.000111
     8435.259400       0.000144
     8442.380800       0.000184
     8449.514200       0.000230
     8456.659600       0.000283
     8463.817200       0.000343
     8470.986900       0.000411
     8478.168700       0.000487
     8485.362700       0.000571
     8492.569000       0.000664
     8499.787500       0.000766
     8507.018300       0.000877
     8514.261400       0.000998
     8521.516800       0.001129
     8528.784600       0.001269
     8536.064900       0.001421
     8543.357500       0.001583
     8550.662700       0.001756
     8557.980300       0.001941
     8565.310500       0.002137
     8572.653200       0.002344
     8580.008600       0.002564
     8587.376600       0.002796
     8594.757200       0.003041
     8602.150500       0.003298
     8609.556600       0.003567
     8616.975400       0.003850
     8624.407100       0.004146
     8631.851500       0.004456
     8639.308900       0.004779
     8646.779100       0.005116
     8654.262200       0.005467
     8661.758300       0.005832
     8669.267400       0.006211
     8676.789600       0.006605
     8684.324800       0.007013
     8691.873100       0.007436
     8699.434500       0.007874
     8707.009100       0.008327
     8714.596900       0.008795
     8722.198000       0.009279
     8729.812300       0.009778
     8737.439900       0.010292
     8745.080900       0.010822
     8752.735200       0.011368
     8760.403000       0.011930
     8768.084200       0.012509
     8775.778900       0.013103
     8783.487000       0.013714
     8791.208800       0.014341
     8798.944100       0.014985
     8806.693100       0.015645
     8814.455700       0.016323
     8822.232000       0.017017
     8830.022100       0.017728
     8837.825900       0.018457
     8845.643500       0.019203
     8853.475000       0.019966
     8861.320300       0.020746
     8869.179600       0.021545
     8877.052800       0.022361
     8884.940000       0.023194
     8892.841300       0.024046
     8900.756600       0.024916
     8908.686000       0.025804
     8916.629500       0.026710
     8924.587200       0.027635
     8932.559200       0.028577
     8940.545400       0.029539
     8948.545900       0.030519
     8956.560700       0.031518
     8964.589900       0.032536
     8972.633500       0.033573
     8980.691500       0.034629
     8988.764000       0.035704
     8996.851100       0.036798
     9004.952700       0.037912
     9013.068900       0.039045
     9021.199800       0.040198
     9029.345400       0.041371
     9037.505600       0.042563
     9045.680700       0.043775
     9053.870500       0.045007
     9062.075200       0.046259
     9070.294800       0.047532
     9078.529300       0.048824
     9086.778700       0.050138
     9095.043200       0.051471
     9103.322700       0.052825
     9111.617300       0.054200
     9119.927000       0.055595
     9128.251900       0.057011
     9136.592100       0.058449
     9144.947400       0.059907
     9153.318100       0.061386
     9161.704100       0.062887
     9170.105500       0.064409
     9178.522300       0.065952
     9186.954500       0.067517
     9195.402300       0.069103
     9203.865600       0.070711
     9212.344500       0.072341
     9220.839100       0.073992
     9229.349300       0.075666
     9237.875300       0.077361
     9246.417000       0.079078
     9254.974500       0.080818
     9263.547900       0.082580
     9272.137200       0.084364
     9280.742500       0.086171
     9289.363700       0.087999
     9298.000900       0.089851
     9306.654300       0.091725
     9315.323700       0.093621
     9324.009300       0.095541
     9332.711200       0.097483
     9341.429200       0.099448
     9350.163600       0.101436
     9358.914400       0.103447
     9367.681500       0.105481
     9376.465100       0.107538
     9385.265100       0.109618
     9394.081700       0.111721
     9402.914900       0.113847
     9411.764700       0.115997
     9420.631200       0.118170
     9429.514400       0.120367
     9438.414300       0.122586
     9447.331100       0.124830
     9456.264800       0.127096
     9465.215300       0.129387
     9474.182900       0.131700
     9483.167400       0.134037
     9492.169000       0.136398
     9501.187600       0.138783
     9510.223500       0.141191
     9519.276500       0.143622
     9528.346800       0.146077
     9537.434400       0.148556
     9546.539400       0.151059
     9555.661700       0.153585
     9564.801500       0.156134
     9573.958800       0.158708
     9583.133700       0.161305
     9592.326100       0.163926
     9601.536200       0.166570
     9610.764100       0.169238
     9620.009600       0.171929
     9629.273000       0.174644
     9638.554200       0.177382
     9647.853400       0.180144
     9657.170400       0.182929
     9666.505600       0.185738
     9675.858700       0.188570
     9685.230000       0.191426
     9694.619500       0.194304
     9704.027200       0.197206
     9713.453100       0.200131
     9722.897400       0.203079
     9732.360100       0.206050
     9741.841200       0.209044
     9751.340800       0.212061
     9760.859000       0.215101
     9770.395700       0.218163
     9779.951100       0.221248
     9789.525200       0.224356
     9799.118100       0.227486
     9808.729800       0.230638
     9818.360300       0.233813
     9828.009800       0.237009
     9837.678300       0.240228
     9847.365800       0.243469
     9857.072400       0.246731
     9866.798200       0.250015
     9876.543200       0.253321
     9886.307500       0.256648
     9896.091000       0.259996
     9905.894000       0.263366
     9915.716400       0.266756
     9925.558300       0.270167
     9935.419800       0.273600
     9945.300800       0.277052
     9955.201600       0.280525
     9965.122100       0.284018
     9975.062300       0.287531
     9985.022500       0.291065
     9995.002500       0.294618
    10005.002500       0.298190
    10015.022500       0.301781
    10025.062700       0.305392
    10035.122900       0.309022
    10045.203400       0.312670
    10055.304200       0.316337
    10065.425300       0.320023
    10075.566800       0.323726
    10085.728700       0.327448
    10095.911200       0.331187
    10106.114200       0.334943
    10116.337900       0.338717
    10126.582300       0.342508
    10136.847400       0.346315
    10147.133400       0.350140
    10157.440300       0.353980
    10167.768200       0.357836
    10178.117000       0.361709
    10188.487000       0.365596
    10198.878100       0.369500
    10209.290500       0.373418
    10219.724100       0.377350
    10230.179000       0.381298
    10240.655400       0.385259
    10251.153300       0.389235
    10261.672700       0.393224
    10272.213700       0.397226
    10282.776300       0.401242
    10293.360800       0.405270
    10303.967000       0.409311
    10314.595200       0.413364
    10325.245200       0.417429
    10335.917300       0.421505
    10346.611500       0.425593
    10357.327800       0.429692
    10368.066400       0.433801
    10378.827200       0.437920
    10389.610400       0.442050
    10400.416000       0.446189
    10411.244100       0.450338
    10422.094800       0.454495
    10432.968200       0.458661
    10443.864200       0.462836
    10454.783100       0.467019
    10465.724800       0.471209
    10476.689400       0.475406
    10487.677000       0.479611
    10498.687700       0.483822
    10509.721500       0.488039
    10520.778500       0.492262
    10531.858900       0.496491
    10542.962600       0.500725
    10554.089700       0.504964
    10565.240400       0.509207
    10576.414600       0.513454
    10587.612500       0.517705
    10598.834100       0.521959
    10610.079600       0.526216
    10621.348900       0.530476
    10632.642200       0.534738
    10643.959600       0.539002
    10655.301000       0.543267
    10666.666700       0.547533
    10678.056600       0.551799
    10689.470900       0.556066
    10700.909600       0.560334
    10712.372800       0.564600
    10723.860600       0.568865
    10735.373100       0.573130
    10746.910300       0.577392
    10758.472300       0.581653
    10770.059200       0.585911
    10781.671200       0.590166
    10793.308100       0.594417
    10804.970300       0.598666
    10816.657700       0.602910
    10828.370300       0.607149
    10840.108400       0.611384
    10851.871900       0.615613
    10863.661100       0.619837
    10875.475800       0.624055
    10887.316300       0.628266
    10899.182600       0.632470
    10911.074700       0.636667
    10922.992900       0.640856
    10934.937100       0.645037
    10946.907500       0.649210
    10958.904100       0.653373
    10970.927000       0.657528
    10982.976400       0.661673
    10995.052200       0.665807
    11007.154700       0.669931
    11019.283700       0.674044
    11031.439600       0.678146
    11043.622300       0.682236
    11055.832000       0.686314
    11068.068600       0.690380
    11080.332400       0.694433
    11092.623400       0.698472
    11104.941700       0.702497
    11117.287400       0.706509
    11129.660500       0.710506
    11142.061300       0.714488
    11154.489700       0.718455
    11166.945800       0.722406
    11179.429800       0.726341
    11191.941800       0.730260
    11204.481800       0.734162
    11217.049900       0.738047
    11229.646300       0.741914
    11242.270900       0.745763
    11254.924000       0.749594
    11267.605600       0.753406
    11280.315800       0.757199
    11293.054800       0.760973
    11305.822500       0.764727
    11318.619100       0.768461
    11331.444800       0.772174
    11344.299500       0.775867
    11357.183400       0.779538
    11370.096600       0.783188
    11383.039300       0.786815
    11396.011400       0.790421
    11409.013100       0.794004
    11422.044500       0.797563
    11435.105800       0.801100
    11448.196900       0.804613
    11461.318100       0.808102
    11474.469300       0.811567
    11487.650800       0.815007
    11500.862600       0.818422
    11514.104800       0.821812
    11527.377500       0.825176
    11540.680900       0.828515
    11554.015000       0.831827
    11567.380000       0.835113
    11580.775900       0.838372
    11594.202900       0.841604
    11607.661100       0.844809
    11621.150500       0.847986
    11634.671300       0.851135
    11648.223600       0.854256
    11661.807600       0.857348
    11675.423200       0.860412
    11689.070700       0.863447
    11702.750100       0.866452
    11716.461600       0.869428
    11730.205300       0.872374
    11743.981200       0.875291
    11757.789500       0.878176
    11771.630400       0.881032
    11785.503800       0.883857
    11799.410000       0.886650
    11813.349100       0.889413
    11827.321100       0.892144
    11841.326200       0.894844
    11855.364600       0.897511
    11869.436200       0.900147
    11883.541300       0.902751
    11897.680000       0.905322
    11911.852300       0.907860
    11926.058400       0.910366
    11940.298500       0.912839
    11954.572600       0.915279
    11968.880900       0.917685
    11983.223500       0.920058
    11997.600500       0.922398
    12012.012000       0.924704
    12026.458200       0.926976
    12040.939200       0.929214
    12055.455100       0.931417
    12070.006000       0.933587
    12084.592100       0.935722
    12099.213600       0.937822
    12113.870400       0.939888
    12128.562800       0.941920
    12143.290800       0.943916
    12158.054700       0.945878
    12172.854500       0.947804
    12187.690400       0.949696
    12202.562500       0.951552
    12217.471000       0.953374
    12232.415900       0.955159
    12247.397400       0.956910
    12262.415700       0.958625
    12277.470800       0.960305
    12292.563000       0.961950
    12307.692300       0.963559
    12322.858900       0.965132
    12338.062900       0.966670
    12353.304500       0.968172
    12368.583800       0.969639
    12383.900900       0.971071
    12399.256000       0.972466
    12414.649300       0.973827
    12430.080800       0.975152
    12445.550700       0.976441
    12461.059200       0.977695
    12476.606400       0.978913
    12492.192400       0.980096
    12507.817400       0.981244
    12523.481500       0.982357
    12539.185000       0.983434
    12554.927800       0.984476
    12570.710200       0.985483
    12586.532400       0.986455
    12602.394500       0.987393
    12618.296500       0.988295
    12634.238800       0.989163
    12650.221400       0.989996
    12666.244500       0.990795
    12682.308200       0.991559
    12698.412700       0.992289
    12714.558200       0.992985
    12730.744700       0.993646
    12746.972600       0.994274
    12763.241900       0.994869
    12779.552700       0.995429
    12795.905300       0.995957
    12812.299800       0.996451
    12828.736400       0.996912
    12845.215200       0.997340
    12861.736300       0.997735
    12878.300100       0.998098
    12894.906500       0.998429
    12911.555800       0.998727
    12928.248200       0.998993
    12944.983800       0.999228
    12961.762800       0.999431
    12978.585300       0.999603
    12995.451600       0.999743
    13012.361700       0.999853
    13029.316000       0.999932
    13046.314400       0.999981
    13063.357300       1.000000
    13080.444700       0.999989
    13097.576900       0.999948
    13114.754100       0.999878
    13131.976400       0.999778
    13149.243900       0.999650
    13166.556900       0.999494
    13183.915600       0.999309
    13201.320100       0.999096
    13218.770700       0.998855
    13236.267400       0.998587
    13253.810500       0.998291
    13271.400100       0.997969
    13289.036500       0.997621
    13306.719900       0.997246
    13324.450400       0.996845
    13342.228200       0.996419
    13360.053400       0.995968
    13377.926400       0.995491
    13395.847300       0.994990
    13413.816200       0.994465
    13431.833400       0.993916
    13449.899100       0.993343
    13468.013500       0.992747
    13486.176700       0.992129
    13504.388900       0.991487
    13522.650400       0.990824
    13540.961400       0.990139
    13559.322000       0.989432
    13577.732500       0.988705
    13596.193100       0.987956
    13614.703900       0.987188
    13633.265200       0.986399
    13651.877100       0.985591
    13670.540000       0.984764
    13689.253900       0.983917
    13708.019200       0.983053
    13726.836000       0.982170
    13745.704500       0.981270
    13764.624900       0.980353
    13783.597500       0.979419
    13802.622500       0.978468
    13821.700100       0.977501
    13840.830400       0.976519
    13860.013900       0.975522
    13879.250500       0.974509
    13898.540700       0.973483
    13917.884500       0.972442
    13937.282200       0.971387
    13956.734100       0.970320
    13976.240400       0.969240
    13995.801300       0.968147
    14015.417000       0.967043
    14035.087700       0.965927
    14054.813800       0.964800
    14074.595400       0.963662
    14094.432700       0.962514
    14114.326000       0.961356
    14134.275600       0.960189
    14154.281700       0.959012
    14174.344400       0.957827
    14194.464200       0.956634
    14214.641100       0.955434
    14234.875400       0.954225
    14255.167500       0.953010
    14275.517500       0.951789
    14295.925700       0.950561
    14316.392300       0.949328
    14336.917600       0.948089
    14357.501800       0.946846
    14378.145200       0.945598
    14398.848100       0.944347
    14419.610700       0.943091
    14440.433200       0.941833
    14461.316000       0.940572
    14482.259200       0.939308
    14503.263200       0.938042
    14524.328200       0.936775
    14545.454500       0.935507
    14566.642400       0.934238
    14587.892000       0.932969
    14609.203800       0.931699
    14630.577900       0.930430
    14652.014700       0.929162
    14673.514300       0.927895
    14695.077100       0.926630
    14716.703500       0.925366
    14738.393500       0.924106
    14760.147600       0.922847
    14781.966000       0.921592
    14803.849000       0.920340
    14825.796900       0.919092
    14847.809900       0.917849
    14869.888500       0.916610
    14892.032800       0.915375
    14914.243100       0.914146
    14936.519800       0.912923
    14958.863100       0.911705
    14981.273400       0.910494
    15003.750900       0.909290
    15026.296000       0.908092
    15048.909000       0.906902
    15071.590100       0.905719
    15094.339600       0.904544
    15117.158000       0.903377
    15140.045400       0.902219
    15163.002300       0.901069
    15186.028900       0.899929
    15209.125500       0.898798
    15232.292500       0.897676
    15255.530100       0.896565
    15278.838800       0.895464
    15302.218800       0.894373
    15325.670500       0.893293
    15349.194200       0.892223
    15372.790200       0.891166
    15396.458800       0.890119
    15420.200500       0.889084
    15444.015400       0.888061
    15467.904100       0.887050
    15491.866800       0.886052
    15515.903800       0.885066
    15540.015500       0.884093
    15564.202300       0.883132
    15588.464500       0.882185
    15612.802500       0.881251
    15637.216600       0.880331
    15661.707100       0.879424
    15686.274500       0.878531
    15710.919100       0.877652
    15735.641200       0.876786
    15760.441300       0.875935
    15785.319700       0.875099
    15810.276700       0.874276
    15835.312700       0.873468
    15860.428200       0.872675
    15885.623500       0.871897
    15910.899000       0.871133
    15936.255000       0.870384
    15961.691900       0.869650
    15987.210200       0.868931
    16012.810200       0.868227
    16038.492400       0.867538
    16064.257000       0.866864
    16090.104600       0.866205
    16116.035500       0.865561
    16142.050000       0.864932
    16168.148700       0.864318
    16194.332000       0.863720
    16220.600200       0.863136
    16246.953700       0.862567
    16273.393000       0.862014
    16299.918500       0.861475
    16326.530600       0.860951
    16353.229800       0.860442
    16380.016400       0.859947
    16406.890900       0.859467
    16433.853700       0.859001
    16460.905300       0.858550
    16488.046200       0.858113
    16515.276600       0.857690
    16542.597200       0.857280
    16570.008300       0.856885
    16597.510400       0.856503
    16625.103900       0.856135
    16652.789300       0.855780
    16680.567100       0.855438
    16708.437800       0.855108
    16736.401700       0.854792
    16764.459300       0.854487
    16792.611300       0.854195
    16820.857900       0.853915
    16849.199700       0.853646
    16877.637100       0.853389
    16906.170800       0.853143
    16934.801000       0.852907
    16963.528400       0.852682
    16992.353400       0.852467
    17021.276600       0.852262
    17050.298400       0.852067
    17079.419300       0.851881
    17108.639900       0.851703
    17137.960600       0.851534
    17167.382000       0.851373
    17196.904600       0.851220
    17226.528900       0.851074
    17256.255400       0.850934
    17286.084700       0.850802
