20,   20, MVIRI VIS channel from srf_MET5_1993258_1993259_1801-Release_S10EL_10.dat
Number of data points:
806
Wavenumber (cm-1)   Filter response
     8350.730700       0.000000
     8357.710000       0.000000
     8364.701000       0.000000
     8371.703600       0.000001
     8378.718100       0.000004
     8385.744200       0.000009
     8392.782200       0.000016
     8399.832000       0.000026
     8406.893700       0.000040
     8413.967200       0.000058
     8421.052600       0.000081
     8428.150000       0.000108
     8435.259400       0.000141
     8442.380800       0.000180
     8449.514200       0.000225
     8456.659600       0.000277
     8463.817200       0.000336
     8470.986900       0.000402
     8478.168700       0.000476
     8485.362700       0.000559
     8492.569000       0.000650
     8499.787500       0.000749
     8507.018300       0.000858
     8514.261400       0.000976
     8521.516800       0.001104
     8528.784600       0.001242
     8536.064900       0.001390
     8543.357500       0.001549
     8550.662700       0.001718
     8557.980300       0.001899
     8565.310500       0.002091
     8572.653200       0.002294
     8580.008600       0.002509
     8587.376600       0.002736
     8594.757200       0.002975
     8602.150500       0.003227
     8609.556600       0.003491
     8616.975400       0.003768
     8624.407100       0.004058
     8631.851500       0.004361
     8639.308900       0.004678
     8646.779100       0.005008
     8654.262200       0.005351
     8661.758300       0.005709
     8669.267400       0.006080
     8676.789600       0.006466
     8684.324800       0.006866
     8691.873100       0.007280
     8699.434500       0.007710
     8707.009100       0.008153
     8714.596900       0.008612
     8722.198000       0.009086
     8729.812300       0.009575
     8737.439900       0.010079
     8745.080900       0.010599
     8752.735200       0.011134
     8760.403000       0.011685
     8768.084200       0.012251
     8775.778900       0.012834
     8783.487000       0.013433
     8791.208800       0.014047
     8798.944100       0.014679
     8806.693100       0.015326
     8814.455700       0.015990
     8822.232000       0.016671
     8830.022100       0.017369
     8837.825900       0.018083
     8845.643500       0.018815
     8853.475000       0.019563
     8861.320300       0.020329
     8869.179600       0.021112
     8877.052800       0.021912
     8884.940000       0.022730
     8892.841300       0.023566
     8900.756600       0.024419
     8908.686000       0.025291
     8916.629500       0.026180
     8924.587200       0.027087
     8932.559200       0.028012
     8940.545400       0.028956
     8948.545900       0.029918
     8956.560700       0.030898
     8964.589900       0.031898
     8972.633500       0.032915
     8980.691500       0.033952
     8988.764000       0.035007
     8996.851100       0.036082
     9004.952700       0.037175
     9013.068900       0.038288
     9021.199800       0.039420
     9029.345400       0.040572
     9037.505600       0.041742
     9045.680700       0.042933
     9053.870500       0.044143
     9062.075200       0.045373
     9070.294800       0.046623
     9078.529300       0.047893
     9086.778700       0.049183
     9095.043200       0.050493
     9103.322700       0.051823
     9111.617300       0.053174
     9119.927000       0.054545
     9128.251900       0.055937
     9136.592100       0.057350
     9144.947400       0.058783
     9153.318100       0.060237
     9161.704100       0.061712
     9170.105500       0.063208
     9178.522300       0.064726
     9186.954500       0.066264
     9195.402300       0.067824
     9203.865600       0.069404
     9212.344500       0.071007
     9220.839100       0.072631
     9229.349300       0.074277
     9237.875300       0.075944
     9246.417000       0.077634
     9254.974500       0.079345
     9263.547900       0.081078
     9272.137200       0.082833
     9280.742500       0.084611
     9289.363700       0.086410
     9298.000900       0.088232
     9306.654300       0.090076
     9315.323700       0.091942
     9324.009300       0.093831
     9332.711200       0.095743
     9341.429200       0.097677
     9350.163600       0.099634
     9358.914400       0.101613
     9367.681500       0.103615
     9376.465100       0.105641
     9385.265100       0.107688
     9394.081700       0.109760
     9402.914900       0.111853
     9411.764700       0.113971
     9420.631200       0.116111
     9429.514400       0.118274
     9438.414300       0.120460
     9447.331100       0.122670
     9456.264800       0.124903
     9465.215300       0.127159
     9474.182900       0.129439
     9483.167400       0.131742
     9492.169000       0.134068
     9501.187600       0.136418
     9510.223500       0.138791
     9519.276500       0.141187
     9528.346800       0.143608
     9537.434400       0.146051
     9546.539400       0.148518
     9555.661700       0.151008
     9564.801500       0.153522
     9573.958800       0.156060
     9583.133700       0.158621
     9592.326100       0.161205
     9601.536200       0.163813
     9610.764100       0.166444
     9620.009600       0.169098
     9629.273000       0.171777
     9638.554200       0.174478
     9647.853400       0.177203
     9657.170400       0.179951
     9666.505600       0.182722
     9675.858700       0.185517
     9685.230000       0.188335
     9694.619500       0.191176
     9704.027200       0.194040
     9713.453100       0.196927
     9722.897400       0.199837
     9732.360100       0.202770
     9741.841200       0.205726
     9751.340800       0.208705
     9760.859000       0.211706
     9770.395700       0.214731
     9779.951100       0.217777
     9789.525200       0.220846
     9799.118100       0.223938
     9808.729800       0.227052
     9818.360300       0.230188
     9828.009800       0.233346
     9837.678300       0.236527
     9847.365800       0.239729
     9857.072400       0.242953
     9866.798200       0.246198
     9876.543200       0.249465
     9886.307500       0.252754
     9896.091000       0.256064
     9905.894000       0.259395
     9915.716400       0.262747
     9925.558300       0.266120
     9935.419800       0.269514
     9945.300800       0.272928
     9955.201600       0.276363
     9965.122100       0.279818
     9975.062300       0.283293
     9985.022500       0.286788
     9995.002500       0.290303
    10005.002500       0.293837
    10015.022500       0.297391
    10025.062700       0.300964
    10035.122900       0.304556
    10045.203400       0.308167
    10055.304200       0.311797
    10065.425300       0.315445
    10075.566800       0.319112
    10085.728700       0.322796
    10095.911200       0.326499
    10106.114200       0.330219
    10116.337900       0.333956
    10126.582300       0.337710
    10136.847400       0.341482
    10147.133400       0.345270
    10157.440300       0.349075
    10167.768200       0.352896
    10178.117000       0.356733
    10188.487000       0.360585
    10198.878100       0.364454
    10209.290500       0.368337
    10219.724100       0.372235
    10230.179000       0.376149
    10240.655400       0.380076
    10251.153300       0.384018
    10261.672700       0.387974
    10272.213700       0.391943
    10282.776300       0.395926
    10293.360800       0.399921
    10303.967000       0.403930
    10314.595200       0.407951
    10325.245200       0.411984
    10335.917300       0.416029
    10346.611500       0.420086
    10357.327800       0.424154
    10368.066400       0.428232
    10378.827200       0.432322
    10389.610400       0.436422
    10400.416000       0.440532
    10411.244100       0.444651
    10422.094800       0.448780
    10432.968200       0.452918
    10443.864200       0.457065
    10454.783100       0.461220
    10465.724800       0.465383
    10476.689400       0.469554
    10487.677000       0.473732
    10498.687700       0.477918
    10509.721500       0.482109
    10520.778500       0.486308
    10531.858900       0.490512
    10542.962600       0.494722
    10554.089700       0.498937
    10565.240400       0.503156
    10576.414600       0.507381
    10587.612500       0.511609
    10598.834100       0.515842
    10610.079600       0.520078
    10621.348900       0.524317
    10632.642200       0.528558
    10643.959600       0.532802
    10655.301000       0.537048
    10666.666700       0.541295
    10678.056600       0.545544
    10689.470900       0.549793
    10700.909600       0.554043
    10712.372800       0.558293
    10723.860600       0.562542
    10735.373100       0.566791
    10746.910300       0.571038
    10758.472300       0.575284
    10770.059200       0.579528
    10781.671200       0.583770
    10793.308100       0.588009
    10804.970300       0.592245
    10816.657700       0.596478
    10828.370300       0.600706
    10840.108400       0.604930
    10851.871900       0.609150
    10863.661100       0.613365
    10875.475800       0.617574
    10887.316300       0.621777
    10899.182600       0.625974
    10911.074700       0.630164
    10922.992900       0.634347
    10934.937100       0.638523
    10946.907500       0.642691
    10958.904100       0.646851
    10970.927000       0.651002
    10982.976400       0.655144
    10995.052200       0.659276
    11007.154700       0.663398
    11019.283700       0.667511
    11031.439600       0.671613
    11043.622300       0.675703
    11055.832000       0.679782
    11068.068600       0.683849
    11080.332400       0.687905
    11092.623400       0.691947
    11104.941700       0.695977
    11117.287400       0.699993
    11129.660500       0.703995
    11142.061300       0.707983
    11154.489700       0.711957
    11166.945800       0.715915
    11179.429800       0.719858
    11191.941800       0.723786
    11204.481800       0.727697
    11217.049900       0.731592
    11229.646300       0.735470
    11242.270900       0.739331
    11254.924000       0.743175
    11267.605600       0.747000
    11280.315800       0.750807
    11293.054800       0.754595
    11305.822500       0.758364
    11318.619100       0.762114
    11331.444800       0.765844
    11344.299500       0.769554
    11357.183400       0.773243
    11370.096600       0.776912
    11383.039300       0.780559
    11396.011400       0.784184
    11409.013100       0.787788
    11422.044500       0.791370
    11435.105800       0.794929
    11448.196900       0.798465
    11461.318100       0.801978
    11474.469300       0.805467
    11487.650800       0.808932
    11500.862600       0.812374
    11514.104800       0.815790
    11527.377500       0.819182
    11540.680900       0.822549
    11554.015000       0.825890
    11567.380000       0.829206
    11580.775900       0.832495
    11594.202900       0.835758
    11607.661100       0.838994
    11621.150500       0.842204
    11634.671300       0.845386
    11648.223600       0.848541
    11661.807600       0.851668
    11675.423200       0.854767
    11689.070700       0.857837
    11702.750100       0.860879
    11716.461600       0.863893
    11730.205300       0.866877
    11743.981200       0.869832
    11757.789500       0.872757
    11771.630400       0.875652
    11785.503800       0.878518
    11799.410000       0.881353
    11813.349100       0.884158
    11827.321100       0.886931
    11841.326200       0.889674
    11855.364600       0.892386
    11869.436200       0.895067
    11883.541300       0.897716
    11897.680000       0.900333
    11911.852300       0.902918
    11926.058400       0.905471
    11940.298500       0.907992
    11954.572600       0.910480
    11968.880900       0.912936
    11983.223500       0.915359
    11997.600500       0.917748
    12012.012000       0.920105
    12026.458200       0.922429
    12040.939200       0.924719
    12055.455100       0.926975
    12070.006000       0.929198
    12084.592100       0.931387
    12099.213600       0.933542
    12113.870400       0.935664
    12128.562800       0.937750
    12143.290800       0.939803
    12158.054700       0.941822
    12172.854500       0.943806
    12187.690400       0.945755
    12202.562500       0.947670
    12217.471000       0.949550
    12232.415900       0.951396
    12247.397400       0.953206
    12262.415700       0.954982
    12277.470800       0.956723
    12292.563000       0.958429
    12307.692300       0.960100
    12322.858900       0.961736
    12338.062900       0.963337
    12353.304500       0.964903
    12368.583800       0.966433
    12383.900900       0.967929
    12399.256000       0.969390
    12414.649300       0.970816
    12430.080800       0.972206
    12445.550700       0.973562
    12461.059200       0.974882
    12476.606400       0.976168
    12492.192400       0.977418
    12507.817400       0.978634
    12523.481500       0.979815
    12539.185000       0.980961
    12554.927800       0.982072
    12570.710200       0.983148
    12586.532400       0.984190
    12602.394500       0.985198
    12618.296500       0.986171
    12634.238800       0.987109
    12650.221400       0.988014
    12666.244500       0.988884
    12682.308200       0.989720
    12698.412700       0.990522
    12714.558200       0.991290
    12730.744700       0.992025
    12746.972600       0.992726
    12763.241900       0.993394
    12779.552700       0.994028
    12795.905300       0.994630
    12812.299800       0.995198
    12828.736400       0.995733
    12845.215200       0.996236
    12861.736300       0.996707
    12878.300100       0.997145
    12894.906500       0.997551
    12911.555800       0.997925
    12928.248200       0.998267
    12944.983800       0.998578
    12961.762800       0.998857
    12978.585300       0.999106
    12995.451600       0.999323
    13012.361700       0.999510
    13029.316000       0.999666
    13046.314400       0.999793
    13063.357300       0.999889
    13080.444700       0.999955
    13097.576900       0.999992
    13114.754100       1.000000
    13131.976400       0.999979
    13149.243900       0.999929
    13166.556900       0.999850
    13183.915600       0.999744
    13201.320100       0.999610
    13218.770700       0.999448
    13236.267400       0.999258
    13253.810500       0.999042
    13271.400100       0.998799
    13289.036500       0.998529
    13306.719900       0.998234
    13324.450400       0.997912
    13342.228200       0.997565
    13360.053400       0.997193
    13377.926400       0.996796
    13395.847300       0.996375
    13413.816200       0.995929
    13431.833400       0.995459
    13449.899100       0.994966
    13468.013500       0.994450
    13486.176700       0.993911
    13504.388900       0.993349
    13522.650400       0.992766
    13540.961400       0.992160
    13559.322000       0.991533
    13577.732500       0.990885
    13596.193100       0.990216
    13614.703900       0.989527
    13633.265200       0.988819
    13651.877100       0.988090
    13670.540000       0.987342
    13689.253900       0.986576
    13708.019200       0.985791
    13726.836000       0.984988
    13745.704500       0.984167
    13764.624900       0.983329
    13783.597500       0.982475
    13802.622500       0.981603
    13821.700100       0.980716
    13840.830400       0.979813
    13860.013900       0.978895
    13879.250500       0.977962
    13898.540700       0.977014
    13917.884500       0.976053
    13937.282200       0.975077
    13956.734100       0.974089
    13976.240400       0.973088
    13995.801300       0.972074
    14015.417000       0.971048
    14035.087700       0.970011
    14054.813800       0.968962
    14074.595400       0.967903
    14094.432700       0.966833
    14114.326000       0.965754
    14134.275600       0.964665
    14154.281700       0.963567
    14174.344400       0.962460
    14194.464200       0.961345
    14214.641100       0.960222
    14234.875400       0.959092
    14255.167500       0.957955
    14275.517500       0.956811
    14295.925700       0.955661
    14316.392300       0.954506
    14336.917600       0.953345
    14357.501800       0.952179
    14378.145200       0.951009
    14398.848100       0.949834
    14419.610700       0.948656
    14440.433200       0.947475
    14461.316000       0.946291
    14482.259200       0.945104
    14503.263200       0.943915
    14524.328200       0.942725
    14545.454500       0.941534
    14566.642400       0.940341
    14587.892000       0.939149
    14609.203800       0.937956
    14630.577900       0.936764
    14652.014700       0.935572
    14673.514300       0.934382
    14695.077100       0.933193
    14716.703500       0.932006
    14738.393500       0.930821
    14760.147600       0.929639
    14781.966000       0.928460
    14803.849000       0.927285
    14825.796900       0.926113
    14847.809900       0.924945
    14869.888500       0.923783
    14892.032800       0.922624
    14914.243100       0.921471
    14936.519800       0.920324
    14958.863100       0.919183
    14981.273400       0.918048
    15003.750900       0.916919
    15026.296000       0.915798
    15048.909000       0.914683
    15071.590100       0.913577
    15094.339600       0.912478
    15117.158000       0.911387
    15140.045400       0.910305
    15163.002300       0.909232
    15186.028900       0.908168
    15209.125500       0.907113
    15232.292500       0.906068
    15255.530100       0.905033
    15278.838800       0.904008
    15302.218800       0.902994
    15325.670500       0.901990
    15349.194200       0.900998
    15372.790200       0.900017
    15396.458800       0.899047
    15420.200500       0.898089
    15444.015400       0.897143
    15467.904100       0.896210
    15491.866800       0.895288
    15515.903800       0.894380
    15540.015500       0.893484
    15564.202300       0.892601
    15588.464500       0.891732
    15612.802500       0.890876
    15637.216600       0.890033
    15661.707100       0.889205
    15686.274500       0.888390
    15710.919100       0.887589
    15735.641200       0.886803
    15760.441300       0.886030
    15785.319700       0.885272
    15810.276700       0.884529
    15835.312700       0.883801
    15860.428200       0.883087
    15885.623500       0.882388
    15910.899000       0.881704
    15936.255000       0.881036
    15961.691900       0.880382
    15987.210200       0.879743
    16012.810200       0.879120
    16038.492400       0.878512
    16064.257000       0.877919
    16090.104600       0.877342
    16116.035500       0.876780
    16142.050000       0.876233
    16168.148700       0.875701
    16194.332000       0.875185
    16220.600200       0.874684
    16246.953700       0.874199
    16273.393000       0.873728
    16299.918500       0.873273
    16326.530600       0.872833
    16353.229800       0.872408
    16380.016400       0.871997
    16406.890900       0.871602
    16433.853700       0.871221
    16460.905300       0.870855
    16488.046200       0.870504
    16515.276600       0.870167
    16542.597200       0.869844
    16570.008300       0.869535
    16597.510400       0.869240
    16625.103900       0.868958
    16652.789300       0.868691
    16680.567100       0.868436
    16708.437800       0.868195
    16736.401700       0.867967
    16764.459300       0.867751
    16792.611300       0.867548
    16820.857900       0.867357
    16849.199700       0.867177
    16877.637100       0.867010
    16906.170800       0.866854
    16934.801000       0.866709
    16963.528400       0.866575
    16992.353400       0.866451
    17021.276600       0.866338
    17050.298400       0.866234
    17079.419300       0.866140
    17108.639900       0.866055
    17137.960600       0.865978
    17167.382000       0.865910
    17196.904600       0.865850
    17226.528900       0.865798
    17256.255400       0.865752
    17286.084700       0.865714
