16,   16, MVIRI VIS channel from srf_MET7_1999213_1999214_1801-Release_S10EE_10.dat
Number of data points:
793
Wavenumber (cm-1)   Filter response
     8442.380800       0.000000
     8449.514200       0.000000
     8456.659600       0.000004
     8463.817200       0.000052
     8470.986900       0.000155
     8478.168700       0.000309
     8485.362700       0.000515
     8492.569000       0.000770
     8499.787500       0.001073
     8507.018300       0.001422
     8514.261400       0.001817
     8521.516800       0.002256
     8528.784600       0.002738
     8536.064900       0.003261
     8543.357500       0.003825
     8550.662700       0.004428
     8557.980300       0.005069
     8565.310500       0.005747
     8572.653200       0.006462
     8580.008600       0.007212
     8587.376600       0.007997
     8594.757200       0.008815
     8602.150500       0.009666
     8609.556600       0.010549
     8616.975400       0.011463
     8624.407100       0.012408
     8631.851500       0.013382
     8639.308900       0.014386
     8646.779100       0.015417
     8654.262200       0.016477
     8661.758300       0.017564
     8669.267400       0.018678
     8676.789600       0.019818
     8684.324800       0.020983
     8691.873100       0.022174
     8699.434500       0.023390
     8707.009100       0.024630
     8714.596900       0.025894
     8722.198000       0.027182
     8729.812300       0.028493
     8737.439900       0.029827
     8745.080900       0.031183
     8752.735200       0.032562
     8760.403000       0.033963
     8768.084200       0.035386
     8775.778900       0.036830
     8783.487000       0.038296
     8791.208800       0.039783
     8798.944100       0.041291
     8806.693100       0.042820
     8814.455700       0.044369
     8822.232000       0.045939
     8830.022100       0.047530
     8837.825900       0.049140
     8845.643500       0.050772
     8853.475000       0.052423
     8861.320300       0.054094
     8869.179600       0.055786
     8877.052800       0.057497
     8884.940000       0.059228
     8892.841300       0.060979
     8900.756600       0.062751
     8908.686000       0.064542
     8916.629500       0.066353
     8924.587200       0.068184
     8932.559200       0.070035
     8940.545400       0.071906
     8948.545900       0.073797
     8956.560700       0.075707
     8964.589900       0.077638
     8972.633500       0.079589
     8980.691500       0.081561
     8988.764000       0.083553
     8996.851100       0.085565
     9004.952700       0.087597
     9013.068900       0.089650
     9021.199800       0.091723
     9029.345400       0.093817
     9037.505600       0.095932
     9045.680700       0.098068
     9053.870500       0.100224
     9062.075200       0.102401
     9070.294800       0.104600
     9078.529300       0.106820
     9086.778700       0.109061
     9095.043200       0.111323
     9103.322700       0.113607
     9111.617300       0.115912
     9119.927000       0.118239
     9128.251900       0.120588
     9136.592100       0.122958
     9144.947400       0.125351
     9153.318100       0.127765
     9161.704100       0.130202
     9170.105500       0.132661
     9178.522300       0.135142
     9186.954500       0.137646
     9195.402300       0.140172
     9203.865600       0.142720
     9212.344500       0.145292
     9220.839100       0.147886
     9229.349300       0.150502
     9237.875300       0.153142
     9246.417000       0.155804
     9254.974500       0.158490
     9263.547900       0.161198
     9272.137200       0.163930
     9280.742500       0.166685
     9289.363700       0.169463
     9298.000900       0.172264
     9306.654300       0.175089
     9315.323700       0.177936
     9324.009300       0.180808
     9332.711200       0.183703
     9341.429200       0.186621
     9350.163600       0.189562
     9358.914400       0.192527
     9367.681500       0.195516
     9376.465100       0.198528
     9385.265100       0.201563
     9394.081700       0.204622
     9402.914900       0.207704
     9411.764700       0.210810
     9420.631200       0.213939
     9429.514400       0.217091
     9438.414300       0.220267
     9447.331100       0.223466
     9456.264800       0.226688
     9465.215300       0.229934
     9474.182900       0.233202
     9483.167400       0.236494
     9492.169000       0.239808
     9501.187600       0.243146
     9510.223500       0.246506
     9519.276500       0.249889
     9528.346800       0.253295
     9537.434400       0.256724
     9546.539400       0.260174
     9555.661700       0.263647
     9564.801500       0.267143
     9573.958800       0.270660
     9583.133700       0.274200
     9592.326100       0.277760
     9601.536200       0.281343
     9610.764100       0.284948
     9620.009600       0.288573
     9629.273000       0.292220
     9638.554200       0.295888
     9647.853400       0.299577
     9657.170400       0.303286
     9666.505600       0.307016
     9675.858700       0.310767
     9685.230000       0.314537
     9694.619500       0.318327
     9704.027200       0.322137
     9713.453100       0.325966
     9722.897400       0.329815
     9732.360100       0.333682
     9741.841200       0.337569
     9751.340800       0.341473
     9760.859000       0.345397
     9770.395700       0.349338
     9779.951100       0.353297
     9789.525200       0.357274
     9799.118100       0.361267
     9808.729800       0.365278
     9818.360300       0.369305
     9828.009800       0.373349
     9837.678300       0.377409
     9847.365800       0.381485
     9857.072400       0.385576
     9866.798200       0.389682
     9876.543200       0.393803
     9886.307500       0.397939
     9896.091000       0.402090
     9905.894000       0.406253
     9915.716400       0.410431
     9925.558300       0.414622
     9935.419800       0.418826
     9945.300800       0.423042
     9955.201600       0.427271
     9965.122100       0.431511
     9975.062300       0.435763
     9985.022500       0.440026
     9995.002500       0.444300
    10005.002500       0.448585
    10015.022500       0.452879
    10025.062700       0.457183
    10035.122900       0.461496
    10045.203400       0.465818
    10055.304200       0.470149
    10065.425300       0.474488
    10075.566800       0.478834
    10085.728700       0.483188
    10095.911200       0.487549
    10106.114200       0.491916
    10116.337900       0.496289
    10126.582300       0.500668
    10136.847400       0.505053
    10147.133400       0.509442
    10157.440300       0.513835
    10167.768200       0.518233
    10178.117000       0.522634
    10188.487000       0.527038
    10198.878100       0.531445
    10209.290500       0.535854
    10219.724100       0.540265
    10230.179000       0.544678
    10240.655400       0.549091
    10251.153300       0.553505
    10261.672700       0.557919
    10272.213700       0.562333
    10282.776300       0.566746
    10293.360800       0.571158
    10303.967000       0.575568
    10314.595200       0.579976
    10325.245200       0.584381
    10335.917300       0.588783
    10346.611500       0.593182
    10357.327800       0.597577
    10368.066400       0.601967
    10378.827200       0.606353
    10389.610400       0.610733
    10400.416000       0.615108
    10411.244100       0.619476
    10422.094800       0.623838
    10432.968200       0.628192
    10443.864200       0.632539
    10454.783100       0.636878
    10465.724800       0.641209
    10476.689400       0.645530
    10487.677000       0.649842
    10498.687700       0.654145
    10509.721500       0.658437
    10520.778500       0.662718
    10531.858900       0.666988
    10542.962600       0.671246
    10554.089700       0.675493
    10565.240400       0.679726
    10576.414600       0.683947
    10587.612500       0.688155
    10598.834100       0.692348
    10610.079600       0.696528
    10621.348900       0.700692
    10632.642200       0.704841
    10643.959600       0.708975
    10655.301000       0.713093
    10666.666700       0.717194
    10678.056600       0.721278
    10689.470900       0.725345
    10700.909600       0.729394
    10712.372800       0.733425
    10723.860600       0.737438
    10735.373100       0.741431
    10746.910300       0.745405
    10758.472300       0.749359
    10770.059200       0.753293
    10781.671200       0.757206
    10793.308100       0.761099
    10804.970300       0.764969
    10816.657700       0.768818
    10828.370300       0.772645
    10840.108400       0.776449
    10851.871900       0.780230
    10863.661100       0.783988
    10875.475800       0.787722
    10887.316300       0.791431
    10899.182600       0.795116
    10911.074700       0.798777
    10922.992900       0.802412
    10934.937100       0.806021
    10946.907500       0.809605
    10958.904100       0.813162
    10970.927000       0.816693
    10982.976400       0.820196
    10995.052200       0.823673
    11007.154700       0.827121
    11019.283700       0.830542
    11031.439600       0.833934
    11043.622300       0.837298
    11055.832000       0.840633
    11068.068600       0.843938
    11080.332400       0.847214
    11092.623400       0.850460
    11104.941700       0.853676
    11117.287400       0.856862
    11129.660500       0.860017
    11142.061300       0.863141
    11154.489700       0.866233
    11166.945800       0.869294
    11179.429800       0.872324
    11191.941800       0.875321
    11204.481800       0.878286
    11217.049900       0.881218
    11229.646300       0.884118
    11242.270900       0.886985
    11254.924000       0.889818
    11267.605600       0.892618
    11280.315800       0.895384
    11293.054800       0.898117
    11305.822500       0.900815
    11318.619100       0.903479
    11331.444800       0.906108
    11344.299500       0.908703
    11357.183400       0.911263
    11370.096600       0.913788
    11383.039300       0.916278
    11396.011400       0.918732
    11409.013100       0.921151
    11422.044500       0.923534
    11435.105800       0.925881
    11448.196900       0.928193
    11461.318100       0.930468
    11474.469300       0.932707
    11487.650800       0.934910
    11500.862600       0.937076
    11514.104800       0.939206
    11527.377500       0.941299
    11540.680900       0.943355
    11554.015000       0.945375
    11567.380000       0.947358
    11580.775900       0.949304
    11594.202900       0.951212
    11607.661100       0.953084
    11621.150500       0.954918
    11634.671300       0.956715
    11648.223600       0.958475
    11661.807600       0.960198
    11675.423200       0.961883
    11689.070700       0.963531
    11702.750100       0.965142
    11716.461600       0.966715
    11730.205300       0.968251
    11743.981200       0.969750
    11757.789500       0.971211
    11771.630400       0.972635
    11785.503800       0.974022
    11799.410000       0.975371
    11813.349100       0.976684
    11827.321100       0.977959
    11841.326200       0.979197
    11855.364600       0.980397
    11869.436200       0.981561
    11883.541300       0.982688
    11897.680000       0.983778
    11911.852300       0.984831
    11926.058400       0.985848
    11940.298500       0.986828
    11954.572600       0.987771
    11968.880900       0.988678
    11983.223500       0.989549
    11997.600500       0.990384
    12012.012000       0.991183
    12026.458200       0.991945
    12040.939200       0.992672
    12055.455100       0.993364
    12070.006000       0.994020
    12084.592100       0.994641
    12099.213600       0.995226
    12113.870400       0.995777
    12128.562800       0.996293
    12143.290800       0.996774
    12158.054700       0.997221
    12172.854500       0.997634
    12187.690400       0.998013
    12202.562500       0.998358
    12217.471000       0.998670
    12232.415900       0.998948
    12247.397400       0.999193
    12262.415700       0.999405
    12277.470800       0.999584
    12292.563000       0.999731
    12307.692300       0.999846
    12322.858900       0.999929
    12338.062900       0.999980
    12353.304500       1.000000
    12368.583800       0.999989
    12383.900900       0.999947
    12399.256000       0.999874
    12414.649300       0.999771
    12430.080800       0.999638
    12445.550700       0.999475
    12461.059200       0.999283
    12476.606400       0.999062
    12492.192400       0.998812
    12507.817400       0.998534
    12523.481500       0.998227
    12539.185000       0.997893
    12554.927800       0.997531
    12570.710200       0.997142
    12586.532400       0.996726
    12602.394500       0.996284
    12618.296500       0.995815
    12634.238800       0.995321
    12650.221400       0.994801
    12666.244500       0.994256
    12682.308200       0.993687
    12698.412700       0.993093
    12714.558200       0.992475
    12730.744700       0.991834
    12746.972600       0.991169
    12763.241900       0.990482
    12779.552700       0.989772
    12795.905300       0.989040
    12812.299800       0.988286
    12828.736400       0.987511
    12845.215200       0.986715
    12861.736300       0.985899
    12878.300100       0.985062
    12894.906500       0.984206
    12911.555800       0.983331
    12928.248200       0.982437
    12944.983800       0.981524
    12961.762800       0.980593
    12978.585300       0.979645
    12995.451600       0.978680
    13012.361700       0.977698
    13029.316000       0.976699
    13046.314400       0.975685
    13063.357300       0.974655
    13080.444700       0.973611
    13097.576900       0.972551
    13114.754100       0.971478
    13131.976400       0.970391
    13149.243900       0.969290
    13166.556900       0.968177
    13183.915600       0.967051
    13201.320100       0.965914
    13218.770700       0.964765
    13236.267400       0.963605
    13253.810500       0.962434
    13271.400100       0.961253
    13289.036500       0.960063
    13306.719900       0.958863
    13324.450400       0.957654
    13342.228200       0.956437
    13360.053400       0.955213
    13377.926400       0.953981
    13395.847300       0.952741
    13413.816200       0.951496
    13431.833400       0.950244
    13449.899100       0.948986
    13468.013500       0.947724
    13486.176700       0.946457
    13504.388900       0.945185
    13522.650400       0.943910
    13540.961400       0.942631
    13559.322000       0.941349
    13577.732500       0.940065
    13596.193100       0.938779
    13614.703900       0.937491
    13633.265200       0.936202
    13651.877100       0.934912
    13670.540000       0.933622
    13689.253900       0.932332
    13708.019200       0.931043
    13726.836000       0.929755
    13745.704500       0.928468
    13764.624900       0.927183
    13783.597500       0.925901
    13802.622500       0.924621
    13821.700100       0.923345
    13840.830400       0.922072
    13860.013900       0.920803
    13879.250500       0.919539
    13898.540700       0.918279
    13917.884500       0.917025
    13937.282200       0.915776
    13956.734100       0.914534
    13976.240400       0.913298
    13995.801300       0.912068
    14015.417000       0.910846
    14035.087700       0.909632
    14054.813800       0.908426
    14074.595400       0.907228
    14094.432700       0.906039
    14114.326000       0.904859
    14134.275600       0.903689
    14154.281700       0.902529
    14174.344400       0.901379
    14194.464200       0.900239
    14214.641100       0.899111
    14234.875400       0.897994
    14255.167500       0.896888
    14275.517500       0.895795
    14295.925700       0.894714
    14316.392300       0.893645
    14336.917600       0.892590
    14357.501800       0.891548
    14378.145200       0.890520
    14398.848100       0.889505
    14419.610700       0.888505
    14440.433200       0.887519
    14461.316000       0.886548
    14482.259200       0.885592
    14503.263200       0.884652
    14524.328200       0.883727
    14545.454500       0.882818
    14566.642400       0.881926
    14587.892000       0.881049
    14609.203800       0.880190
    14630.577900       0.879347
    14652.014700       0.878521
    14673.514300       0.877713
    14695.077100       0.876923
    14716.703500       0.876150
    14738.393500       0.875395
    14760.147600       0.874658
    14781.966000       0.873940
    14803.849000       0.873240
    14825.796900       0.872559
    14847.809900       0.871897
    14869.888500       0.871254
    14892.032800       0.870630
    14914.243100       0.870026
    14936.519800       0.869441
    14958.863100       0.868876
    14981.273400       0.868330
    15003.750900       0.867804
    15026.296000       0.867298
    15048.909000       0.866812
    15071.590100       0.866347
    15094.339600       0.865901
    15117.158000       0.865476
    15140.045400       0.865071
    15163.002300       0.864686
    15186.028900       0.864322
    15209.125500       0.863979
    15232.292500       0.863656
    15255.530100       0.863353
    15278.838800       0.863071
    15302.218800       0.862809
    15325.670500       0.862568
    15349.194200       0.862347
    15372.790200       0.862147
    15396.458800       0.861967
    15420.200500       0.861807
    15444.015400       0.861668
    15467.904100       0.861549
    15491.866800       0.861450
    15515.903800       0.861371
    15540.015500       0.861312
    15564.202300       0.861273
    15588.464500       0.861254
    15612.802500       0.861254
    15637.216600       0.861274
    15661.707100       0.861313
    15686.274500       0.861371
    15710.919100       0.861449
    15735.641200       0.861545
    15760.441300       0.861659
    15785.319700       0.861793
    15810.276700       0.861944
    15835.312700       0.862113
    15860.428200       0.862300
    15885.623500       0.862505
    15910.899000       0.862727
    15936.255000       0.862966
    15961.691900       0.863222
    15987.210200       0.863495
    16012.810200       0.863783
    16038.492400       0.864088
    16064.257000       0.864408
    16090.104600       0.864743
    16116.035500       0.865094
    16142.050000       0.865459
    16168.148700       0.865838
    16194.332000       0.866231
    16220.600200       0.866638
    16246.953700       0.867058
    16273.393000       0.867491
    16299.918500       0.867936
    16326.530600       0.868393
    16353.229800       0.868861
    16380.016400       0.869341
    16406.890900       0.869831
    16433.853700       0.870332
    16460.905300       0.870842
    16488.046200       0.871362
    16515.276600       0.871890
    16542.597200       0.872427
    16570.008300       0.872971
    16597.510400       0.873523
    16625.103900       0.874081
    16652.789300       0.874646
    16680.567100       0.875217
    16708.437800       0.875792
    16736.401700       0.876372
    16764.459300       0.876957
    16792.611300       0.877544
    16820.857900       0.878135
    16849.199700       0.878728
    16877.637100       0.879322
    16906.170800       0.879917
    16934.801000       0.880513
    16963.528400       0.881109
    16992.353400       0.881703
    17021.276600       0.882296
    17050.298400       0.882887
    17079.419300       0.883475
    17108.639900       0.884060
    17137.960600       0.884640
    17167.382000       0.885216
    17196.904600       0.885785
    17226.528900       0.886349
    17256.255400       0.886905
    17286.084700       0.887453
    17316.017300       0.887993
    17346.053800       0.888524
    17376.194600       0.889044
    17406.440400       0.889554
    17436.791600       0.890052
    17467.248900       0.890538
    17497.812800       0.891011
    17528.483800       0.891470
    17559.262500       0.891914
    17590.149500       0.892342
    17621.145400       0.892754
    17652.250700       0.893150
    17683.466000       0.893527
