107,   107, MVIRI VIS channel from srf_MET5_2004213_2004214_1801-Release_S10EL_10.dat
Number of data points:
806
Wavenumber (cm-1)   Filter response
     8350.730700       0.000000
     8357.710000       0.000000
     8364.701000       0.000000
     8371.703600       0.000002
     8378.718100       0.000004
     8385.744200       0.000009
     8392.782200       0.000017
     8399.832000       0.000028
     8406.893700       0.000042
     8413.967200       0.000061
     8421.052600       0.000085
     8428.150000       0.000114
     8435.259400       0.000149
     8442.380800       0.000190
     8449.514200       0.000238
     8456.659600       0.000293
     8463.817200       0.000355
     8470.986900       0.000425
     8478.168700       0.000503
     8485.362700       0.000590
     8492.569000       0.000686
     8499.787500       0.000791
     8507.018300       0.000906
     8514.261400       0.001031
     8521.516800       0.001165
     8528.784600       0.001311
     8536.064900       0.001467
     8543.357500       0.001635
     8550.662700       0.001813
     8557.980300       0.002004
     8565.310500       0.002206
     8572.653200       0.002420
     8580.008600       0.002647
     8587.376600       0.002886
     8594.757200       0.003138
     8602.150500       0.003403
     8609.556600       0.003682
     8616.975400       0.003973
     8624.407100       0.004279
     8631.851500       0.004598
     8639.308900       0.004931
     8646.779100       0.005279
     8654.262200       0.005640
     8661.758300       0.006017
     8669.267400       0.006408
     8676.789600       0.006813
     8684.324800       0.007234
     8691.873100       0.007670
     8699.434500       0.008121
     8707.009100       0.008588
     8714.596900       0.009070
     8722.198000       0.009568
     8729.812300       0.010082
     8737.439900       0.010612
     8745.080900       0.011158
     8752.735200       0.011721
     8760.403000       0.012299
     8768.084200       0.012895
     8775.778900       0.013507
     8783.487000       0.014136
     8791.208800       0.014781
     8798.944100       0.015444
     8806.693100       0.016124
     8814.455700       0.016821
     8822.232000       0.017535
     8830.022100       0.018267
     8837.825900       0.019017
     8845.643500       0.019784
     8853.475000       0.020570
     8861.320300       0.021373
     8869.179600       0.022194
     8877.052800       0.023033
     8884.940000       0.023890
     8892.841300       0.024766
     8900.756600       0.025661
     8908.686000       0.026574
     8916.629500       0.027505
     8924.587200       0.028456
     8932.559200       0.029425
     8940.545400       0.030413
     8948.545900       0.031421
     8956.560700       0.032447
     8964.589900       0.033493
     8972.633500       0.034558
     8980.691500       0.035643
     8988.764000       0.036748
     8996.851100       0.037872
     9004.952700       0.039016
     9013.068900       0.040180
     9021.199800       0.041364
     9029.345400       0.042568
     9037.505600       0.043792
     9045.680700       0.045036
     9053.870500       0.046301
     9062.075200       0.047586
     9070.294800       0.048892
     9078.529300       0.050219
     9086.778700       0.051567
     9095.043200       0.052935
     9103.322700       0.054324
     9111.617300       0.055735
     9119.927000       0.057166
     9128.251900       0.058619
     9136.592100       0.060093
     9144.947400       0.061588
     9153.318100       0.063105
     9161.704100       0.064644
     9170.105500       0.066204
     9178.522300       0.067787
     9186.954500       0.069391
     9195.402300       0.071017
     9203.865600       0.072665
     9212.344500       0.074335
     9220.839100       0.076027
     9229.349300       0.077742
     9237.875300       0.079479
     9246.417000       0.081238
     9254.974500       0.083020
     9263.547900       0.084825
     9272.137200       0.086652
     9280.742500       0.088502
     9289.363700       0.090374
     9298.000900       0.092270
     9306.654300       0.094189
     9315.323700       0.096130
     9324.009300       0.098095
     9332.711200       0.100082
     9341.429200       0.102093
     9350.163600       0.104127
     9358.914400       0.106185
     9367.681500       0.108266
     9376.465100       0.110370
     9385.265100       0.112497
     9394.081700       0.114649
     9402.914900       0.116823
     9411.764700       0.119021
     9420.631200       0.121243
     9429.514400       0.123489
     9438.414300       0.125758
     9447.331100       0.128051
     9456.264800       0.130368
     9465.215300       0.132708
     9474.182900       0.135072
     9483.167400       0.137460
     9492.169000       0.139872
     9501.187600       0.142308
     9510.223500       0.144768
     9519.276500       0.147251
     9528.346800       0.149759
     9537.434400       0.152290
     9546.539400       0.154845
     9555.661700       0.157424
     9564.801500       0.160026
     9573.958800       0.162653
     9583.133700       0.165304
     9592.326100       0.167978
     9601.536200       0.170676
     9610.764100       0.173398
     9620.009600       0.176144
     9629.273000       0.178913
     9638.554200       0.181706
     9647.853400       0.184523
     9657.170400       0.187363
     9666.505600       0.190227
     9675.858700       0.193114
     9685.230000       0.196025
     9694.619500       0.198959
     9704.027200       0.201917
     9713.453100       0.204897
     9722.897400       0.207901
     9732.360100       0.210928
     9741.841200       0.213978
     9751.340800       0.217051
     9760.859000       0.220147
     9770.395700       0.223266
     9779.951100       0.226407
     9789.525200       0.229571
     9799.118100       0.232758
     9808.729800       0.235967
     9818.360300       0.239198
     9828.009800       0.242451
     9837.678300       0.245726
     9847.365800       0.249024
     9857.072400       0.252343
     9866.798200       0.255683
     9876.543200       0.259045
     9886.307500       0.262429
     9896.091000       0.265834
     9905.894000       0.269260
     9915.716400       0.272707
     9925.558300       0.276174
     9935.419800       0.279662
     9945.300800       0.283171
     9955.201600       0.286700
     9965.122100       0.290249
     9975.062300       0.293818
     9985.022500       0.297407
     9995.002500       0.301015
    10005.002500       0.304643
    10015.022500       0.308290
    10025.062700       0.311955
    10035.122900       0.315640
    10045.203400       0.319343
    10055.304200       0.323065
    10065.425300       0.326804
    10075.566800       0.330562
    10085.728700       0.334337
    10095.911200       0.338130
    10106.114200       0.341940
    10116.337900       0.345766
    10126.582300       0.349610
    10136.847400       0.353470
    10147.133400       0.357347
    10157.440300       0.361239
    10167.768200       0.365147
    10178.117000       0.369070
    10188.487000       0.373009
    10198.878100       0.376963
    10209.290500       0.380931
    10219.724100       0.384914
    10230.179000       0.388911
    10240.655400       0.392922
    10251.153300       0.396946
    10261.672700       0.400983
    10272.213700       0.405033
    10282.776300       0.409096
    10293.360800       0.413172
    10303.967000       0.417259
    10314.595200       0.421358
    10325.245200       0.425469
    10335.917300       0.429591
    10346.611500       0.433723
    10357.327800       0.437866
    10368.066400       0.442019
    10378.827200       0.446181
    10389.610400       0.450354
    10400.416000       0.454535
    10411.244100       0.458725
    10422.094800       0.462924
    10432.968200       0.467130
    10443.864200       0.471345
    10454.783100       0.475566
    10465.724800       0.479795
    10476.689400       0.484031
    10487.677000       0.488273
    10498.687700       0.492520
    10509.721500       0.496774
    10520.778500       0.501032
    10531.858900       0.505296
    10542.962600       0.509564
    10554.089700       0.513836
    10565.240400       0.518112
    10576.414600       0.522391
    10587.612500       0.526673
    10598.834100       0.530958
    10610.079600       0.535244
    10621.348900       0.539533
    10632.642200       0.543823
    10643.959600       0.548115
    10655.301000       0.552407
    10666.666700       0.556699
    10678.056600       0.560991
    10689.470900       0.565282
    10700.909600       0.569573
    10712.372800       0.573862
    10723.860600       0.578149
    10735.373100       0.582435
    10746.910300       0.586718
    10758.472300       0.590998
    10770.059200       0.595274
    10781.671200       0.599547
    10793.308100       0.603815
    10804.970300       0.608080
    10816.657700       0.612339
    10828.370300       0.616593
    10840.108400       0.620840
    10851.871900       0.625082
    10863.661100       0.629318
    10875.475800       0.633546
    10887.316300       0.637766
    10899.182600       0.641979
    10911.074700       0.646184
    10922.992900       0.650380
    10934.937100       0.654567
    10946.907500       0.658745
    10958.904100       0.662912
    10970.927000       0.667070
    10982.976400       0.671216
    10995.052200       0.675352
    11007.154700       0.679476
    11019.283700       0.683588
    11031.439600       0.687688
    11043.622300       0.691775
    11055.832000       0.695849
    11068.068600       0.699910
    11080.332400       0.703956
    11092.623400       0.707988
    11104.941700       0.712006
    11117.287400       0.716008
    11129.660500       0.719995
    11142.061300       0.723966
    11154.489700       0.727921
    11166.945800       0.731859
    11179.429800       0.735780
    11191.941800       0.739683
    11204.481800       0.743569
    11217.049900       0.747436
    11229.646300       0.751285
    11242.270900       0.755114
    11254.924000       0.758925
    11267.605600       0.762715
    11280.315800       0.766486
    11293.054800       0.770236
    11305.822500       0.773965
    11318.619100       0.777673
    11331.444800       0.781359
    11344.299500       0.785024
    11357.183400       0.788666
    11370.096600       0.792285
    11383.039300       0.795882
    11396.011400       0.799455
    11409.013100       0.803004
    11422.044500       0.806530
    11435.105800       0.810031
    11448.196900       0.813507
    11461.318100       0.816959
    11474.469300       0.820385
    11487.650800       0.823785
    11500.862600       0.827160
    11514.104800       0.830508
    11527.377500       0.833829
    11540.680900       0.837123
    11554.015000       0.840391
    11567.380000       0.843631
    11580.775900       0.846843
    11594.202900       0.850026
    11607.661100       0.853182
    11621.150500       0.856309
    11634.671300       0.859407
    11648.223600       0.862475
    11661.807600       0.865514
    11675.423200       0.868523
    11689.070700       0.871503
    11702.750100       0.874452
    11716.461600       0.877370
    11730.205300       0.880258
    11743.981200       0.883115
    11757.789500       0.885940
    11771.630400       0.888734
    11785.503800       0.891496
    11799.410000       0.894227
    11813.349100       0.896925
    11827.321100       0.899591
    11841.326200       0.902224
    11855.364600       0.904825
    11869.436200       0.907392
    11883.541300       0.909927
    11897.680000       0.912428
    11911.852300       0.914895
    11926.058400       0.917329
    11940.298500       0.919729
    11954.572600       0.922095
    11968.880900       0.924427
    11983.223500       0.926724
    11997.600500       0.928987
    12012.012000       0.931215
    12026.458200       0.933409
    12040.939200       0.935568
    12055.455100       0.937692
    12070.006000       0.939780
    12084.592100       0.941834
    12099.213600       0.943852
    12113.870400       0.945834
    12128.562800       0.947781
    12143.290800       0.949693
    12158.054700       0.951569
    12172.854500       0.953409
    12187.690400       0.955213
    12202.562500       0.956981
    12217.471000       0.958713
    12232.415900       0.960410
    12247.397400       0.962070
    12262.415700       0.963694
    12277.470800       0.965282
    12292.563000       0.966834
    12307.692300       0.968350
    12322.858900       0.969829
    12338.062900       0.971272
    12353.304500       0.972679
    12368.583800       0.974050
    12383.900900       0.975385
    12399.256000       0.976683
    12414.649300       0.977946
    12430.080800       0.979172
    12445.550700       0.980362
    12461.059200       0.981516
    12476.606400       0.982634
    12492.192400       0.983716
    12507.817400       0.984762
    12523.481500       0.985773
    12539.185000       0.986747
    12554.927800       0.987686
    12570.710200       0.988590
    12586.532400       0.989457
    12602.394500       0.990290
    12618.296500       0.991087
    12634.238800       0.991849
    12650.221400       0.992576
    12666.244500       0.993268
    12682.308200       0.993925
    12698.412700       0.994547
    12714.558200       0.995135
    12730.744700       0.995688
    12746.972600       0.996207
    12763.241900       0.996692
    12779.552700       0.997143
    12795.905300       0.997560
    12812.299800       0.997944
    12828.736400       0.998294
    12845.215200       0.998611
    12861.736300       0.998895
    12878.300100       0.999146
    12894.906500       0.999364
    12911.555800       0.999550
    12928.248200       0.999704
    12944.983800       0.999825
    12961.762800       0.999915
    12978.585300       0.999973
    12995.451600       1.000000
    13012.361700       0.999996
    13029.316000       0.999961
    13046.314400       0.999895
    13063.357300       0.999799
    13080.444700       0.999673
    13097.576900       0.999517
    13114.754100       0.999331
    13131.976400       0.999116
    13149.243900       0.998873
    13166.556900       0.998600
    13183.915600       0.998299
    13201.320100       0.997970
    13218.770700       0.997613
    13236.267400       0.997228
    13253.810500       0.996817
    13271.400100       0.996378
    13289.036500       0.995913
    13306.719900       0.995421
    13324.450400       0.994904
    13342.228200       0.994361
    13360.053400       0.993792
    13377.926400       0.993199
    13395.847300       0.992581
    13413.816200       0.991938
    13431.833400       0.991272
    13449.899100       0.990582
    13468.013500       0.989869
    13486.176700       0.989133
    13504.388900       0.988375
    13522.650400       0.987594
    13540.961400       0.986792
    13559.322000       0.985968
    13577.732500       0.985124
    13596.193100       0.984258
    13614.703900       0.983373
    13633.265200       0.982467
    13651.877100       0.981542
    13670.540000       0.980598
    13689.253900       0.979635
    13708.019200       0.978654
    13726.836000       0.977655
    13745.704500       0.976638
    13764.624900       0.975604
    13783.597500       0.974554
    13802.622500       0.973487
    13821.700100       0.972404
    13840.830400       0.971306
    13860.013900       0.970192
    13879.250500       0.969064
    13898.540700       0.967922
    13917.884500       0.966765
    13937.282200       0.965595
    13956.734100       0.964413
    13976.240400       0.963217
    13995.801300       0.962009
    14015.417000       0.960790
    14035.087700       0.959559
    14054.813800       0.958317
    14074.595400       0.957065
    14094.432700       0.955802
    14114.326000       0.954530
    14134.275600       0.953249
    14154.281700       0.951958
    14174.344400       0.950660
    14194.464200       0.949353
    14214.641100       0.948039
    14234.875400       0.946717
    14255.167500       0.945389
    14275.517500       0.944054
    14295.925700       0.942713
    14316.392300       0.941367
    14336.917600       0.940016
    14357.501800       0.938660
    14378.145200       0.937300
    14398.848100       0.935936
    14419.610700       0.934568
    14440.433200       0.933198
    14461.316000       0.931825
    14482.259200       0.930449
    14503.263200       0.929072
    14524.328200       0.927693
    14545.454500       0.926314
    14566.642400       0.924933
    14587.892000       0.923553
    14609.203800       0.922172
    14630.577900       0.920793
    14652.014700       0.919414
    14673.514300       0.918036
    14695.077100       0.916660
    14716.703500       0.915286
    14738.393500       0.913915
    14760.147600       0.912546
    14781.966000       0.911181
    14803.849000       0.909819
    14825.796900       0.908461
    14847.809900       0.907107
    14869.888500       0.905758
    14892.032800       0.904414
    14914.243100       0.903075
    14936.519800       0.901741
    14958.863100       0.900414
    14981.273400       0.899093
    15003.750900       0.897779
    15026.296000       0.896471
    15048.909000       0.895171
    15071.590100       0.893878
    15094.339600       0.892594
    15117.158000       0.891317
    15140.045400       0.890049
    15163.002300       0.888790
    15186.028900       0.887540
    15209.125500       0.886299
    15232.292500       0.885067
    15255.530100       0.883846
    15278.838800       0.882635
    15302.218800       0.881434
    15325.670500       0.880243
    15349.194200       0.879064
    15372.790200       0.877896
    15396.458800       0.876739
    15420.200500       0.875593
    15444.015400       0.874460
    15467.904100       0.873338
    15491.866800       0.872229
    15515.903800       0.871132
    15540.015500       0.870047
    15564.202300       0.868976
    15588.464500       0.867917
    15612.802500       0.866871
    15637.216600       0.865839
    15661.707100       0.864820
    15686.274500       0.863815
    15710.919100       0.862823
    15735.641200       0.861845
    15760.441300       0.860881
    15785.319700       0.859931
    15810.276700       0.858996
    15835.312700       0.858074
    15860.428200       0.857167
    15885.623500       0.856274
    15910.899000       0.855396
    15936.255000       0.854533
    15961.691900       0.853684
    15987.210200       0.852849
    16012.810200       0.852030
    16038.492400       0.851225
    16064.257000       0.850435
    16090.104600       0.849659
    16116.035500       0.848899
    16142.050000       0.848153
    16168.148700       0.847422
    16194.332000       0.846705
    16220.600200       0.846003
    16246.953700       0.845316
    16273.393000       0.844644
    16299.918500       0.843986
    16326.530600       0.843342
    16353.229800       0.842713
    16380.016400       0.842098
    16406.890900       0.841497
    16433.853700       0.840910
    16460.905300       0.840337
    16488.046200       0.839778
    16515.276600       0.839233
    16542.597200       0.838701
    16570.008300       0.838182
    16597.510400       0.837677
    16625.103900       0.837185
    16652.789300       0.836705
    16680.567100       0.836238
    16708.437800       0.835784
    16736.401700       0.835341
    16764.459300       0.834911
    16792.611300       0.834492
    16820.857900       0.834085
    16849.199700       0.833689
    16877.637100       0.833304
    16906.170800       0.832929
    16934.801000       0.832565
    16963.528400       0.832211
    16992.353400       0.831867
    17021.276600       0.831532
    17050.298400       0.831207
    17079.419300       0.830890
    17108.639900       0.830581
    17137.960600       0.830281
    17167.382000       0.829988
    17196.904600       0.829702
    17226.528900       0.829423
    17256.255400       0.829151
    17286.084700       0.828885
