74,   74, MVIRI VIS channel from srf_MET7_2006303_2006304_1801-Release_S10EE_10.dat
Number of data points:
793
Wavenumber (cm-1)   Filter response
     8442.380800       0.000000
     8449.514200       0.000000
     8456.659600       0.000004
     8463.817200       0.000055
     8470.986900       0.000164
     8478.168700       0.000327
     8485.362700       0.000544
     8492.569000       0.000814
     8499.787500       0.001134
     8507.018300       0.001503
     8514.261400       0.001921
     8521.516800       0.002384
     8528.784600       0.002893
     8536.064900       0.003445
     8543.357500       0.004041
     8550.662700       0.004677
     8557.980300       0.005354
     8565.310500       0.006070
     8572.653200       0.006825
     8580.008600       0.007616
     8587.376600       0.008444
     8594.757200       0.009307
     8602.150500       0.010204
     8609.556600       0.011135
     8616.975400       0.012099
     8624.407100       0.013094
     8631.851500       0.014121
     8639.308900       0.015178
     8646.779100       0.016265
     8654.262200       0.017382
     8661.758300       0.018527
     8669.267400       0.019699
     8676.789600       0.020899
     8684.324800       0.022127
     8691.873100       0.023380
     8699.434500       0.024659
     8707.009100       0.025964
     8714.596900       0.027293
     8722.198000       0.028648
     8729.812300       0.030027
     8737.439900       0.031429
     8745.080900       0.032855
     8752.735200       0.034304
     8760.403000       0.035776
     8768.084200       0.037271
     8775.778900       0.038788
     8783.487000       0.040328
     8791.208800       0.041889
     8798.944100       0.043472
     8806.693100       0.045077
     8814.455700       0.046703
     8822.232000       0.048350
     8830.022100       0.050019
     8837.825900       0.051709
     8845.643500       0.053419
     8853.475000       0.055151
     8861.320300       0.056903
     8869.179600       0.058675
     8877.052800       0.060469
     8884.940000       0.062283
     8892.841300       0.064118
     8900.756600       0.065973
     8908.686000       0.067849
     8916.629500       0.069745
     8924.587200       0.071661
     8932.559200       0.073598
     8940.545400       0.075556
     8948.545900       0.077535
     8956.560700       0.079533
     8964.589900       0.081553
     8972.633500       0.083593
     8980.691500       0.085654
     8988.764000       0.087736
     8996.851100       0.089838
     9004.952700       0.091962
     9013.068900       0.094106
     9021.199800       0.096272
     9029.345400       0.098459
     9037.505600       0.100666
     9045.680700       0.102896
     9053.870500       0.105146
     9062.075200       0.107418
     9070.294800       0.109712
     9078.529300       0.112027
     9086.778700       0.114364
     9095.043200       0.116723
     9103.322700       0.119104
     9111.617300       0.121507
     9119.927000       0.123931
     9128.251900       0.126378
     9136.592100       0.128848
     9144.947400       0.131339
     9153.318100       0.133854
     9161.704100       0.136390
     9170.105500       0.138950
     9178.522300       0.141532
     9186.954500       0.144136
     9195.402300       0.146764
     9203.865600       0.149415
     9212.344500       0.152088
     9220.839100       0.154785
     9229.349300       0.157505
     9237.875300       0.160248
     9246.417000       0.163014
     9254.974500       0.165804
     9263.547900       0.168617
     9272.137200       0.171454
     9280.742500       0.174314
     9289.363700       0.177197
     9298.000900       0.180104
     9306.654300       0.183035
     9315.323700       0.185989
     9324.009300       0.188967
     9332.711200       0.191969
     9341.429200       0.194994
     9350.163600       0.198043
     9358.914400       0.201116
     9367.681500       0.204212
     9376.465100       0.207332
     9385.265100       0.210475
     9394.081700       0.213643
     9402.914900       0.216833
     9411.764700       0.220048
     9420.631200       0.223286
     9429.514400       0.226547
     9438.414300       0.229832
     9447.331100       0.233140
     9456.264800       0.236472
     9465.215300       0.239827
     9474.182900       0.243205
     9483.167400       0.246606
     9492.169000       0.250030
     9501.187600       0.253477
     9510.223500       0.256947
     9519.276500       0.260439
     9528.346800       0.263955
     9537.434400       0.267493
     9546.539400       0.271052
     9555.661700       0.274635
     9564.801500       0.278239
     9573.958800       0.281866
     9583.133700       0.285514
     9592.326100       0.289183
     9601.536200       0.292875
     9610.764100       0.296587
     9620.009600       0.300321
     9629.273000       0.304076
     9638.554200       0.307851
     9647.853400       0.311648
     9657.170400       0.315464
     9666.505600       0.319301
     9675.858700       0.323158
     9685.230000       0.327034
     9694.619500       0.330930
     9704.027200       0.334845
     9713.453100       0.338779
     9722.897400       0.342732
     9732.360100       0.346703
     9741.841200       0.350693
     9751.340800       0.354701
     9760.859000       0.358727
     9770.395700       0.362770
     9779.951100       0.366830
     9789.525200       0.370907
     9799.118100       0.375001
     9808.729800       0.379111
     9818.360300       0.383238
     9828.009800       0.387379
     9837.678300       0.391537
     9847.365800       0.395710
     9857.072400       0.399897
     9866.798200       0.404098
     9876.543200       0.408314
     9886.307500       0.412544
     9896.091000       0.416787
     9905.894000       0.421043
     9915.716400       0.425312
     9925.558300       0.429592
     9935.419800       0.433886
     9945.300800       0.438191
     9955.201600       0.442506
     9965.122100       0.446833
     9975.062300       0.451170
     9985.022500       0.455518
     9995.002500       0.459876
    10005.002500       0.464242
    10015.022500       0.468618
    10025.062700       0.473001
    10035.122900       0.477394
    10045.203400       0.481793
    10055.304200       0.486201
    10065.425300       0.490615
    10075.566800       0.495035
    10085.728700       0.499462
    10095.911200       0.503894
    10106.114200       0.508332
    10116.337900       0.512774
    10126.582300       0.517220
    10136.847400       0.521671
    10147.133400       0.526125
    10157.440300       0.530582
    10167.768200       0.535041
    10178.117000       0.539503
    10188.487000       0.543966
    10198.878100       0.548431
    10209.290500       0.552896
    10219.724100       0.557362
    10230.179000       0.561827
    10240.655400       0.566293
    10251.153300       0.570756
    10261.672700       0.575219
    10272.213700       0.579679
    10282.776300       0.584137
    10293.360800       0.588592
    10303.967000       0.593044
    10314.595200       0.597492
    10325.245200       0.601935
    10335.917300       0.606374
    10346.611500       0.610808
    10357.327800       0.615236
    10368.066400       0.619657
    10378.827200       0.624072
    10389.610400       0.628480
    10400.416000       0.632881
    10411.244100       0.637273
    10422.094800       0.641657
    10432.968200       0.646031
    10443.864200       0.650397
    10454.783100       0.654752
    10465.724800       0.659097
    10476.689400       0.663431
    10487.677000       0.667754
    10498.687700       0.672065
    10509.721500       0.676364
    10520.778500       0.680650
    10531.858900       0.684923
    10542.962600       0.689182
    10554.089700       0.693427
    10565.240400       0.697658
    10576.414600       0.701873
    10587.612500       0.706073
    10598.834100       0.710258
    10610.079600       0.714426
    10621.348900       0.718576
    10632.642200       0.722710
    10643.959600       0.726826
    10655.301000       0.730924
    10666.666700       0.735003
    10678.056600       0.739064
    10689.470900       0.743104
    10700.909600       0.747126
    10712.372800       0.751126
    10723.860600       0.755106
    10735.373100       0.759065
    10746.910300       0.763002
    10758.472300       0.766917
    10770.059200       0.770810
    10781.671200       0.774680
    10793.308100       0.778526
    10804.970300       0.782350
    10816.657700       0.786149
    10828.370300       0.789923
    10840.108400       0.793673
    10851.871900       0.797398
    10863.661100       0.801097
    10875.475800       0.804770
    10887.316300       0.808417
    10899.182600       0.812037
    10911.074700       0.815631
    10922.992900       0.819196
    10934.937100       0.822734
    10946.907500       0.826244
    10958.904100       0.829725
    10970.927000       0.833178
    10982.976400       0.836602
    10995.052200       0.839995
    11007.154700       0.843359
    11019.283700       0.846693
    11031.439600       0.849997
    11043.622300       0.853270
    11055.832000       0.856511
    11068.068600       0.859722
    11080.332400       0.862900
    11092.623400       0.866047
    11104.941700       0.869161
    11117.287400       0.872243
    11129.660500       0.875292
    11142.061300       0.878308
    11154.489700       0.881291
    11166.945800       0.884240
    11179.429800       0.887155
    11191.941800       0.890037
    11204.481800       0.892883
    11217.049900       0.895695
    11229.646300       0.898473
    11242.270900       0.901215
    11254.924000       0.903922
    11267.605600       0.906594
    11280.315800       0.909230
    11293.054800       0.911830
    11305.822500       0.914394
    11318.619100       0.916922
    11331.444800       0.919414
    11344.299500       0.921868
    11357.183400       0.924286
    11370.096600       0.926668
    11383.039300       0.929012
    11396.011400       0.931319
    11409.013100       0.933588
    11422.044500       0.935820
    11435.105800       0.938015
    11448.196900       0.940171
    11461.318100       0.942290
    11474.469300       0.944371
    11487.650800       0.946414
    11500.862600       0.948418
    11514.104800       0.950385
    11527.377500       0.952313
    11540.680900       0.954202
    11554.015000       0.956053
    11567.380000       0.957866
    11580.775900       0.959640
    11594.202900       0.961375
    11607.661100       0.963072
    11621.150500       0.964730
    11634.671300       0.966349
    11648.223600       0.967929
    11661.807600       0.969471
    11675.423200       0.970974
    11689.070700       0.972438
    11702.750100       0.973863
    11716.461600       0.975249
    11730.205300       0.976597
    11743.981200       0.977906
    11757.789500       0.979176
    11771.630400       0.980408
    11785.503800       0.981600
    11799.410000       0.982755
    11813.349100       0.983871
    11827.321100       0.984948
    11841.326200       0.985987
    11855.364600       0.986988
    11869.436200       0.987950
    11883.541300       0.988875
    11897.680000       0.989761
    11911.852300       0.990610
    11926.058400       0.991420
    11940.298500       0.992193
    11954.572600       0.992929
    11968.880900       0.993627
    11983.223500       0.994288
    11997.600500       0.994911
    12012.012000       0.995498
    12026.458200       0.996048
    12040.939200       0.996561
    12055.455100       0.997038
    12070.006000       0.997478
    12084.592100       0.997882
    12099.213600       0.998250
    12113.870400       0.998583
    12128.562800       0.998879
    12143.290800       0.999141
    12158.054700       0.999367
    12172.854500       0.999559
    12187.690400       0.999715
    12202.562500       0.999838
    12217.471000       0.999926
    12232.415900       0.999980
    12247.397400       1.000000
    12262.415700       0.999987
    12277.470800       0.999940
    12292.563000       0.999861
    12307.692300       0.999749
    12322.858900       0.999604
    12338.062900       0.999427
    12353.304500       0.999219
    12368.583800       0.998978
    12383.900900       0.998707
    12399.256000       0.998404
    12414.649300       0.998071
    12430.080800       0.997707
    12445.550700       0.997314
    12461.059200       0.996890
    12476.606400       0.996437
    12492.192400       0.995955
    12507.817400       0.995445
    12523.481500       0.994906
    12539.185000       0.994339
    12554.927800       0.993744
    12570.710200       0.993121
    12586.532400       0.992472
    12602.394500       0.991796
    12618.296500       0.991094
    12634.238800       0.990365
    12650.221400       0.989612
    12666.244500       0.988833
    12682.308200       0.988029
    12698.412700       0.987201
    12714.558200       0.986348
    12730.744700       0.985472
    12746.972600       0.984573
    12763.241900       0.983651
    12779.552700       0.982707
    12795.905300       0.981740
    12812.299800       0.980752
    12828.736400       0.979742
    12845.215200       0.978712
    12861.736300       0.977661
    12878.300100       0.976590
    12894.906500       0.975500
    12911.555800       0.974390
    12928.248200       0.973262
    12944.983800       0.972116
    12961.762800       0.970951
    12978.585300       0.969769
    12995.451600       0.968570
    13012.361700       0.967355
    13029.316000       0.966123
    13046.314400       0.964875
    13063.357300       0.963613
    13080.444700       0.962335
    13097.576900       0.961043
    13114.754100       0.959737
    13131.976400       0.958418
    13149.243900       0.957085
    13166.556900       0.955740
    13183.915600       0.954383
    13201.320100       0.953014
    13218.770700       0.951634
    13236.267400       0.950243
    13253.810500       0.948842
    13271.400100       0.947430
    13289.036500       0.946010
    13306.719900       0.944580
    13324.450400       0.943142
    13342.228200       0.941695
    13360.053400       0.940241
    13377.926400       0.938780
    13395.847300       0.937312
    13413.816200       0.935838
    13431.833400       0.934358
    13449.899100       0.932872
    13468.013500       0.931382
    13486.176700       0.929887
    13504.388900       0.928388
    13522.650400       0.926885
    13540.961400       0.925379
    13559.322000       0.923871
    13577.732500       0.922360
    13596.193100       0.920847
    13614.703900       0.919333
    13633.265200       0.917818
    13651.877100       0.916303
    13670.540000       0.914787
    13689.253900       0.913272
    13708.019200       0.911758
    13726.836000       0.910244
    13745.704500       0.908733
    13764.624900       0.907223
    13783.597500       0.905716
    13802.622500       0.904212
    13821.700100       0.902711
    13840.830400       0.901213
    13860.013900       0.899720
    13879.250500       0.898231
    13898.540700       0.896748
    13917.884500       0.895269
    13937.282200       0.893797
    13956.734100       0.892330
    13976.240400       0.890870
    13995.801300       0.889417
    14015.417000       0.887971
    14035.087700       0.886532
    14054.813800       0.885102
    14074.595400       0.883680
    14094.432700       0.882266
    14114.326000       0.880862
    14134.275600       0.879467
    14154.281700       0.878082
    14174.344400       0.876707
    14194.464200       0.875343
    14214.641100       0.873989
    14234.875400       0.872647
    14255.167500       0.871316
    14275.517500       0.869996
    14295.925700       0.868689
    14316.392300       0.867394
    14336.917600       0.866112
    14357.501800       0.864843
    14378.145200       0.863588
    14398.848100       0.862345
    14419.610700       0.861117
    14440.433200       0.859903
    14461.316000       0.858703
    14482.259200       0.857518
    14503.263200       0.856348
    14524.328200       0.855193
    14545.454500       0.854053
    14566.642400       0.852929
    14587.892000       0.851821
    14609.203800       0.850729
    14630.577900       0.849653
    14652.014700       0.848594
    14673.514300       0.847551
    14695.077100       0.846526
    14716.703500       0.845517
    14738.393500       0.844526
    14760.147600       0.843552
    14781.966000       0.842596
    14803.849000       0.841658
    14825.796900       0.840737
    14847.809900       0.839835
    14869.888500       0.838951
    14892.032800       0.838085
    14914.243100       0.837238
    14936.519800       0.836409
    14958.863100       0.835599
    14981.273400       0.834808
    15003.750900       0.834035
    15026.296000       0.833282
    15048.909000       0.832548
    15071.590100       0.831832
    15094.339600       0.831136
    15117.158000       0.830459
    15140.045400       0.829801
    15163.002300       0.829162
    15186.028900       0.828543
    15209.125500       0.827943
    15232.292500       0.827362
    15255.530100       0.826801
    15278.838800       0.826259
    15302.218800       0.825736
    15325.670500       0.825232
    15349.194200       0.824747
    15372.790200       0.824282
    15396.458800       0.823836
    15420.200500       0.823408
    15444.015400       0.823000
    15467.904100       0.822610
    15491.866800       0.822239
    15515.903800       0.821887
    15540.015500       0.821553
    15564.202300       0.821238
    15588.464500       0.820941
    15612.802500       0.820662
    15637.216600       0.820401
    15661.707100       0.820158
    15686.274500       0.819933
    15710.919100       0.819725
    15735.641200       0.819534
    15760.441300       0.819361
    15785.319700       0.819204
    15810.276700       0.819064
    15835.312700       0.818941
    15860.428200       0.818833
    15885.623500       0.818742
    15910.899000       0.818666
    15936.255000       0.818606
    15961.691900       0.818561
    15987.210200       0.818531
    16012.810200       0.818515
    16038.492400       0.818514
    16064.257000       0.818527
    16090.104600       0.818553
    16116.035500       0.818593
    16142.050000       0.818646
    16168.148700       0.818712
    16194.332000       0.818789
    16220.600200       0.818879
    16246.953700       0.818981
    16273.393000       0.819093
    16299.918500       0.819216
    16326.530600       0.819350
    16353.229800       0.819494
    16380.016400       0.819647
    16406.890900       0.819809
    16433.853700       0.819980
    16460.905300       0.820160
    16488.046200       0.820347
    16515.276600       0.820541
    16542.597200       0.820742
    16570.008300       0.820950
    16597.510400       0.821164
    16625.103900       0.821382
    16652.789300       0.821606
    16680.567100       0.821834
    16708.437800       0.822066
    16736.401700       0.822301
    16764.459300       0.822539
    16792.611300       0.822779
    16820.857900       0.823021
    16849.199700       0.823264
    16877.637100       0.823507
    16906.170800       0.823750
    16934.801000       0.823993
    16963.528400       0.824234
    16992.353400       0.824474
    17021.276600       0.824710
    17050.298400       0.824944
    17079.419300       0.825174
    17108.639900       0.825400
    17137.960600       0.825621
    17167.382000       0.825836
    17196.904600       0.826044
    17226.528900       0.826246
    17256.255400       0.826440
    17286.084700       0.826626
    17316.017300       0.826803
    17346.053800       0.826970
    17376.194600       0.827127
    17406.440400       0.827272
    17436.791600       0.827406
    17467.248900       0.827528
    17497.812800       0.827636
    17528.483800       0.827730
    17559.262500       0.827810
    17590.149500       0.827874
    17621.145400       0.827922
    17652.250700       0.827954
    17683.466000       0.827967
