7,   from EPIC Filters Original Data.xlsx (col 19) Deep Space Climate Observatory (December 2019)
Number of data points:
202
Wavenumber (cm-1)   Filter response
    14490.653500       0.000000
    14492.753600       0.520000
    14494.854300       0.560000
    14496.955600       0.540000
    14499.057600       0.570000
    14501.160100       0.510000
    14503.263200       0.560000
    14505.367000       0.540000
    14507.471300       0.570000
    14509.576300       0.530000
    14511.681900       0.560000
    14513.788100       0.560000
    14515.894900       0.540000
    14518.002300       0.510000
    14520.110400       0.540000
    14522.219000       0.510000
    14524.328200       0.500000
    14526.438100       0.460000
    14528.548600       0.490000
    14530.659700       0.460000
    14532.771400       0.520000
    14534.883700       0.510000
    14536.996700       0.510000
    14539.110200       0.500000
    14541.224400       0.520000
    14543.339200       0.530000
    14545.454500       0.580000
    14547.570600       0.520000
    14549.687200       0.550000
    14551.804400       0.520000
    14553.922300       0.530000
    14556.040800       0.520000
    14558.159800       0.550000
    14560.279600       0.530000
    14562.399900       0.540000
    14564.520800       0.530000
    14566.642400       0.560000
    14568.764600       0.560000
    14570.887400       0.570000
    14573.010800       0.580000
    14575.134800       0.620000
    14577.259500       0.630000
    14579.384700       0.640000
    14581.510600       0.630000
    14583.637200       0.680000
    14585.764300       0.650000
    14587.892000       0.640000
    14590.020400       0.640000
    14592.149400       0.670000
    14594.279000       0.640000
    14596.409300       0.690000
    14598.540100       0.660000
    14600.671600       0.710000
    14602.803700       0.700000
    14604.936500       0.740000
    14607.069800       0.740000
    14609.203800       0.770000
    14611.338400       0.750000
    14613.473600       0.820000
    14615.609500       0.830000
    14617.745900       0.910000
    14619.883000       0.950000
    14622.020800       1.050000
    14624.159100       1.160000
    14626.298100       1.380000
    14628.437700       1.580000
    14630.577900       1.950000
    14632.718800       2.340000
    14634.860200       2.790000
    14637.002300       3.230000
    14639.145100       3.540000
    14641.288400       3.530000
    14643.432400       3.400000
    14645.577000       3.110000
    14647.722300       2.820000
    14649.868200       2.590000
    14652.014700       2.410000
    14654.161800       2.320000
    14656.309500       2.270000
    14658.457900       2.240000
    14660.606900       2.240000
    14662.756600       2.320000
    14664.906900       2.520000
    14667.057800       2.890000
    14669.209300       3.170000
    14671.361500       3.500000
    14673.514300       3.930000
    14675.667700       4.470000
    14677.821800       5.320000
    14679.976500       6.380000
    14682.131800       7.800000
    14684.287800      10.420000
    14686.444400      13.620000
    14688.601600      18.560000
    14690.759500      25.870000
    14692.918000      35.390000
    14695.077100      47.380000
    14697.236900      62.260000
    14699.397300      76.170000
    14701.558400      86.410000
    14703.720000      93.000000
    14705.882400      96.460000
    14708.045300      98.030000
    14710.208900      98.400000
    14712.373100      98.510000
    14714.538000      98.540000
    14716.703500      98.490000
    14718.869600      98.120000
    14721.036400      96.400000
    14723.203800      93.940000
    14725.371800      89.680000
    14727.540500      80.080000
    14729.709800      65.560000
    14731.879800      49.550000
    14734.050400      36.170000
    14736.221600      25.460000
    14738.393500      17.750000
    14740.566000      12.950000
    14742.739200       9.600000
    14744.913000       7.190000
    14747.087500       5.720000
    14749.262500       4.660000
    14751.438300       3.860000
    14753.614600       3.280000
    14755.791600       2.890000
    14757.969300       2.590000
    14760.147600       2.410000
    14762.326500       2.210000
    14764.506100       2.100000
    14766.686400       1.950000
    14768.867200       1.870000
    14771.048700       1.780000
    14773.230900       1.730000
    14775.413700       1.640000
    14777.597200       1.610000
    14779.781300       1.520000
    14781.966000       1.490000
    14784.151400       1.410000
    14786.337400       1.360000
    14788.524100       1.250000
    14790.711400       1.220000
    14792.899400       1.130000
    14795.088000       1.070000
    14797.277300       1.010000
    14799.467200       0.990000
    14801.657800       0.920000
    14803.849000       0.850000
    14806.040900       0.830000
    14808.233400       0.810000
    14810.426500       0.770000
    14812.620400       0.750000
    14814.814800       0.730000
    14817.009900       0.770000
    14819.205700       0.760000
    14821.402100       0.740000
    14823.599200       0.720000
    14825.796900       0.720000
    14827.995300       0.710000
    14830.194300       0.690000
    14832.393900       0.620000
    14834.594300       0.630000
    14836.795300       0.610000
    14838.996900       0.630000
    14841.199200       0.590000
    14843.402100       0.590000
    14845.605700       0.560000
    14847.809900       0.570000
    14850.014900       0.560000
    14852.220400       0.580000
    14854.426600       0.570000
    14856.633500       0.590000
    14858.841000       0.550000
    14861.049200       0.570000
    14863.258000       0.560000
    14865.467500       0.580000
    14867.677700       0.560000
    14869.888500       0.570000
    14872.099900       0.540000
    14874.312100       0.550000
    14876.524800       0.530000
    14878.738300       0.570000
    14880.952400       0.590000
    14883.167100       0.590000
    14885.382600       0.550000
    14887.598600       0.590000
    14889.815400       0.550000
    14892.032800       0.570000
    14894.250800       0.540000
    14896.469500       0.580000
    14898.688900       0.520000
    14900.909000       0.550000
    14903.129700       0.550000
    14905.351000       0.580000
    14907.573000       0.550000
    14909.795700       0.570000
    14912.019100       0.520000
    14914.243100       0.560000
    14916.467800       0.530000
    14918.693100       0.570000
    14920.919100       0.540000
    14923.145800       0.550000
    14925.373100       0.550000
