01 , mtsat_02_imager_03.flt
Number of data points:
1160
Wavenumber (cm-1)   Filter response
      874.000000       0.000000
      874.100000       0.000000
      874.200000       0.004958
      874.300000       0.010175
      874.400000       0.010423
      874.500000       0.020744
      874.600000       0.021496
      874.700000       0.021744
      874.800000       0.022496
      874.900000       0.022744
      875.000000       0.023496
      875.100000       0.023993
      875.200000       0.024744
      875.300000       0.024993
      875.400000       0.025744
      875.500000       0.026244
      875.600000       0.026993
      875.700000       0.027744
      875.800000       0.028492
      875.900000       0.028993
      876.000000       0.029744
      876.100000       0.030492
      876.200000       0.030993
      876.300000       0.031993
      876.400000       0.032492
      876.500000       0.033241
      876.600000       0.034241
      876.700000       0.035241
      876.800000       0.036241
      876.900000       0.037241
      877.000000       0.038241
      877.100000       0.039241
      877.200000       0.039988
      877.300000       0.040988
      877.400000       0.041988
      877.500000       0.042988
      877.600000       0.043988
      877.700000       0.044988
      877.800000       0.045988
      877.900000       0.046988
      878.000000       0.047988
      878.100000       0.048988
      878.200000       0.049988
      878.300000       0.051237
      878.400000       0.052485
      878.500000       0.053737
      878.600000       0.054737
      878.700000       0.056485
      878.800000       0.057485
      878.900000       0.058737
      879.000000       0.060485
      879.100000       0.061485
      879.200000       0.063233
      879.300000       0.064485
      879.400000       0.065733
      879.500000       0.067485
      879.600000       0.068981
      879.700000       0.070733
      879.800000       0.072233
      879.900000       0.073981
      880.000000       0.075981
      880.100000       0.076981
      880.200000       0.078981
      880.300000       0.080477
      880.400000       0.082229
      880.500000       0.084229
      880.600000       0.086229
      880.700000       0.088229
      880.800000       0.090477
      880.900000       0.092477
      881.000000       0.094477
      881.100000       0.096477
      881.200000       0.098477
      881.300000       0.100725
      881.400000       0.102725
      881.500000       0.104974
      881.600000       0.107473
      881.700000       0.109974
      881.800000       0.112473
      881.900000       0.114974
      882.000000       0.117473
      882.100000       0.119969
      882.200000       0.122721
      882.300000       0.124969
      882.400000       0.127470
      882.500000       0.130218
      882.600000       0.133218
      882.700000       0.136466
      882.800000       0.139717
      882.900000       0.142717
      883.000000       0.145966
      883.100000       0.149213
      883.200000       0.152214
      883.300000       0.155214
      883.400000       0.158214
      883.500000       0.162214
      883.600000       0.165710
      883.700000       0.169213
      883.800000       0.172710
      883.900000       0.176710
      884.000000       0.180458
      884.100000       0.184206
      884.200000       0.187458
      884.300000       0.191458
      884.400000       0.194954
      884.500000       0.198954
      884.600000       0.203202
      884.700000       0.207702
      884.800000       0.211702
      884.900000       0.215950
      885.000000       0.220198
      885.100000       0.224198
      885.200000       0.228446
      885.300000       0.232694
      885.400000       0.236946
      885.500000       0.241442
      885.600000       0.246190
      885.700000       0.251190
      885.800000       0.255941
      885.900000       0.260438
      886.000000       0.265438
      886.100000       0.270186
      886.200000       0.275186
      886.300000       0.279682
      886.400000       0.284682
      886.500000       0.290178
      886.600000       0.295430
      886.700000       0.300926
      886.800000       0.306674
      886.900000       0.311922
      887.000000       0.317422
      887.100000       0.322918
      887.200000       0.328422
      887.300000       0.333918
      887.400000       0.339166
      887.500000       0.344666
      887.600000       0.350661
      887.700000       0.356661
      887.800000       0.362661
      887.900000       0.368658
      888.000000       0.374406
      888.100000       0.380154
      888.200000       0.386402
      888.300000       0.392149
      888.400000       0.398149
      888.500000       0.403897
      888.600000       0.409897
      888.700000       0.416394
      888.800000       0.422394
      888.900000       0.428141
      889.000000       0.434889
      889.100000       0.440889
      889.200000       0.446889
      889.300000       0.452637
      889.400000       0.458885
      889.500000       0.465133
      889.600000       0.471133
      889.700000       0.477129
      889.800000       0.483377
      889.900000       0.489629
      890.000000       0.495877
      890.100000       0.502125
      890.200000       0.508373
      890.300000       0.514873
      890.400000       0.521121
      890.500000       0.527121
      890.600000       0.533117
      890.700000       0.539117
      890.800000       0.545117
      890.900000       0.550865
      891.000000       0.556865
      891.100000       0.562865
      891.200000       0.568612
      891.300000       0.574612
      891.400000       0.580109
      891.500000       0.585860
      891.600000       0.591109
      891.700000       0.596109
      891.800000       0.601608
      891.900000       0.606857
      892.000000       0.611857
      892.100000       0.617608
      892.200000       0.622857
      892.300000       0.627857
      892.400000       0.633104
      892.500000       0.638104
      892.600000       0.642604
      892.700000       0.647104
      892.800000       0.651604
      892.900000       0.656104
      893.000000       0.661104
      893.100000       0.665604
      893.200000       0.670104
      893.300000       0.675104
      893.400000       0.679604
      893.500000       0.684105
      893.600000       0.687857
      893.700000       0.691608
      893.800000       0.695357
      893.900000       0.699357
      894.000000       0.703357
      894.100000       0.707357
      894.200000       0.711609
      894.300000       0.715609
      894.400000       0.719609
      894.500000       0.723609
      894.600000       0.726609
      894.700000       0.729861
      894.800000       0.732861
      894.900000       0.736113
      895.000000       0.739113
      895.100000       0.742113
      895.200000       0.745366
      895.300000       0.748366
      895.400000       0.751618
      895.500000       0.754122
      895.600000       0.756370
      895.700000       0.758870
      895.800000       0.761122
      895.900000       0.763626
      896.000000       0.765874
      896.100000       0.768375
      896.200000       0.770878
      896.300000       0.773378
      896.400000       0.775627
      896.500000       0.777879
      896.600000       0.780131
      896.700000       0.781883
      896.800000       0.783883
      896.900000       0.786135
      897.000000       0.787887
      897.100000       0.789887
      897.200000       0.792140
      897.300000       0.794140
      897.400000       0.795891
      897.500000       0.797640
      897.600000       0.798892
      897.700000       0.800644
      897.800000       0.801896
      897.900000       0.803144
      898.000000       0.804648
      898.100000       0.805648
      898.200000       0.806900
      898.300000       0.807900
      898.400000       0.808900
      898.500000       0.809901
      898.600000       0.810152
      898.700000       0.810901
      898.800000       0.811405
      898.900000       0.811905
      899.000000       0.812405
      899.100000       0.812905
      899.200000       0.813657
      899.300000       0.814157
      899.400000       0.814657
      899.500000       0.814909
      899.600000       0.815157
      899.700000       0.815410
      899.800000       0.815909
      899.900000       0.816161
      900.000000       0.816161
      900.100000       0.816410
      900.200000       0.817161
      900.300000       0.817161
      900.400000       0.817662
      900.500000       0.818161
      900.600000       0.818414
      900.700000       0.818414
      900.800000       0.818662
      900.900000       0.818914
      901.000000       0.819414
      901.100000       0.819662
      901.200000       0.819914
      901.300000       0.820414
      901.400000       0.820914
      901.500000       0.820914
      901.600000       0.820914
      901.700000       0.820914
      901.800000       0.820914
      901.900000       0.821166
      902.000000       0.821666
      902.100000       0.821666
      902.200000       0.821666
      902.300000       0.821418
      902.400000       0.821666
      902.500000       0.821418
      902.600000       0.821418
      902.700000       0.821418
      902.800000       0.821167
      902.900000       0.821167
      903.000000       0.821167
      903.100000       0.820919
      903.200000       0.820919
      903.300000       0.820919
      903.400000       0.820919
      903.500000       0.820919
      903.600000       0.820919
      903.700000       0.820919
      903.800000       0.820919
      903.900000       0.820919
      904.000000       0.821170
      904.100000       0.821422
      904.200000       0.821422
      904.300000       0.821422
      904.400000       0.821671
      904.500000       0.821422
      904.600000       0.821174
      904.700000       0.821174
      904.800000       0.821174
      904.900000       0.821174
      905.000000       0.821174
      905.100000       0.821423
      905.200000       0.821423
      905.300000       0.821423
      905.400000       0.821423
      905.500000       0.821423
      905.600000       0.822175
      905.700000       0.822175
      905.800000       0.822175
      905.900000       0.822426
      906.000000       0.823175
      906.100000       0.823175
      906.200000       0.823175
      906.300000       0.823175
      906.400000       0.823175
      906.500000       0.823426
      906.600000       0.823426
      906.700000       0.823675
      906.800000       0.823927
      906.900000       0.824178
      907.000000       0.824178
      907.100000       0.824427
      907.200000       0.824427
      907.300000       0.824930
      907.400000       0.824930
      907.500000       0.825427
      907.600000       0.825678
      907.700000       0.825930
      907.800000       0.826179
      907.900000       0.826430
      908.000000       0.826930
      908.100000       0.827179
      908.200000       0.827430
      908.300000       0.828179
      908.400000       0.828430
      908.500000       0.828682
      908.600000       0.829430
      908.700000       0.829430
      908.800000       0.830182
      908.900000       0.830430
      909.000000       0.831182
      909.100000       0.832182
      909.200000       0.832430
      909.300000       0.833182
      909.400000       0.834182
      909.500000       0.834682
      909.600000       0.835182
      909.700000       0.836182
      909.800000       0.836930
      909.900000       0.837682
      910.000000       0.838182
      910.100000       0.838682
      910.200000       0.839182
      910.300000       0.839182
      910.400000       0.839682
      910.500000       0.840182
      910.600000       0.840434
      910.700000       0.840930
      910.800000       0.841182
      910.900000       0.841682
      911.000000       0.842182
      911.100000       0.842434
      911.200000       0.843182
      911.300000       0.843182
      911.400000       0.844182
      911.500000       0.844182
      911.600000       0.844682
      911.700000       0.845182
      911.800000       0.845434
      911.900000       0.846182
      912.000000       0.846182
      912.100000       0.847182
      912.200000       0.847182
      912.300000       0.847934
      912.400000       0.848182
      912.500000       0.848435
      912.600000       0.849182
      912.700000       0.849182
      912.800000       0.850182
      912.900000       0.850182
      913.000000       0.850435
      913.100000       0.851182
      913.200000       0.851435
      913.300000       0.852182
      913.400000       0.852435
      913.500000       0.853182
      913.600000       0.853435
      913.700000       0.854435
      913.800000       0.854435
      913.900000       0.855435
      914.000000       0.855683
      914.100000       0.856435
      914.200000       0.856435
      914.300000       0.857183
      914.400000       0.857435
      914.500000       0.857687
      914.600000       0.858435
      914.700000       0.858687
      914.800000       0.859435
      914.900000       0.859687
      915.000000       0.860687
      915.100000       0.860687
      915.200000       0.861687
      915.300000       0.862187
      915.400000       0.862687
      915.500000       0.863439
      915.600000       0.863687
      915.700000       0.864439
      915.800000       0.865190
      915.900000       0.865439
      916.000000       0.866439
      916.100000       0.867190
      916.200000       0.867943
      916.300000       0.868691
      916.400000       0.869691
      916.500000       0.870195
      916.600000       0.870943
      916.700000       0.871691
      916.800000       0.872195
      916.900000       0.873195
      917.000000       0.874195
      917.100000       0.874195
      917.200000       0.875195
      917.300000       0.875947
      917.400000       0.876447
      917.500000       0.876947
      917.600000       0.877698
      917.700000       0.878199
      917.800000       0.878698
      917.900000       0.878951
      918.000000       0.879951
      918.100000       0.880199
      918.200000       0.880951
      918.300000       0.881703
      918.400000       0.882703
      918.500000       0.883454
      918.600000       0.883955
      918.700000       0.884703
      918.800000       0.885454
      918.900000       0.886206
      919.000000       0.886707
      919.100000       0.887206
      919.200000       0.887958
      919.300000       0.888459
      919.400000       0.888958
      919.500000       0.889459
      919.600000       0.890210
      919.700000       0.890710
      919.800000       0.891210
      919.900000       0.891962
      920.000000       0.892210
      920.100000       0.892962
      920.200000       0.893962
      920.300000       0.894714
      920.400000       0.895466
      920.500000       0.896215
      920.600000       0.896714
      920.700000       0.897466
      920.800000       0.898218
      920.900000       0.898970
      921.000000       0.899466
      921.100000       0.900218
      921.200000       0.900970
      921.300000       0.901218
      921.400000       0.901970
      921.500000       0.902721
      921.600000       0.902970
      921.700000       0.903721
      921.800000       0.904221
      921.900000       0.904721
      922.000000       0.905473
      922.100000       0.905973
      922.200000       0.906721
      922.300000       0.907225
      922.400000       0.908225
      922.500000       0.908725
      922.600000       0.909225
      922.700000       0.909476
      922.800000       0.910225
      922.900000       0.910476
      923.000000       0.911476
      923.100000       0.911476
      923.200000       0.912228
      923.300000       0.912476
      923.400000       0.912980
      923.500000       0.913228
      923.600000       0.913980
      923.700000       0.914228
      923.800000       0.914980
      923.900000       0.915228
      924.000000       0.915980
      924.100000       0.916479
      924.200000       0.917479
      924.300000       0.918231
      924.400000       0.918983
      924.500000       0.919731
      924.600000       0.920731
      924.700000       0.921479
      924.800000       0.922231
      924.900000       0.922983
      925.000000       0.923731
      925.100000       0.924731
      925.200000       0.925234
      925.300000       0.925731
      925.400000       0.926482
      925.500000       0.926982
      925.600000       0.927734
      925.700000       0.928482
      925.800000       0.928982
      925.900000       0.929734
      926.000000       0.930234
      926.100000       0.930734
      926.200000       0.931234
      926.300000       0.931734
      926.400000       0.931985
      926.500000       0.932481
      926.600000       0.932985
      926.700000       0.933733
      926.800000       0.933985
      926.900000       0.934733
      927.000000       0.934733
      927.100000       0.935484
      927.200000       0.935733
      927.300000       0.936484
      927.400000       0.936733
      927.500000       0.937232
      927.600000       0.937484
      927.700000       0.938232
      927.800000       0.938232
      927.900000       0.938984
      928.000000       0.939484
      928.100000       0.940232
      928.200000       0.940984
      928.300000       0.941484
      928.400000       0.942484
      928.500000       0.943484
      928.600000       0.943484
      928.700000       0.944484
      928.800000       0.945484
      928.900000       0.946231
      929.000000       0.946735
      929.100000       0.947231
      929.200000       0.947735
      929.300000       0.948484
      929.400000       0.948983
      929.500000       0.949735
      929.600000       0.949983
      929.700000       0.950483
      929.800000       0.950983
      929.900000       0.951483
      930.000000       0.951983
      930.100000       0.952483
      930.200000       0.953234
      930.300000       0.953483
      930.400000       0.954483
      930.500000       0.954986
      930.600000       0.955483
      930.700000       0.955734
      930.800000       0.956234
      930.900000       0.956734
      931.000000       0.957234
      931.100000       0.957483
      931.200000       0.957734
      931.300000       0.957734
      931.400000       0.958234
      931.500000       0.958734
      931.600000       0.958734
      931.700000       0.959234
      931.800000       0.959734
      931.900000       0.959986
      932.000000       0.960234
      932.100000       0.960734
      932.200000       0.961234
      932.300000       0.961486
      932.400000       0.961986
      932.500000       0.962486
      932.600000       0.962986
      932.700000       0.962986
      932.800000       0.963486
      932.900000       0.963986
      933.000000       0.964234
      933.100000       0.964486
      933.200000       0.964738
      933.300000       0.964738
      933.400000       0.964986
      933.500000       0.965234
      933.600000       0.965738
      933.700000       0.966234
      933.800000       0.966738
      933.900000       0.966738
      934.000000       0.967487
      934.100000       0.967738
      934.200000       0.968487
      934.300000       0.969238
      934.400000       0.969738
      934.500000       0.970487
      934.600000       0.970990
      934.700000       0.971487
      934.800000       0.971990
      934.900000       0.972487
      935.000000       0.972739
      935.100000       0.973490
      935.200000       0.973739
      935.300000       0.974490
      935.400000       0.974739
      935.500000       0.974987
      935.600000       0.975239
      935.700000       0.975739
      935.800000       0.976239
      935.900000       0.976239
      936.000000       0.976991
      936.100000       0.977239
