19,    channel 19 SRF extracted from SRF_FY-3F_MERSI-III.zip(FY3F_MERSI_SRF_CH19_Pub.txt) (received Nov 2023)
Number of data points:
134
Wavenumber (cm-1)   Filter response
     9315.320200       0.000195
     9319.672300       0.000195
     9324.013700       0.000339
     9328.361700       0.000339
     9332.714600       0.000339
     9337.071600       0.000339
     9341.437100       0.000339
     9345.790900       0.000195
     9350.165400       0.000195
     9354.531700       0.000268
     9358.917900       0.000268
     9363.295000       0.000268
     9367.679700       0.000340
     9372.066800       0.000340
     9376.460700       0.000268
     9380.861300       0.000268
     9385.266000       0.000268
     9389.676700       0.000195
     9394.078200       0.000195
     9398.500700       0.000195
     9402.914900       0.000267
     9407.333300       0.000267
     9411.756700       0.000337
     9416.203800       0.000408
     9420.637400       0.000408
     9425.064500       0.000337
     9429.512600       0.000408
     9433.964000       0.000478
     9438.409000       0.000478
     9442.872400       0.000689
     9447.326700       0.000901
     9451.802100       0.001183
     9456.269200       0.001395
     9460.739700       0.001748
     9465.218900       0.002101
     9469.702400       0.002596
     9474.177500       0.003091
     9478.672100       0.003942
     9483.172800       0.005076
     9487.664200       0.006354
     9492.177100       0.008131
     9496.679800       0.010476
     9501.187600       0.013321
     9505.702500       0.017020
     9510.221700       0.022000
     9514.747000       0.028192
     9519.280200       0.035873
     9523.817700       0.045397
     9528.345900       0.056835
     9532.894800       0.070044
     9537.433500       0.085732
     9541.979300       0.103906
     9546.545800       0.124211
     9551.102900       0.147006
     9555.667200       0.173074
     9560.234900       0.201284
     9564.807900       0.232153
     9569.374300       0.266115
     9573.960700       0.302392
     9578.535800       0.339779
     9583.135500       0.379346
     9587.723100       0.419867
     9592.334400       0.460772
     9596.933600       0.502914
     9601.539900       0.544367
     9606.152500       0.584916
     9610.769600       0.624657
     9615.378100       0.662595
     9620.007800       0.697949
     9624.642800       0.731652
     9629.268400       0.763067
     9633.916000       0.791463
     9638.554200       0.817769
     9643.197800       0.841917
     9647.847800       0.864266
     9652.503100       0.885248
     9657.163900       0.903907
     9661.832000       0.920363
     9666.505600       0.935381
     9671.185500       0.949580
     9675.855000       0.960709
     9680.546800       0.970983
     9685.228100       0.980399
     9689.915900       0.987733
     9694.625100       0.993625
     9699.325800       0.997779
     9704.030900       1.000000
     9708.742600       0.999592
     9713.459700       0.997159
     9718.167300       0.990276
     9722.896500       0.981638
     9727.633100       0.971248
     9732.359200       0.957306
     9737.091700       0.939595
     9741.845000       0.920058
     9746.589600       0.897108
     9751.339900       0.870738
     9756.096600       0.842581
     9760.858000       0.812036
     9765.626900       0.779080
     9770.402400       0.743765
     9775.165300       0.706579
     9779.953000       0.666947
     9784.730100       0.626099
     9789.529000       0.584329
     9794.317400       0.541568
     9799.112300       0.498149
     9803.914800       0.455390
     9808.737500       0.412734
     9813.534000       0.370844
     9818.355500       0.330892
     9823.180800       0.292921
     9828.012700       0.257721
     9832.834000       0.225646
     9837.680200       0.196474
     9842.513900       0.170489
     9847.371600       0.147045
     9852.217700       0.126137
     9857.071500       0.107542
     9861.930000       0.091111
     9866.795300       0.076697
     9871.667300       0.064219
     9876.545200       0.053464
     9881.429800       0.044218
     9886.302600       0.036556
     9891.198800       0.030047
     9896.086100       0.024763
     9900.995000       0.020200
     9905.895000       0.016504
     9910.800800       0.013460
     9915.711500       0.010994
     9920.630000       0.008891
     9925.553400       0.007296
     9930.484600       0.005992
