12,    channel 12 SRF extracted from SRF_FY4B_AGRI.zip (FY4B_AGRI_SRF_CH12_Pub.txt)
Number of data points:
2749
Wavenumber (cm-1)   Filter response
     1075.037600       0.000500
     1075.095400       0.000500
     1075.153200       0.000300
     1075.211000       0.000100
     1075.268800       0.000000
     1075.326600       0.000100
     1075.384400       0.000200
     1075.442300       0.000400
     1075.500100       0.000700
     1075.557900       0.001000
     1075.615800       0.001300
     1075.673600       0.001500
     1075.731500       0.001400
     1075.789400       0.001300
     1075.847200       0.000900
     1075.905100       0.000500
     1075.963000       0.000200
     1076.020900       0.000300
     1076.078800       0.000600
     1076.136700       0.000800
     1076.194600       0.000900
     1076.252500       0.000800
     1076.310400       0.000500
     1076.368300       0.000200
     1076.426300       0.000000
     1076.484200       0.000100
     1076.542100       0.000300
     1076.600100       0.000600
     1076.658100       0.001000
     1076.716000       0.001200
     1076.774000       0.001400
     1076.832000       0.001600
     1076.889900       0.001800
     1076.947900       0.002100
     1077.005900       0.002400
     1077.063900       0.002700
     1077.121900       0.003000
     1077.179900       0.003100
     1077.238000       0.003200
     1077.296000       0.003100
     1077.354000       0.002600
     1077.412100       0.002000
     1077.470100       0.001300
     1077.528200       0.000800
     1077.586200       0.000500
     1077.644300       0.000600
     1077.702300       0.001000
     1077.760400       0.001500
     1077.818500       0.001900
     1077.876600       0.002000
     1077.934700       0.001900
     1077.992800       0.001500
     1078.050900       0.001100
     1078.109000       0.000900
     1078.167100       0.000500
     1078.225200       0.000200
     1078.283400       0.000000
     1078.341500       0.000300
     1078.399700       0.000700
     1078.457800       0.001200
     1078.516000       0.001500
     1078.574100       0.001500
     1078.632300       0.001400
     1078.690500       0.001100
     1078.748700       0.000800
     1078.806800       0.000500
     1078.865000       0.000300
     1078.923200       0.000100
     1078.981400       0.000100
     1079.039700       0.000200
     1079.097900       0.000500
     1079.156100       0.000800
     1079.214300       0.000900
     1079.272600       0.001200
     1079.330800       0.001400
     1079.389100       0.001600
     1079.447300       0.001800
     1079.505600       0.002300
     1079.563900       0.002700
     1079.622100       0.003000
     1079.680400       0.003000
     1079.738700       0.002600
     1079.797000       0.001900
     1079.855300       0.001100
     1079.913600       0.000400
     1079.971900       0.000000
     1080.030200       0.000000
     1080.088600       0.000000
     1080.146900       0.000000
     1080.205200       0.001000
     1080.263600       0.002100
     1080.321900       0.003000
     1080.380300       0.003400
     1080.438700       0.003000
     1080.497000       0.002000
     1080.555400       0.000900
     1080.613800       0.000000
     1080.672200       0.000100
     1080.730600       0.000300
     1080.789000       0.000400
     1080.847400       0.000400
     1080.905800       0.000600
     1080.964200       0.000700
     1081.022600       0.000700
     1081.081100       0.000700
     1081.139500       0.000900
     1081.198000       0.001200
     1081.256400       0.001500
     1081.314900       0.002000
     1081.373300       0.002500
     1081.431800       0.003000
     1081.490300       0.003100
     1081.548800       0.002900
     1081.607300       0.002200
     1081.665800       0.001200
     1081.724300       0.000500
     1081.782800       0.000000
     1081.841300       0.000700
     1081.899800       0.001700
     1081.958300       0.002700
     1082.016900       0.003400
     1082.075400       0.003300
     1082.134000       0.002600
     1082.192500       0.001700
     1082.251100       0.001000
     1082.309600       0.000900
     1082.368200       0.001000
     1082.426800       0.001100
     1082.485400       0.001300
     1082.544000       0.001500
     1082.602600       0.001600
     1082.661200       0.001500
     1082.719800       0.001300
     1082.778400       0.001000
     1082.837000       0.000600
     1082.895700       0.000300
     1082.954300       0.000000
     1083.012900       0.000200
     1083.071600       0.000500
     1083.130200       0.000800
     1083.188900       0.000800
     1083.247600       0.000900
     1083.306300       0.001000
     1083.364900       0.001100
     1083.423600       0.001000
     1083.482300       0.001200
     1083.541000       0.001300
     1083.599700       0.001400
     1083.658400       0.001300
     1083.717100       0.001200
     1083.775900       0.000900
     1083.834600       0.000500
     1083.893300       0.000100
     1083.952100       0.000000
     1084.010800       0.000000
     1084.069600       0.000000
     1084.128400       0.000000
     1084.187100       0.000100
     1084.245900       0.000300
     1084.304700       0.000500
     1084.363500       0.000500
     1084.422300       0.000600
     1084.481100       0.000500
     1084.539900       0.000500
     1084.598700       0.000400
     1084.657500       0.000300
     1084.716300       0.000300
     1084.775200       0.000200
     1084.834000       0.000100
     1084.892900       0.000100
     1084.951700       0.000100
     1085.010600       0.000100
     1085.069400       0.000000
     1085.128300       0.000100
     1085.187200       0.000300
     1085.246100       0.000400
     1085.305000       0.000300
     1085.363900       0.000700
     1085.422800       0.001100
     1085.481700       0.001600
     1085.540600       0.002100
     1085.599500       0.002900
     1085.658500       0.003600
     1085.717400       0.004100
     1085.776300       0.004100
     1085.835300       0.003500
     1085.894200       0.002400
     1085.953200       0.001200
     1086.012200       0.000100
     1086.071100       0.000000
     1086.130100       0.000100
     1086.189100       0.000100
     1086.248100       0.000200
     1086.307100       0.000900
     1086.366100       0.001800
     1086.425100       0.002500
     1086.484100       0.002900
     1086.543200       0.002800
     1086.602200       0.002400
     1086.661200       0.001800
     1086.720300       0.001200
     1086.779300       0.000800
     1086.838400       0.000400
     1086.897500       0.000100
     1086.956500       0.000000
     1087.015600       0.000200
     1087.074700       0.000500
     1087.133800       0.000800
     1087.192900       0.000900
     1087.252000       0.001000
     1087.311100       0.001000
     1087.370200       0.001100
     1087.429300       0.001300
     1087.488400       0.001900
     1087.547600       0.002500
     1087.606700       0.002900
     1087.665900       0.003000
     1087.725000       0.002700
     1087.784200       0.002000
     1087.843400       0.001300
     1087.902500       0.001000
     1087.961700       0.001200
     1088.020900       0.001700
     1088.080100       0.002300
     1088.139300       0.002600
     1088.198500       0.002500
     1088.257700       0.002000
     1088.316900       0.001400
     1088.376100       0.000900
     1088.435400       0.000900
     1088.494600       0.001000
     1088.553900       0.001000
     1088.613100       0.001000
     1088.672400       0.001000
     1088.731600       0.000900
     1088.790900       0.000800
     1088.850200       0.000700
     1088.909500       0.000700
     1088.968700       0.000800
     1089.028000       0.000800
     1089.087300       0.000600
     1089.146700       0.000500
     1089.206000       0.000200
     1089.265300       0.000200
     1089.324600       0.000400
     1089.384000       0.001400
     1089.443300       0.002600
     1089.502600       0.003700
     1089.562000       0.004100
     1089.621400       0.003800
     1089.680700       0.002800
     1089.740100       0.001600
     1089.799500       0.000600
     1089.858900       0.000600
     1089.918300       0.000800
     1089.977700       0.001000
     1090.037100       0.001200
     1090.096500       0.001200
     1090.155900       0.000800
     1090.215300       0.000400
     1090.274700       0.000000
     1090.334200       0.000000
     1090.393600       0.000000
     1090.453100       0.000000
     1090.512500       0.000000
     1090.572000       0.000100
     1090.631500       0.000300
     1090.691000       0.000400
     1090.750400       0.000500
     1090.809900       0.000900
     1090.869400       0.001300
     1090.928900       0.001600
     1090.988400       0.001600
     1091.048000       0.001400
     1091.107500       0.001000
     1091.167000       0.000500
     1091.226500       0.000300
     1091.286100       0.000300
     1091.345600       0.000600
     1091.405200       0.000800
     1091.464700       0.001000
     1091.524300       0.001100
     1091.583900       0.001000
     1091.643500       0.000800
     1091.703100       0.000600
     1091.762700       0.000600
     1091.822300       0.000500
     1091.881900       0.000300
     1091.941500       0.000200
     1092.001100       0.000700
     1092.060700       0.001200
     1092.120400       0.001600
     1092.180000       0.001800
     1092.239600       0.001600
     1092.299300       0.001200
     1092.358900       0.000700
     1092.418600       0.000200
     1092.478300       0.000200
     1092.538000       0.000100
     1092.597700       0.000000
     1092.657300       0.000100
     1092.717000       0.000200
     1092.776700       0.000200
     1092.836500       0.000200
     1092.896200       0.000200
     1092.955900       0.000200
     1093.015600       0.000200
     1093.075400       0.000200
     1093.135100       0.000200
     1093.194900       0.000300
     1093.254600       0.000400
     1093.314400       0.000500
     1093.374200       0.000500
     1093.433900       0.000500
     1093.493700       0.000300
     1093.553500       0.000200
     1093.613300       0.000100
     1093.673100       0.000200
     1093.732900       0.000300
     1093.792700       0.000500
     1093.852500       0.000500
     1093.912400       0.000500
     1093.972200       0.000300
     1094.032100       0.000100
     1094.091900       0.000000
     1094.151800       0.000100
     1094.211600       0.000200
     1094.271500       0.000400
     1094.331400       0.000700
     1094.391200       0.001000
     1094.451100       0.001300
     1094.511000       0.001500
     1094.570900       0.001400
     1094.630800       0.001300
     1094.690700       0.000900
     1094.750700       0.000500
     1094.810600       0.000200
     1094.870500       0.000300
     1094.930500       0.000600
     1094.990400       0.000800
     1095.050400       0.000900
     1095.110300       0.000800
     1095.170300       0.000500
     1095.230300       0.000200
     1095.290300       0.000000
     1095.350200       0.000100
     1095.410200       0.000300
     1095.470200       0.000600
     1095.530200       0.001000
     1095.590200       0.001200
     1095.650300       0.001400
     1095.710300       0.001600
     1095.770300       0.001800
     1095.830400       0.002100
     1095.890400       0.002400
     1095.950500       0.002700
     1096.010500       0.003000
     1096.070600       0.003100
     1096.130700       0.003200
     1096.190700       0.003000
     1096.250800       0.002600
     1096.310900       0.002000
     1096.371000       0.001300
     1096.431100       0.000700
     1096.491200       0.000500
     1096.551300       0.000700
     1096.611500       0.001100
     1096.671600       0.001600
     1096.731700       0.001900
     1096.791900       0.002100
     1096.852000       0.002000
     1096.912200       0.001700
     1096.972400       0.001400
     1097.032500       0.001300
     1097.092700       0.001100
     1097.152900       0.001000
     1097.213100       0.000900
     1097.273300       0.001100
     1097.333500       0.001300
     1097.393700       0.001400
     1097.453900       0.001300
     1097.514100       0.001200
     1097.574400       0.001000
     1097.634600       0.000700
     1097.694800       0.000500
     1097.755100       0.000500
     1097.815300       0.000500
     1097.875600       0.000500
     1097.935900       0.000500
     1097.996200       0.000400
     1098.056400       0.000400
     1098.116700       0.000400
     1098.177000       0.000400
     1098.237300       0.000500
     1098.297600       0.000700
     1098.358000       0.000900
     1098.418300       0.000900
     1098.478600       0.000900
     1098.538900       0.000800
     1098.599300       0.000600
     1098.659600       0.000300
     1098.720000       0.000200
     1098.780400       0.000100
     1098.840700       0.000000
     1098.901100       0.000000
     1098.961500       0.000400
     1099.021900       0.000800
     1099.082300       0.001200
     1099.142700       0.001500
     1099.203100       0.001400
     1099.263500       0.001100
     1099.323900       0.000700
     1099.384300       0.000300
     1099.444800       0.000200
     1099.505200       0.000100
     1099.565700       0.000100
     1099.626100       0.000400
     1099.686600       0.001000
     1099.747100       0.001700
     1099.807500       0.002200
     1099.868000       0.002500
     1099.928500       0.002200
     1099.989000       0.001700
     1100.049500       0.001000
     1100.110000       0.000400
     1100.170500       0.000100
     1100.231000       0.000100
     1100.291600       0.000200
     1100.352100       0.000200
     1100.412700       0.000400
     1100.473200       0.000600
     1100.533800       0.000800
     1100.594300       0.000900
     1100.654900       0.001000
     1100.715500       0.001200
     1100.776000       0.001400
     1100.836600       0.001600
     1100.897200       0.002100
     1100.957800       0.002700
     1101.018400       0.003100
     1101.079100       0.003200
     1101.139700       0.003000
     1101.200300       0.002500
     1101.260900       0.001900
     1101.321600       0.001400
     1101.382200       0.001300
     1101.442900       0.001100
     1101.503600       0.001000
     1101.564200       0.000800
     1101.624900       0.000700
     1101.685600       0.000500
     1101.746300       0.000200
     1101.807000       0.000000
     1101.867700       0.000000
     1101.928400       0.000100
     1101.989100       0.000100
     1102.049800       0.000000
     1102.110500       0.000100
     1102.171300       0.000200
     1102.232000       0.000300
     1102.292800       0.000300
     1102.353500       0.001000
     1102.414300       0.001800
     1102.475100       0.002500
     1102.535800       0.002800
     1102.596600       0.002600
     1102.657400       0.002100
     1102.718200       0.001400
     1102.779000       0.000800
     1102.839800       0.000800
     1102.900600       0.000700
     1102.961500       0.000700
     1103.022300       0.000800
     1103.083100       0.001300
     1103.144000       0.001800
     1103.204800       0.002200
     1103.265700       0.002500
     1103.326500       0.002600
     1103.387400       0.002400
     1103.448300       0.002200
     1103.509200       0.002000
     1103.570000       0.001900
     1103.630900       0.001900
     1103.691800       0.002000
     1103.752800       0.002100
     1103.813700       0.002200
     1103.874600       0.002400
     1103.935500       0.002400
     1103.996500       0.002400
     1104.057400       0.002200
     1104.118400       0.002000
     1104.179300       0.001800
     1104.240300       0.001700
     1104.301300       0.001800
     1104.362200       0.001900
     1104.423200       0.002200
     1104.484200       0.002500
     1104.545200       0.002700
     1104.606200       0.002900
     1104.667200       0.003000
     1104.728200       0.003100
     1104.789300       0.003100
     1104.850300       0.003000
     1104.911300       0.002800
     1104.972400       0.002500
     1105.033400       0.002200
     1105.094500       0.002100
     1105.155600       0.002000
     1105.216600       0.002000
     1105.277700       0.002300
     1105.338800       0.002500
     1105.399900       0.002800
     1105.461000       0.002800
     1105.522100       0.002600
     1105.583200       0.002300
     1105.644300       0.001900
     1105.705400       0.001700
     1105.766600       0.001700
     1105.827700       0.001800
     1105.888900       0.001900
     1105.950000       0.001700
     1106.011200       0.001400
     1106.072300       0.001100
     1106.133500       0.000900
     1106.194700       0.001100
     1106.255900       0.002600
     1106.317100       0.004500
     1106.378300       0.006200
     1106.439500       0.007000
     1106.500700       0.006400
     1106.561900       0.005000
     1106.623100       0.003300
     1106.684400       0.002100
     1106.745600       0.001800
     1106.806900       0.002300
     1106.868100       0.003200
     1106.929400       0.004000
     1106.990600       0.004500
     1107.051900       0.004700
     1107.113200       0.004700
     1107.174500       0.004400
     1107.235800       0.004000
     1107.297100       0.003500
     1107.358400       0.003100
     1107.419700       0.002600
     1107.481000       0.002400
     1107.542400       0.002200
     1107.603700       0.002400
     1107.665000       0.002800
     1107.726400       0.003400
     1107.787700       0.004200
     1107.849100       0.004900
     1107.910500       0.005200
     1107.971900       0.005000
     1108.033200       0.004500
     1108.094600       0.003800
     1108.156000       0.003200
     1108.217400       0.003000
     1108.278800       0.002900
     1108.340300       0.003000
     1108.401700       0.003200
     1108.463100       0.003300
     1108.524600       0.003600
     1108.586000       0.003900
     1108.647500       0.004600
     1108.708900       0.005500
     1108.770400       0.006500
     1108.831800       0.007400
     1108.893300       0.008000
     1108.954800       0.008100
     1109.016300       0.007800
     1109.077800       0.007200
     1109.139300       0.006400
     1109.200800       0.005600
     1109.262300       0.004900
     1109.323900       0.004400
     1109.385400       0.004200
     1109.446900       0.004400
     1109.508500       0.004800
     1109.570000       0.005200
     1109.631600       0.005600
     1109.693200       0.005700
     1109.754700       0.005600
     1109.816300       0.005600
     1109.877900       0.005800
     1109.939500       0.006300
     1110.001100       0.006900
     1110.062700       0.007400
     1110.124300       0.007700
     1110.186000       0.007400
     1110.247600       0.006900
     1110.309200       0.006200
     1110.370900       0.005600
     1110.432500       0.005400
     1110.494200       0.005300
     1110.555800       0.005500
     1110.617500       0.005900
     1110.679200       0.006500
     1110.740900       0.007000
     1110.802600       0.007400
     1110.864300       0.007600
     1110.926000       0.007400
     1110.987700       0.007100
     1111.049400       0.006900
     1111.111100       0.007100
     1111.172800       0.007700
     1111.234600       0.008600
     1111.296300       0.009400
     1111.358100       0.009600
     1111.419800       0.009100
     1111.481600       0.008300
     1111.543400       0.007600
     1111.605200       0.007600
     1111.666900       0.008600
     1111.728700       0.010300
     1111.790500       0.011800
     1111.852300       0.012700
     1111.914200       0.012400
     1111.976000       0.011400
     1112.037800       0.010100
