111,   111, MVIRI VIS channel from srf_MET5_2005033_2005034_1801-Release_S10EL_10.dat
Number of data points:
806
Wavenumber (cm-1)   Filter response
     8350.730700       0.000000
     8357.710000       0.000000
     8364.701000       0.000000
     8371.703600       0.000002
     8378.718100       0.000004
     8385.744200       0.000009
     8392.782200       0.000017
     8399.832000       0.000028
     8406.893700       0.000043
     8413.967200       0.000062
     8421.052600       0.000085
     8428.150000       0.000115
     8435.259400       0.000150
     8442.380800       0.000191
     8449.514200       0.000238
     8456.659600       0.000293
     8463.817200       0.000356
     8470.986900       0.000426
     8478.168700       0.000504
     8485.362700       0.000592
     8492.569000       0.000688
     8499.787500       0.000793
     8507.018300       0.000908
     8514.261400       0.001033
     8521.516800       0.001168
     8528.784600       0.001314
     8536.064900       0.001471
     8543.357500       0.001639
     8550.662700       0.001818
     8557.980300       0.002009
     8565.310500       0.002211
     8572.653200       0.002426
     8580.008600       0.002653
     8587.376600       0.002893
     8594.757200       0.003146
     8602.150500       0.003412
     8609.556600       0.003691
     8616.975400       0.003983
     8624.407100       0.004289
     8631.851500       0.004609
     8639.308900       0.004943
     8646.779100       0.005292
     8654.262200       0.005654
     8661.758300       0.006031
     8669.267400       0.006423
     8676.789600       0.006830
     8684.324800       0.007252
     8691.873100       0.007688
     8699.434500       0.008141
     8707.009100       0.008609
     8714.596900       0.009092
     8722.198000       0.009591
     8729.812300       0.010106
     8737.439900       0.010637
     8745.080900       0.011185
     8752.735200       0.011749
     8760.403000       0.012329
     8768.084200       0.012925
     8775.778900       0.013539
     8783.487000       0.014169
     8791.208800       0.014816
     8798.944100       0.015480
     8806.693100       0.016162
     8814.455700       0.016860
     8822.232000       0.017576
     8830.022100       0.018310
     8837.825900       0.019061
     8845.643500       0.019830
     8853.475000       0.020617
     8861.320300       0.021422
     8869.179600       0.022245
     8877.052800       0.023086
     8884.940000       0.023946
     8892.841300       0.024823
     8900.756600       0.025720
     8908.686000       0.026634
     8916.629500       0.027568
     8924.587200       0.028521
     8932.559200       0.029492
     8940.545400       0.030482
     8948.545900       0.031492
     8956.560700       0.032521
     8964.589900       0.033569
     8972.633500       0.034636
     8980.691500       0.035723
     8988.764000       0.036830
     8996.851100       0.037957
     9004.952700       0.039103
     9013.068900       0.040269
     9021.199800       0.041456
     9029.345400       0.042662
     9037.505600       0.043889
     9045.680700       0.045136
     9053.870500       0.046403
     9062.075200       0.047691
     9070.294800       0.049000
     9078.529300       0.050329
     9086.778700       0.051679
     9095.043200       0.053051
     9103.322700       0.054442
     9111.617300       0.055856
     9119.927000       0.057290
     9128.251900       0.058746
     9136.592100       0.060223
     9144.947400       0.061721
     9153.318100       0.063241
     9161.704100       0.064783
     9170.105500       0.066346
     9178.522300       0.067931
     9186.954500       0.069538
     9195.402300       0.071168
     9203.865600       0.072819
     9212.344500       0.074492
     9220.839100       0.076188
     9229.349300       0.077905
     9237.875300       0.079646
     9246.417000       0.081408
     9254.974500       0.083194
     9263.547900       0.085002
     9272.137200       0.086832
     9280.742500       0.088685
     9289.363700       0.090562
     9298.000900       0.092461
     9306.654300       0.094383
     9315.323700       0.096328
     9324.009300       0.098296
     9332.711200       0.100287
     9341.429200       0.102302
     9350.163600       0.104339
     9358.914400       0.106400
     9367.681500       0.108485
     9376.465100       0.110593
     9385.265100       0.112724
     9394.081700       0.114879
     9402.914900       0.117057
     9411.764700       0.119260
     9420.631200       0.121485
     9429.514400       0.123735
     9438.414300       0.126008
     9447.331100       0.128305
     9456.264800       0.130625
     9465.215300       0.132970
     9474.182900       0.135338
     9483.167400       0.137730
     9492.169000       0.140146
     9501.187600       0.142586
     9510.223500       0.145049
     9519.276500       0.147537
     9528.346800       0.150048
     9537.434400       0.152584
     9546.539400       0.155143
     9555.661700       0.157726
     9564.801500       0.160333
     9573.958800       0.162964
     9583.133700       0.165618
     9592.326100       0.168297
     9601.536200       0.170999
     9610.764100       0.173725
     9620.009600       0.176475
     9629.273000       0.179249
     9638.554200       0.182046
     9647.853400       0.184867
     9657.170400       0.187712
     9666.505600       0.190580
     9675.858700       0.193472
     9685.230000       0.196386
     9694.619500       0.199325
     9704.027200       0.202287
     9713.453100       0.205272
     9722.897400       0.208280
     9732.360100       0.211312
     9741.841200       0.214366
     9751.340800       0.217443
     9760.859000       0.220544
     9770.395700       0.223667
     9779.951100       0.226813
     9789.525200       0.229981
     9799.118100       0.233172
     9808.729800       0.236385
     9818.360300       0.239621
     9828.009800       0.242878
     9837.678300       0.246158
     9847.365800       0.249460
     9857.072400       0.252783
     9866.798200       0.256128
     9876.543200       0.259495
     9886.307500       0.262883
     9896.091000       0.266292
     9905.894000       0.269722
     9915.716400       0.273174
     9925.558300       0.276645
     9935.419800       0.280138
     9945.300800       0.283651
     9955.201600       0.287184
     9965.122100       0.290738
     9975.062300       0.294311
     9985.022500       0.297904
     9995.002500       0.301517
    10005.002500       0.305149
    10015.022500       0.308800
    10025.062700       0.312470
    10035.122900       0.316159
    10045.203400       0.319866
    10055.304200       0.323592
    10065.425300       0.327336
    10075.566800       0.331097
    10085.728700       0.334877
    10095.911200       0.338674
    10106.114200       0.342488
    10116.337900       0.346319
    10126.582300       0.350166
    10136.847400       0.354030
    10147.133400       0.357911
    10157.440300       0.361807
    10167.768200       0.365719
    10178.117000       0.369647
    10188.487000       0.373589
    10198.878100       0.377547
    10209.290500       0.381519
    10219.724100       0.385506
    10230.179000       0.389507
    10240.655400       0.393521
    10251.153300       0.397549
    10261.672700       0.401590
    10272.213700       0.405644
    10282.776300       0.409711
    10293.360800       0.413790
    10303.967000       0.417881
    10314.595200       0.421984
    10325.245200       0.426098
    10335.917300       0.430223
    10346.611500       0.434359
    10357.327800       0.438505
    10368.066400       0.442661
    10378.827200       0.446827
    10389.610400       0.451003
    10400.416000       0.455187
    10411.244100       0.459380
    10422.094800       0.463582
    10432.968200       0.467792
    10443.864200       0.472009
    10454.783100       0.476234
    10465.724800       0.480466
    10476.689400       0.484704
    10487.677000       0.488949
    10498.687700       0.493199
    10509.721500       0.497455
    10520.778500       0.501717
    10531.858900       0.505983
    10542.962600       0.510253
    10554.089700       0.514528
    10565.240400       0.518806
    10576.414600       0.523088
    10587.612500       0.527372
    10598.834100       0.531659
    10610.079600       0.535948
    10621.348900       0.540239
    10632.642200       0.544532
    10643.959600       0.548825
    10655.301000       0.553119
    10666.666700       0.557413
    10678.056600       0.561707
    10689.470900       0.566000
    10700.909600       0.570293
    10712.372800       0.574583
    10723.860600       0.578872
    10735.373100       0.583159
    10746.910300       0.587444
    10758.472300       0.591725
    10770.059200       0.596003
    10781.671200       0.600277
    10793.308100       0.604547
    10804.970300       0.608812
    10816.657700       0.613072
    10828.370300       0.617327
    10840.108400       0.621576
    10851.871900       0.625819
    10863.661100       0.630055
    10875.475800       0.634284
    10887.316300       0.638505
    10899.182600       0.642718
    10911.074700       0.646924
    10922.992900       0.651120
    10934.937100       0.655307
    10946.907500       0.659485
    10958.904100       0.663653
    10970.927000       0.667811
    10982.976400       0.671957
    10995.052200       0.676093
    11007.154700       0.680217
    11019.283700       0.684329
    11031.439600       0.688428
    11043.622300       0.692515
    11055.832000       0.696589
    11068.068600       0.700649
    11080.332400       0.704695
    11092.623400       0.708726
    11104.941700       0.712743
    11117.287400       0.716744
    11129.660500       0.720730
    11142.061300       0.724701
    11154.489700       0.728654
    11166.945800       0.732591
    11179.429800       0.736510
    11191.941800       0.740413
    11204.481800       0.744297
    11217.049900       0.748163
    11229.646300       0.752010
    11242.270900       0.755838
    11254.924000       0.759646
    11267.605600       0.763435
    11280.315800       0.767204
    11293.054800       0.770952
    11305.822500       0.774679
    11318.619100       0.778385
    11331.444800       0.782069
    11344.299500       0.785731
    11357.183400       0.789370
    11370.096600       0.792988
    11383.039300       0.796582
    11396.011400       0.800152
    11409.013100       0.803699
    11422.044500       0.807221
    11435.105800       0.810720
    11448.196900       0.814193
    11461.318100       0.817641
    11474.469300       0.821064
    11487.650800       0.824461
    11500.862600       0.827832
    11514.104800       0.831177
    11527.377500       0.834495
    11540.680900       0.837786
    11554.015000       0.841050
    11567.380000       0.844286
    11580.775900       0.847494
    11594.202900       0.850674
    11607.661100       0.853825
    11621.150500       0.856948
    11634.671300       0.860041
    11648.223600       0.863106
    11661.807600       0.866141
    11675.423200       0.869145
    11689.070700       0.872120
    11702.750100       0.875065
    11716.461600       0.877979
    11730.205300       0.880862
    11743.981200       0.883714
    11757.789500       0.886534
    11771.630400       0.889323
    11785.503800       0.892081
    11799.410000       0.894806
    11813.349100       0.897499
    11827.321100       0.900160
    11841.326200       0.902787
    11855.364600       0.905383
    11869.436200       0.907945
    11883.541300       0.910474
    11897.680000       0.912969
    11911.852300       0.915431
    11926.058400       0.917859
    11940.298500       0.920253
    11954.572600       0.922613
    11968.880900       0.924939
    11983.223500       0.927230
    11997.600500       0.929487
    12012.012000       0.931709
    12026.458200       0.933897
    12040.939200       0.936049
    12055.455100       0.938167
    12070.006000       0.940249
    12084.592100       0.942296
    12099.213600       0.944307
    12113.870400       0.946283
    12128.562800       0.948224
    12143.290800       0.950128
    12158.054700       0.951997
    12172.854500       0.953831
    12187.690400       0.955628
    12202.562500       0.957389
    12217.471000       0.959114
    12232.415900       0.960803
    12247.397400       0.962457
    12262.415700       0.964073
    12277.470800       0.965654
    12292.563000       0.967199
    12307.692300       0.968707
    12322.858900       0.970179
    12338.062900       0.971615
    12353.304500       0.973014
    12368.583800       0.974377
    12383.900900       0.975704
    12399.256000       0.976995
    12414.649300       0.978250
    12430.080800       0.979468
    12445.550700       0.980650
    12461.059200       0.981797
    12476.606400       0.982907
    12492.192400       0.983981
    12507.817400       0.985019
    12523.481500       0.986021
    12539.185000       0.986988
    12554.927800       0.987919
    12570.710200       0.988814
    12586.532400       0.989673
    12602.394500       0.990498
    12618.296500       0.991286
    12634.238800       0.992040
    12650.221400       0.992758
    12666.244500       0.993442
    12682.308200       0.994090
    12698.412700       0.994704
    12714.558200       0.995284
    12730.744700       0.995828
    12746.972600       0.996339
    12763.241900       0.996815
    12779.552700       0.997258
    12795.905300       0.997666
    12812.299800       0.998041
    12828.736400       0.998383
    12845.215200       0.998691
    12861.736300       0.998966
    12878.300100       0.999208
    12894.906500       0.999417
    12911.555800       0.999594
    12928.248200       0.999739
    12944.983800       0.999852
    12961.762800       0.999933
    12978.585300       0.999982
    12995.451600       1.000000
    13012.361700       0.999987
    13029.316000       0.999943
    13046.314400       0.999868
    13063.357300       0.999763
    13080.444700       0.999628
    13097.576900       0.999463
    13114.754100       0.999268
    13131.976400       0.999044
    13149.243900       0.998791
    13166.556900       0.998510
    13183.915600       0.998200
    13201.320100       0.997861
    13218.770700       0.997495
    13236.267400       0.997102
    13253.810500       0.996681
    13271.400100       0.996233
    13289.036500       0.995759
    13306.719900       0.995258
    13324.450400       0.994731
    13342.228200       0.994179
    13360.053400       0.993602
    13377.926400       0.992999
    13395.847300       0.992372
    13413.816200       0.991720
    13431.833400       0.991045
    13449.899100       0.990346
    13468.013500       0.989624
    13486.176700       0.988879
    13504.388900       0.988111
    13522.650400       0.987322
    13540.961400       0.986510
    13559.322000       0.985677
    13577.732500       0.984824
    13596.193100       0.983949
    13614.703900       0.983054
    13633.265200       0.982140
    13651.877100       0.981205
    13670.540000       0.980252
    13689.253900       0.979280
    13708.019200       0.978290
    13726.836000       0.977282
    13745.704500       0.976256
    13764.624900       0.975213
    13783.597500       0.974153
    13802.622500       0.973077
    13821.700100       0.971986
    13840.830400       0.970878
    13860.013900       0.969756
    13879.250500       0.968619
    13898.540700       0.967467
    13917.884500       0.966302
    13937.282200       0.965123
    13956.734100       0.963931
    13976.240400       0.962727
    13995.801300       0.961510
    14015.417000       0.960282
    14035.087700       0.959042
    14054.813800       0.957791
    14074.595400       0.956530
    14094.432700       0.955259
    14114.326000       0.953978
    14134.275600       0.952687
    14154.281700       0.951388
    14174.344400       0.950081
    14194.464200       0.948765
    14214.641100       0.947442
    14234.875400       0.946111
    14255.167500       0.944774
    14275.517500       0.943431
    14295.925700       0.942082
    14316.392300       0.940727
    14336.917600       0.939367
    14357.501800       0.938002
    14378.145200       0.936633
    14398.848100       0.935260
    14419.610700       0.933884
    14440.433200       0.932505
    14461.316000       0.931123
    14482.259200       0.929739
    14503.263200       0.928353
    14524.328200       0.926966
    14545.454500       0.925578
    14566.642400       0.924189
    14587.892000       0.922800
    14609.203800       0.921411
    14630.577900       0.920022
    14652.014700       0.918635
    14673.514300       0.917249
    14695.077100       0.915864
    14716.703500       0.914482
    14738.393500       0.913102
    14760.147600       0.911725
    14781.966000       0.910351
    14803.849000       0.908980
    14825.796900       0.907614
    14847.809900       0.906251
    14869.888500       0.904894
    14892.032800       0.903541
    14914.243100       0.902194
    14936.519800       0.900852
    14958.863100       0.899516
    14981.273400       0.898187
    15003.750900       0.896864
    15026.296000       0.895548
    15048.909000       0.894239
    15071.590100       0.892938
    15094.339600       0.891645
    15117.158000       0.890360
    15140.045400       0.889084
    15163.002300       0.887816
    15186.028900       0.886557
    15209.125500       0.885308
    15232.292500       0.884068
    15255.530100       0.882838
    15278.838800       0.881618
    15302.218800       0.880409
    15325.670500       0.879210
    15349.194200       0.878022
    15372.790200       0.876846
    15396.458800       0.875680
    15420.200500       0.874526
    15444.015400       0.873384
    15467.904100       0.872254
    15491.866800       0.871136
    15515.903800       0.870031
    15540.015500       0.868938
    15564.202300       0.867857
    15588.464500       0.866790
    15612.802500       0.865736
    15637.216600       0.864695
    15661.707100       0.863667
    15686.274500       0.862653
    15710.919100       0.861653
    15735.641200       0.860667
    15760.441300       0.859694
    15785.319700       0.858735
    15810.276700       0.857791
    15835.312700       0.856861
    15860.428200       0.855945
    15885.623500       0.855044
    15910.899000       0.854157
    15936.255000       0.853284
    15961.691900       0.852426
    15987.210200       0.851583
    16012.810200       0.850755
    16038.492400       0.849941
    16064.257000       0.849142
    16090.104600       0.848358
    16116.035500       0.847588
    16142.050000       0.846833
    16168.148700       0.846093
    16194.332000       0.845368
    16220.600200       0.844657
    16246.953700       0.843961
    16273.393000       0.843279
    16299.918500       0.842612
    16326.530600       0.841959
    16353.229800       0.841321
    16380.016400       0.840696
    16406.890900       0.840086
    16433.853700       0.839490
    16460.905300       0.838908
    16488.046200       0.838340
    16515.276600       0.837785
    16542.597200       0.837244
    16570.008300       0.836716
    16597.510400       0.836201
    16625.103900       0.835699
    16652.789300       0.835210
    16680.567100       0.834734
    16708.437800       0.834270
    16736.401700       0.833818
    16764.459300       0.833378
    16792.611300       0.832949
    16820.857900       0.832532
    16849.199700       0.832127
    16877.637100       0.831732
    16906.170800       0.831347
    16934.801000       0.830974
    16963.528400       0.830610
    16992.353400       0.830256
    17021.276600       0.829911
    17050.298400       0.829575
    17079.419300       0.829248
    17108.639900       0.828930
    17137.960600       0.828619
    17167.382000       0.828316
    17196.904600       0.828021
    17226.528900       0.827732
    17256.255400       0.827450
    17286.084700       0.827173
