15,   15, MVIRI VIS channel from srf_MET2_1983348_1983349_1801-Release_S10EL_10.dat
Number of data points:
730
Wavenumber (cm-1)   Filter response
     8916.629500       0.000000
     8924.587200       0.000000
     8932.559200       0.000002
     8940.545400       0.000011
     8948.545900       0.000032
     8956.560700       0.000068
     8964.589900       0.000125
     8972.633500       0.000206
     8980.691500       0.000315
     8988.764000       0.000456
     8996.851100       0.000633
     9004.952700       0.000849
     9013.068900       0.001108
     9021.199800       0.001412
     9029.345400       0.001765
     9037.505600       0.002169
     9045.680700       0.002628
     9053.870500       0.003143
     9062.075200       0.003718
     9070.294800       0.004355
     9078.529300       0.005055
     9086.778700       0.005821
     9095.043200       0.006655
     9103.322700       0.007559
     9111.617300       0.008535
     9119.927000       0.009583
     9128.251900       0.010706
     9136.592100       0.011906
     9144.947400       0.013182
     9153.318100       0.014537
     9161.704100       0.015971
     9170.105500       0.017487
     9178.522300       0.019083
     9186.954500       0.020762
     9195.402300       0.022525
     9203.865600       0.024370
     9212.344500       0.026300
     9220.839100       0.028315
     9229.349300       0.030415
     9237.875300       0.032600
     9246.417000       0.034871
     9254.974500       0.037227
     9263.547900       0.039670
     9272.137200       0.042199
     9280.742500       0.044813
     9289.363700       0.047513
     9298.000900       0.050299
     9306.654300       0.053171
     9315.323700       0.056127
     9324.009300       0.059168
     9332.711200       0.062294
     9341.429200       0.065504
     9350.163600       0.068797
     9358.914400       0.072173
     9367.681500       0.075631
     9376.465100       0.079171
     9385.265100       0.082792
     9394.081700       0.086493
     9402.914900       0.090273
     9411.764700       0.094133
     9420.631200       0.098070
     9429.514400       0.102083
     9438.414300       0.106174
     9447.331100       0.110338
     9456.264800       0.114578
     9465.215300       0.118890
     9474.182900       0.123274
     9483.167400       0.127729
     9492.169000       0.132253
     9501.187600       0.136847
     9510.223500       0.141508
     9519.276500       0.146236
     9528.346800       0.151028
     9537.434400       0.155885
     9546.539400       0.160804
     9555.661700       0.165785
     9564.801500       0.170826
     9573.958800       0.175926
     9583.133700       0.181084
     9592.326100       0.186297
     9601.536200       0.191567
     9610.764100       0.196889
     9620.009600       0.202264
     9629.273000       0.207690
     9638.554200       0.213164
     9647.853400       0.218688
     9657.170400       0.224258
     9666.505600       0.229874
     9675.858700       0.235534
     9685.230000       0.241236
     9694.619500       0.246980
     9704.027200       0.252762
     9713.453100       0.258584
     9722.897400       0.264443
     9732.360100       0.270337
     9741.841200       0.276266
     9751.340800       0.282226
     9760.859000       0.288219
     9770.395700       0.294242
     9779.951100       0.300292
     9789.525200       0.306370
     9799.118100       0.312474
     9808.729800       0.318602
     9818.360300       0.324753
     9828.009800       0.330925
     9837.678300       0.337118
     9847.365800       0.343330
     9857.072400       0.349558
     9866.798200       0.355803
     9876.543200       0.362062
     9886.307500       0.368335
     9896.091000       0.374620
     9905.894000       0.380916
     9915.716400       0.387221
     9925.558300       0.393533
     9935.419800       0.399853
     9945.300800       0.406179
     9955.201600       0.412508
     9965.122100       0.418841
     9975.062300       0.425174
     9985.022500       0.431509
     9995.002500       0.437843
    10005.002500       0.444175
    10015.022500       0.450504
    10025.062700       0.456828
    10035.122900       0.463147
    10045.203400       0.469458
    10055.304200       0.475763
    10065.425300       0.482058
    10075.566800       0.488343
    10085.728700       0.494616
    10095.911200       0.500878
    10106.114200       0.507126
    10116.337900       0.513360
    10126.582300       0.519578
    10136.847400       0.525779
    10147.133400       0.531963
    10157.440300       0.538129
    10167.768200       0.544274
    10178.117000       0.550400
    10188.487000       0.556504
    10198.878100       0.562585
    10209.290500       0.568644
    10219.724100       0.574677
    10230.179000       0.580686
    10240.655400       0.586669
    10251.153300       0.592625
    10261.672700       0.598554
    10272.213700       0.604453
    10282.776300       0.610324
    10293.360800       0.616165
    10303.967000       0.621974
    10314.595200       0.627752
    10325.245200       0.633497
    10335.917300       0.639210
    10346.611500       0.644889
    10357.327800       0.650533
    10368.066400       0.656141
    10378.827200       0.661714
    10389.610400       0.667251
    10400.416000       0.672751
    10411.244100       0.678212
    10422.094800       0.683636
    10432.968200       0.689020
    10443.864200       0.694365
    10454.783100       0.699670
    10465.724800       0.704935
    10476.689400       0.710158
    10487.677000       0.715340
    10498.687700       0.720480
    10509.721500       0.725577
    10520.778500       0.730631
    10531.858900       0.735642
    10542.962600       0.740610
    10554.089700       0.745532
    10565.240400       0.750410
    10576.414600       0.755244
    10587.612500       0.760031
    10598.834100       0.764774
    10610.079600       0.769470
    10621.348900       0.774119
    10632.642200       0.778722
    10643.959600       0.783279
    10655.301000       0.787787
    10666.666700       0.792249
    10678.056600       0.796662
    10689.470900       0.801028
    10700.909600       0.805345
    10712.372800       0.809614
    10723.860600       0.813834
    10735.373100       0.818006
    10746.910300       0.822129
    10758.472300       0.826202
    10770.059200       0.830226
    10781.671200       0.834201
    10793.308100       0.838126
    10804.970300       0.842002
    10816.657700       0.845828
    10828.370300       0.849604
    10840.108400       0.853330
    10851.871900       0.857006
    10863.661100       0.860633
    10875.475800       0.864209
    10887.316300       0.867735
    10899.182600       0.871211
    10911.074700       0.874637
    10922.992900       0.878013
    10934.937100       0.881339
    10946.907500       0.884615
    10958.904100       0.887841
    10970.927000       0.891017
    10982.976400       0.894143
    10995.052200       0.897219
    11007.154700       0.900245
    11019.283700       0.903222
    11031.439600       0.906149
    11043.622300       0.909027
    11055.832000       0.911855
    11068.068600       0.914634
    11080.332400       0.917363
    11092.623400       0.920044
    11104.941700       0.922676
    11117.287400       0.925259
    11129.660500       0.927794
    11142.061300       0.930280
    11154.489700       0.932718
    11166.945800       0.935107
    11179.429800       0.937449
    11191.941800       0.939743
    11204.481800       0.941990
    11217.049900       0.944189
    11229.646300       0.946342
    11242.270900       0.948447
    11254.924000       0.950506
    11267.605600       0.952518
    11280.315800       0.954484
    11293.054800       0.956404
    11305.822500       0.958278
    11318.619100       0.960107
    11331.444800       0.961890
    11344.299500       0.963628
    11357.183400       0.965322
    11370.096600       0.966971
    11383.039300       0.968576
    11396.011400       0.970138
    11409.013100       0.971655
    11422.044500       0.973129
    11435.105800       0.974560
    11448.196900       0.975948
    11461.318100       0.977294
    11474.469300       0.978597
    11487.650800       0.979858
    11500.862600       0.981078
    11514.104800       0.982256
    11527.377500       0.983393
    11540.680900       0.984490
    11554.015000       0.985546
    11567.380000       0.986562
    11580.775900       0.987538
    11594.202900       0.988475
    11607.661100       0.989372
    11621.150500       0.990231
    11634.671300       0.991051
    11648.223600       0.991832
    11661.807600       0.992576
    11675.423200       0.993282
    11689.070700       0.993951
    11702.750100       0.994583
    11716.461600       0.995178
    11730.205300       0.995737
    11743.981200       0.996260
    11757.789500       0.996747
    11771.630400       0.997198
    11785.503800       0.997615
    11799.410000       0.997997
    11813.349100       0.998345
    11827.321100       0.998658
    11841.326200       0.998938
    11855.364600       0.999185
    11869.436200       0.999398
    11883.541300       0.999578
    11897.680000       0.999726
    11911.852300       0.999842
    11926.058400       0.999926
    11940.298500       0.999979
    11954.572600       1.000000
    11968.880900       0.999990
    11983.223500       0.999950
    11997.600500       0.999880
    12012.012000       0.999780
    12026.458200       0.999650
    12040.939200       0.999490
    12055.455100       0.999302
    12070.006000       0.999085
    12084.592100       0.998840
    12099.213600       0.998566
    12113.870400       0.998265
    12128.562800       0.997936
    12143.290800       0.997580
    12158.054700       0.997197
    12172.854500       0.996787
    12187.690400       0.996351
    12202.562500       0.995889
    12217.471000       0.995401
    12232.415900       0.994888
    12247.397400       0.994349
    12262.415700       0.993786
    12277.470800       0.993198
    12292.563000       0.992585
    12307.692300       0.991948
    12322.858900       0.991288
    12338.062900       0.990604
    12353.304500       0.989896
    12368.583800       0.989166
    12383.900900       0.988413
    12399.256000       0.987637
    12414.649300       0.986839
    12430.080800       0.986018
    12445.550700       0.985176
    12461.059200       0.984313
    12476.606400       0.983428
    12492.192400       0.982522
    12507.817400       0.981595
    12523.481500       0.980648
    12539.185000       0.979680
    12554.927800       0.978692
    12570.710200       0.977684
    12586.532400       0.976656
    12602.394500       0.975609
    12618.296500       0.974542
    12634.238800       0.973456
    12650.221400       0.972352
    12666.244500       0.971229
    12682.308200       0.970087
    12698.412700       0.968927
    12714.558200       0.967749
    12730.744700       0.966553
    12746.972600       0.965339
    12763.241900       0.964108
    12779.552700       0.962860
    12795.905300       0.961594
    12812.299800       0.960311
    12828.736400       0.959012
    12845.215200       0.957696
    12861.736300       0.956363
    12878.300100       0.955015
    12894.906500       0.953650
    12911.555800       0.952269
    12928.248200       0.950872
    12944.983800       0.949460
    12961.762800       0.948032
    12978.585300       0.946589
    12995.451600       0.945130
    13012.361700       0.943657
    13029.316000       0.942168
    13046.314400       0.940665
    13063.357300       0.939147
    13080.444700       0.937615
    13097.576900       0.936068
    13114.754100       0.934507
    13131.976400       0.932932
    13149.243900       0.931343
    13166.556900       0.929740
    13183.915600       0.928124
    13201.320100       0.926493
    13218.770700       0.924849
    13236.267400       0.923192
    13253.810500       0.921521
    13271.400100       0.919838
    13289.036500       0.918141
    13306.719900       0.916431
    13324.450400       0.914708
    13342.228200       0.912973
    13360.053400       0.911224
    13377.926400       0.909463
    13395.847300       0.907690
    13413.816200       0.905904
    13431.833400       0.904106
    13449.899100       0.902296
    13468.013500       0.900473
    13486.176700       0.898639
    13504.388900       0.896792
    13522.650400       0.894934
    13540.961400       0.893064
    13559.322000       0.891182
    13577.732500       0.889288
    13596.193100       0.887383
    13614.703900       0.885466
    13633.265200       0.883538
    13651.877100       0.881599
    13670.540000       0.879648
    13689.253900       0.877686
    13708.019200       0.875713
    13726.836000       0.873728
    13745.704500       0.871733
    13764.624900       0.869727
    13783.597500       0.867710
    13802.622500       0.865682
    13821.700100       0.863643
    13840.830400       0.861593
    13860.013900       0.859533
    13879.250500       0.857463
    13898.540700       0.855381
    13917.884500       0.853290
    13937.282200       0.851188
    13956.734100       0.849075
    13976.240400       0.846953
    13995.801300       0.844820
    14015.417000       0.842677
    14035.087700       0.840523
    14054.813800       0.838360
    14074.595400       0.836187
    14094.432700       0.834004
    14114.326000       0.831811
    14134.275600       0.829608
    14154.281700       0.827395
    14174.344400       0.825172
    14194.464200       0.822940
    14214.641100       0.820699
    14234.875400       0.818447
    14255.167500       0.816187
    14275.517500       0.813917
    14295.925700       0.811637
    14316.392300       0.809348
    14336.917600       0.807050
    14357.501800       0.804743
    14378.145200       0.802426
    14398.848100       0.800101
    14419.610700       0.797766
    14440.433200       0.795423
    14461.316000       0.793070
    14482.259200       0.790709
    14503.263200       0.788339
    14524.328200       0.785961
    14545.454500       0.783573
    14566.642400       0.781177
    14587.892000       0.778773
    14609.203800       0.776360
    14630.577900       0.773939
    14652.014700       0.771509
    14673.514300       0.769071
    14695.077100       0.766625
    14716.703500       0.764171
    14738.393500       0.761709
    14760.147600       0.759239
    14781.966000       0.756761
    14803.849000       0.754276
    14825.796900       0.751782
    14847.809900       0.749281
    14869.888500       0.746773
    14892.032800       0.744257
    14914.243100       0.741733
    14936.519800       0.739202
    14958.863100       0.736664
    14981.273400       0.734119
    15003.750900       0.731567
    15026.296000       0.729007
    15048.909000       0.726441
    15071.590100       0.723868
    15094.339600       0.721289
    15117.158000       0.718702
    15140.045400       0.716110
    15163.002300       0.713511
    15186.028900       0.710905
    15209.125500       0.708293
    15232.292500       0.705675
    15255.530100       0.703052
    15278.838800       0.700422
    15302.218800       0.697786
    15325.670500       0.695145
    15349.194200       0.692498
    15372.790200       0.689846
    15396.458800       0.687188
    15420.200500       0.684525
    15444.015400       0.681857
    15467.904100       0.679184
    15491.866800       0.676505
    15515.903800       0.673822
    15540.015500       0.671135
    15564.202300       0.668442
    15588.464500       0.665746
    15612.802500       0.663045
    15637.216600       0.660340
    15661.707100       0.657630
    15686.274500       0.654917
    15710.919100       0.652200
    15735.641200       0.649479
    15760.441300       0.646754
    15785.319700       0.644026
    15810.276700       0.641295
    15835.312700       0.638561
    15860.428200       0.635824
    15885.623500       0.633083
    15910.899000       0.630340
    15936.255000       0.627594
    15961.691900       0.624846
    15987.210200       0.622095
    16012.810200       0.619342
    16038.492400       0.616587
    16064.257000       0.613830
    16090.104600       0.611072
    16116.035500       0.608311
    16142.050000       0.605549
    16168.148700       0.602786
    16194.332000       0.600021
    16220.600200       0.597256
    16246.953700       0.594489
    16273.393000       0.591722
    16299.918500       0.588954
    16326.530600       0.586185
    16353.229800       0.583416
    16380.016400       0.580647
    16406.890900       0.577878
    16433.853700       0.575109
    16460.905300       0.572340
    16488.046200       0.569571
    16515.276600       0.566803
    16542.597200       0.564036
    16570.008300       0.561270
    16597.510400       0.558504
    16625.103900       0.555740
    16652.789300       0.552976
    16680.567100       0.550215
    16708.437800       0.547455
    16736.401700       0.544696
    16764.459300       0.541940
    16792.611300       0.539185
    16820.857900       0.536433
    16849.199700       0.533683
    16877.637100       0.530935
    16906.170800       0.528190
    16934.801000       0.525447
    16963.528400       0.522708
    16992.353400       0.519972
    17021.276600       0.517238
    17050.298400       0.514508
    17079.419300       0.511781
    17108.639900       0.509058
    17137.960600       0.506339
    17167.382000       0.503623
    17196.904600       0.500912
    17226.528900       0.498204
    17256.255400       0.495501
    17286.084700       0.492802
    17316.017300       0.490108
    17346.053800       0.487418
    17376.194600       0.484733
    17406.440400       0.482053
    17436.791600       0.479377
    17467.248900       0.476707
    17497.812800       0.474042
    17528.483800       0.471383
    17559.262500       0.468728
    17590.149500       0.466080
    17621.145400       0.463437
    17652.250700       0.460799
    17683.466000       0.458168
    17714.791900       0.455542
    17746.228900       0.452923
    17777.777800       0.450309
    17809.439000       0.447702
    17841.213200       0.445101
    17873.101000       0.442507
    17905.103000       0.439919
    17937.219700       0.437338
    17969.451900       0.434763
    18001.800200       0.432195
    18034.265100       0.429634
    18066.847300       0.427079
    18099.547500       0.424532
    18132.366300       0.421991
    18165.304300       0.419457
    18198.362100       0.416931
    18231.540600       0.414412
    18264.840200       0.411900
    18298.261700       0.409395
    18331.805700       0.406897
    18365.472900       0.404407
    18399.264000       0.401923
    18433.179700       0.399448
    18467.220700       0.396979
    18501.387600       0.394518
    18535.681200       0.392065
    18570.102100       0.389619
    18604.651200       0.387180
    18639.329000       0.384748
    18674.136300       0.382324
    18709.073900       0.379908
    18744.142500       0.377499
    18779.342700       0.375097
    18814.675400       0.372703
    18850.141400       0.370316
    18885.741300       0.367936
    18921.475900       0.365563
    18957.346000       0.363198
    18993.352300       0.360840
    19029.495700       0.358489
    19065.776900       0.356145
    19102.196800       0.353809
    19138.756000       0.351479
    19175.455400       0.349156
    19212.295900       0.346840
    19249.278200       0.344531
    19286.403100       0.342228
    19323.671500       0.339933
    19361.084200       0.337643
    19398.642100       0.335360
    19436.346000       0.333084
    19474.196700       0.330813
    19512.195100       0.328549
    19550.342100       0.326291
    19588.638600       0.324039
    19627.085400       0.321792
    19665.683400       0.319551
    19704.433500       0.317316
    19743.336600       0.315086
    19782.393700       0.312861
    19821.605600       0.310641
    19860.973200       0.308426
    19900.497500       0.306216
