99,   99, MVIRI VIS channel from srf_MET5_2003213_2003214_1801-Release_S10EL_10.dat
Number of data points:
806
Wavenumber (cm-1)   Filter response
     8350.730700       0.000000
     8357.710000       0.000000
     8364.701000       0.000000
     8371.703600       0.000002
     8378.718100       0.000004
     8385.744200       0.000009
     8392.782200       0.000017
     8399.832000       0.000028
     8406.893700       0.000042
     8413.967200       0.000061
     8421.052600       0.000085
     8428.150000       0.000114
     8435.259400       0.000148
     8442.380800       0.000189
     8449.514200       0.000237
     8456.659600       0.000291
     8463.817200       0.000353
     8470.986900       0.000423
     8478.168700       0.000501
     8485.362700       0.000587
     8492.569000       0.000683
     8499.787500       0.000787
     8507.018300       0.000901
     8514.261400       0.001025
     8521.516800       0.001160
     8528.784600       0.001304
     8536.064900       0.001460
     8543.357500       0.001627
     8550.662700       0.001804
     8557.980300       0.001994
     8565.310500       0.002195
     8572.653200       0.002408
     8580.008600       0.002634
     8587.376600       0.002872
     8594.757200       0.003123
     8602.150500       0.003387
     8609.556600       0.003664
     8616.975400       0.003954
     8624.407100       0.004258
     8631.851500       0.004576
     8639.308900       0.004908
     8646.779100       0.005253
     8654.262200       0.005613
     8661.758300       0.005988
     8669.267400       0.006377
     8676.789600       0.006781
     8684.324800       0.007200
     8691.873100       0.007634
     8699.434500       0.008083
     8707.009100       0.008547
     8714.596900       0.009028
     8722.198000       0.009523
     8729.812300       0.010035
     8737.439900       0.010563
     8745.080900       0.011106
     8752.735200       0.011666
     8760.403000       0.012242
     8768.084200       0.012835
     8775.778900       0.013444
     8783.487000       0.014070
     8791.208800       0.014713
     8798.944100       0.015373
     8806.693100       0.016050
     8814.455700       0.016744
     8822.232000       0.017455
     8830.022100       0.018184
     8837.825900       0.018930
     8845.643500       0.019694
     8853.475000       0.020476
     8861.320300       0.021275
     8869.179600       0.022093
     8877.052800       0.022929
     8884.940000       0.023783
     8892.841300       0.024655
     8900.756600       0.025545
     8908.686000       0.026454
     8916.629500       0.027382
     8924.587200       0.028328
     8932.559200       0.029294
     8940.545400       0.030278
     8948.545900       0.031281
     8956.560700       0.032303
     8964.589900       0.033345
     8972.633500       0.034406
     8980.691500       0.035486
     8988.764000       0.036586
     8996.851100       0.037706
     9004.952700       0.038845
     9013.068900       0.040004
     9021.199800       0.041183
     9029.345400       0.042382
     9037.505600       0.043601
     9045.680700       0.044841
     9053.870500       0.046101
     9062.075200       0.047381
     9070.294800       0.048682
     9078.529300       0.050003
     9086.778700       0.051345
     9095.043200       0.052708
     9103.322700       0.054092
     9111.617300       0.055497
     9119.927000       0.056923
     9128.251900       0.058370
     9136.592100       0.059838
     9144.947400       0.061328
     9153.318100       0.062839
     9161.704100       0.064372
     9170.105500       0.065927
     9178.522300       0.067503
     9186.954500       0.069101
     9195.402300       0.070721
     9203.865600       0.072362
     9212.344500       0.074026
     9220.839100       0.075712
     9229.349300       0.077421
     9237.875300       0.079151
     9246.417000       0.080904
     9254.974500       0.082679
     9263.547900       0.084477
     9272.137200       0.086298
     9280.742500       0.088141
     9289.363700       0.090007
     9298.000900       0.091896
     9306.654300       0.093808
     9315.323700       0.095742
     9324.009300       0.097700
     9332.711200       0.099681
     9341.429200       0.101684
     9350.163600       0.103711
     9358.914400       0.105761
     9367.681500       0.107835
     9376.465100       0.109932
     9385.265100       0.112052
     9394.081700       0.114196
     9402.914900       0.116363
     9411.764700       0.118554
     9420.631200       0.120768
     9429.514400       0.123006
     9438.414300       0.125268
     9447.331100       0.127553
     9456.264800       0.129862
     9465.215300       0.132195
     9474.182900       0.134551
     9483.167400       0.136931
     9492.169000       0.139335
     9501.187600       0.141763
     9510.223500       0.144215
     9519.276500       0.146690
     9528.346800       0.149190
     9537.434400       0.151713
     9546.539400       0.154260
     9555.661700       0.156831
     9564.801500       0.159425
     9573.958800       0.162044
     9583.133700       0.164686
     9592.326100       0.167352
     9601.536200       0.170042
     9610.764100       0.172755
     9620.009600       0.175493
     9629.273000       0.178254
     9638.554200       0.181038
     9647.853400       0.183847
     9657.170400       0.186678
     9666.505600       0.189534
     9675.858700       0.192413
     9685.230000       0.195315
     9694.619500       0.198241
     9704.027200       0.201189
     9713.453100       0.204162
     9722.897400       0.207157
     9732.360100       0.210175
     9741.841200       0.213217
     9751.340800       0.216281
     9760.859000       0.219369
     9770.395700       0.222479
     9779.951100       0.225611
     9789.525200       0.228767
     9799.118100       0.231945
     9808.729800       0.235145
     9818.360300       0.238367
     9828.009800       0.241612
     9837.678300       0.244878
     9847.365800       0.248167
     9857.072400       0.251477
     9866.798200       0.254809
     9876.543200       0.258163
     9886.307500       0.261538
     9896.091000       0.264934
     9905.894000       0.268351
     9915.716400       0.271789
     9925.558300       0.275248
     9935.419800       0.278728
     9945.300800       0.282228
     9955.201600       0.285748
     9965.122100       0.289289
     9975.062300       0.292849
     9985.022500       0.296429
     9995.002500       0.300029
    10005.002500       0.303648
    10015.022500       0.307287
    10025.062700       0.310944
    10035.122900       0.314620
    10045.203400       0.318315
    10055.304200       0.322028
    10065.425300       0.325760
    10075.566800       0.329509
    10085.728700       0.333276
    10095.911200       0.337060
    10106.114200       0.340862
    10116.337900       0.344681
    10126.582300       0.348516
    10136.847400       0.352368
    10147.133400       0.356237
    10157.440300       0.360121
    10167.768200       0.364021
    10178.117000       0.367937
    10188.487000       0.371868
    10198.878100       0.375814
    10209.290500       0.379775
    10219.724100       0.383750
    10230.179000       0.387739
    10240.655400       0.391742
    10251.153300       0.395759
    10261.672700       0.399789
    10272.213700       0.403832
    10282.776300       0.407888
    10293.360800       0.411956
    10303.967000       0.416037
    10314.595200       0.420129
    10325.245200       0.424232
    10335.917300       0.428347
    10346.611500       0.432473
    10357.327800       0.436609
    10368.066400       0.440755
    10378.827200       0.444911
    10389.610400       0.449077
    10400.416000       0.453252
    10411.244100       0.457436
    10422.094800       0.461628
    10432.968200       0.465829
    10443.864200       0.470037
    10454.783100       0.474253
    10465.724800       0.478476
    10476.689400       0.482706
    10487.677000       0.486942
    10498.687700       0.491184
    10509.721500       0.495432
    10520.778500       0.499685
    10531.858900       0.503943
    10542.962600       0.508206
    10554.089700       0.512473
    10565.240400       0.516744
    10576.414600       0.521018
    10587.612500       0.525296
    10598.834100       0.529576
    10610.079600       0.533859
    10621.348900       0.538143
    10632.642200       0.542429
    10643.959600       0.546716
    10655.301000       0.551004
    10666.666700       0.555292
    10678.056600       0.559580
    10689.470900       0.563868
    10700.909600       0.568155
    10712.372800       0.572441
    10723.860600       0.576725
    10735.373100       0.581008
    10746.910300       0.585288
    10758.472300       0.589565
    10770.059200       0.593838
    10781.671200       0.598109
    10793.308100       0.602375
    10804.970300       0.606637
    10816.657700       0.610894
    10828.370300       0.615145
    10840.108400       0.619391
    10851.871900       0.623631
    10863.661100       0.627865
    10875.475800       0.632092
    10887.316300       0.636311
    10899.182600       0.640523
    10911.074700       0.644727
    10922.992900       0.648922
    10934.937100       0.653108
    10946.907500       0.657285
    10958.904100       0.661452
    10970.927000       0.665609
    10982.976400       0.669756
    10995.052200       0.673891
    11007.154700       0.678016
    11019.283700       0.682128
    11031.439600       0.686228
    11043.622300       0.690316
    11055.832000       0.694391
    11068.068600       0.698452
    11080.332400       0.702500
    11092.623400       0.706534
    11104.941700       0.710552
    11117.287400       0.714556
    11129.660500       0.718545
    11142.061300       0.722518
    11154.489700       0.726475
    11166.945800       0.730415
    11179.429800       0.734338
    11191.941800       0.738244
    11204.481800       0.742132
    11217.049900       0.746002
    11229.646300       0.749854
    11242.270900       0.753687
    11254.924000       0.757501
    11267.605600       0.761295
    11280.315800       0.765069
    11293.054800       0.768823
    11305.822500       0.772556
    11318.619100       0.776268
    11331.444800       0.779959
    11344.299500       0.783628
    11357.183400       0.787274
    11370.096600       0.790899
    11383.039300       0.794500
    11396.011400       0.798078
    11409.013100       0.801633
    11422.044500       0.805164
    11435.105800       0.808671
    11448.196900       0.812153
    11461.318100       0.815610
    11474.469300       0.819042
    11487.650800       0.822449
    11500.862600       0.825830
    11514.104800       0.829185
    11527.377500       0.832513
    11540.680900       0.835814
    11554.015000       0.839089
    11567.380000       0.842336
    11580.775900       0.845555
    11594.202900       0.848747
    11607.661100       0.851910
    11621.150500       0.855045
    11634.671300       0.858150
    11648.223600       0.861227
    11661.807600       0.864275
    11675.423200       0.867292
    11689.070700       0.870281
    11702.750100       0.873238
    11716.461600       0.876166
    11730.205300       0.879063
    11743.981200       0.881929
    11757.789500       0.884764
    11771.630400       0.887567
    11785.503800       0.890339
    11799.410000       0.893080
    11813.349100       0.895788
    11827.321100       0.898464
    11841.326200       0.901108
    11855.364600       0.903718
    11869.436200       0.906297
    11883.541300       0.908842
    11897.680000       0.911354
    11911.852300       0.913832
    11926.058400       0.916278
    11940.298500       0.918689
    11954.572600       0.921066
    11968.880900       0.923410
    11983.223500       0.925719
    11997.600500       0.927994
    12012.012000       0.930234
    12026.458200       0.932440
    12040.939200       0.934611
    12055.455100       0.936747
    12070.006000       0.938849
    12084.592100       0.940915
    12099.213600       0.942946
    12113.870400       0.944941
    12128.562800       0.946901
    12143.290800       0.948826
    12158.054700       0.950715
    12172.854500       0.952569
    12187.690400       0.954386
    12202.562500       0.956168
    12217.471000       0.957915
    12232.415900       0.959625
    12247.397400       0.961299
    12262.415700       0.962937
    12277.470800       0.964540
    12292.563000       0.966106
    12307.692300       0.967636
    12322.858900       0.969130
    12338.062900       0.970588
    12353.304500       0.972010
    12368.583800       0.973395
    12383.900900       0.974745
    12399.256000       0.976059
    12414.649300       0.977336
    12430.080800       0.978578
    12445.550700       0.979783
    12461.059200       0.980952
    12476.606400       0.982086
    12492.192400       0.983184
    12507.817400       0.984246
    12523.481500       0.985272
    12539.185000       0.986262
    12554.927800       0.987217
    12570.710200       0.988137
    12586.532400       0.989021
    12602.394500       0.989869
    12618.296500       0.990683
    12634.238800       0.991461
    12650.221400       0.992204
    12666.244500       0.992913
    12682.308200       0.993586
    12698.412700       0.994225
    12714.558200       0.994830
    12730.744700       0.995400
    12746.972600       0.995935
    12763.241900       0.996437
    12779.552700       0.996905
    12795.905300       0.997339
    12812.299800       0.997740
    12828.736400       0.998107
    12845.215200       0.998441
    12861.736300       0.998742
    12878.300100       0.999011
    12894.906500       0.999246
    12911.555800       0.999449
    12928.248200       0.999620
    12944.983800       0.999759
    12961.762800       0.999867
    12978.585300       0.999942
    12995.451600       0.999987
    13012.361700       1.000000
    13029.316000       0.999982
    13046.314400       0.999934
    13063.357300       0.999856
    13080.444700       0.999748
    13097.576900       0.999609
    13114.754100       0.999441
    13131.976400       0.999244
    13149.243900       0.999018
    13166.556900       0.998764
    13183.915600       0.998480
    13201.320100       0.998169
    13218.770700       0.997830
    13236.267400       0.997463
    13253.810500       0.997070
    13271.400100       0.996649
    13289.036500       0.996202
    13306.719900       0.995728
    13324.450400       0.995228
    13342.228200       0.994703
    13360.053400       0.994153
    13377.926400       0.993577
    13395.847300       0.992977
    13413.816200       0.992353
    13431.833400       0.991705
    13449.899100       0.991033
    13468.013500       0.990338
    13486.176700       0.989620
    13504.388900       0.988879
    13522.650400       0.988117
    13540.961400       0.987332
    13559.322000       0.986527
    13577.732500       0.985700
    13596.193100       0.984852
    13614.703900       0.983985
    13633.265200       0.983097
    13651.877100       0.982190
    13670.540000       0.981264
    13689.253900       0.980319
    13708.019200       0.979355
    13726.836000       0.978374
    13745.704500       0.977375
    13764.624900       0.976359
    13783.597500       0.975326
    13802.622500       0.974277
    13821.700100       0.973212
    13840.830400       0.972132
    13860.013900       0.971036
    13879.250500       0.969926
    13898.540700       0.968801
    13917.884500       0.967662
    13937.282200       0.966510
    13956.734100       0.965345
    13976.240400       0.964167
    13995.801300       0.962977
    14015.417000       0.961775
    14035.087700       0.960562
    14054.813800       0.959337
    14074.595400       0.958103
    14094.432700       0.956858
    14114.326000       0.955603
    14134.275600       0.954339
    14154.281700       0.953066
    14174.344400       0.951785
    14194.464200       0.950495
    14214.641100       0.949198
    14234.875400       0.947894
    14255.167500       0.946583
    14275.517500       0.945265
    14295.925700       0.943942
    14316.392300       0.942613
    14336.917600       0.941279
    14357.501800       0.939940
    14378.145200       0.938597
    14398.848100       0.937250
    14419.610700       0.935900
    14440.433200       0.934546
    14461.316000       0.933190
    14482.259200       0.931832
    14503.263200       0.930472
    14524.328200       0.929110
    14545.454500       0.927747
    14566.642400       0.926384
    14587.892000       0.925020
    14609.203800       0.923657
    14630.577900       0.922294
    14652.014700       0.920932
    14673.514300       0.919571
    14695.077100       0.918212
    14716.703500       0.916855
    14738.393500       0.915500
    14760.147600       0.914148
    14781.966000       0.912800
    14803.849000       0.911454
    14825.796900       0.910113
    14847.809900       0.908776
    14869.888500       0.907444
    14892.032800       0.906116
    14914.243100       0.904794
    14936.519800       0.903477
    14958.863100       0.902167
    14981.273400       0.900862
    15003.750900       0.899565
    15026.296000       0.898274
    15048.909000       0.896990
    15071.590100       0.895715
    15094.339600       0.894447
    15117.158000       0.893187
    15140.045400       0.891935
    15163.002300       0.890693
    15186.028900       0.889459
    15209.125500       0.888235
    15232.292500       0.887020
    15255.530100       0.885815
    15278.838800       0.884621
    15302.218800       0.883437
    15325.670500       0.882263
    15349.194200       0.881100
    15372.790200       0.879949
    15396.458800       0.878808
    15420.200500       0.877680
    15444.015400       0.876563
    15467.904100       0.875458
    15491.866800       0.874366
    15515.903800       0.873285
    15540.015500       0.872218
    15564.202300       0.871163
    15588.464500       0.870121
    15612.802500       0.869092
    15637.216600       0.868077
    15661.707100       0.867075
    15686.274500       0.866087
    15710.919100       0.865112
    15735.641200       0.864151
    15760.441300       0.863204
    15785.319700       0.862272
    15810.276700       0.861353
    15835.312700       0.860449
    15860.428200       0.859559
    15885.623500       0.858683
    15910.899000       0.857823
    15936.255000       0.856976
    15961.691900       0.856145
    15987.210200       0.855328
    16012.810200       0.854526
    16038.492400       0.853738
    16064.257000       0.852966
    16090.104600       0.852208
    16116.035500       0.851465
    16142.050000       0.850737
    16168.148700       0.850023
    16194.332000       0.849325
    16220.600200       0.848641
    16246.953700       0.847971
    16273.393000       0.847317
    16299.918500       0.846677
    16326.530600       0.846051
    16353.229800       0.845440
    16380.016400       0.844843
    16406.890900       0.844261
    16433.853700       0.843692
    16460.905300       0.843138
    16488.046200       0.842597
    16515.276600       0.842070
    16542.597200       0.841557
    16570.008300       0.841057
    16597.510400       0.840570
    16625.103900       0.840096
    16652.789300       0.839636
    16680.567100       0.839188
    16708.437800       0.838752
    16736.401700       0.838328
    16764.459300       0.837917
    16792.611300       0.837517
    16820.857900       0.837129
    16849.199700       0.836753
    16877.637100       0.836387
    16906.170800       0.836032
    16934.801000       0.835687
    16963.528400       0.835352
    16992.353400       0.835028
    17021.276600       0.834712
    17050.298400       0.834406
    17079.419300       0.834109
    17108.639900       0.833820
    17137.960600       0.833539
    17167.382000       0.833266
    17196.904600       0.833001
    17226.528900       0.832742
    17256.255400       0.832490
    17286.084700       0.832244
