10,   10, MVIRI VIS channel from srf_MET3_1990033_1990034_1801-Release_S10EE_10.dat
Number of data points:
743
Wavenumber (cm-1)   Filter response
     8814.455700       0.000000
     8822.232000       0.000000
     8830.022100       0.000705
     8837.825900       0.002958
     8845.643500       0.005231
     8853.475000       0.007522
     8861.320300       0.009830
     8869.179600       0.012154
     8877.052800       0.014494
     8884.940000       0.016847
     8892.841300       0.019214
     8900.756600       0.021592
     8908.686000       0.023982
     8916.629500       0.026383
     8924.587200       0.028793
     8932.559200       0.031212
     8940.545400       0.033640
     8948.545900       0.036075
     8956.560700       0.038517
     8964.589900       0.040966
     8972.633500       0.043421
     8980.691500       0.045882
     8988.764000       0.048349
     8996.851100       0.050819
     9004.952700       0.053295
     9013.068900       0.055775
     9021.199800       0.058259
     9029.345400       0.060747
     9037.505600       0.063237
     9045.680700       0.065732
     9053.870500       0.068229
     9062.075200       0.070730
     9070.294800       0.073234
     9078.529300       0.075741
     9086.778700       0.078250
     9095.043200       0.080763
     9103.322700       0.083278
     9111.617300       0.085796
     9119.927000       0.088316
     9128.251900       0.090840
     9136.592100       0.093367
     9144.947400       0.095897
     9153.318100       0.098431
     9161.704100       0.100967
     9170.105500       0.103507
     9178.522300       0.106051
     9186.954500       0.108598
     9195.402300       0.111150
     9203.865600       0.113706
     9212.344500       0.116266
     9220.839100       0.118831
     9229.349300       0.121401
     9237.875300       0.123976
     9246.417000       0.126556
     9254.974500       0.129142
     9263.547900       0.131734
     9272.137200       0.134332
     9280.742500       0.136936
     9289.363700       0.139547
     9298.000900       0.142165
     9306.654300       0.144791
     9315.323700       0.147423
     9324.009300       0.150064
     9332.711200       0.152713
     9341.429200       0.155370
     9350.163600       0.158037
     9358.914400       0.160711
     9367.681500       0.163396
     9376.465100       0.166090
     9385.265100       0.168794
     9394.081700       0.171509
     9402.914900       0.174233
     9411.764700       0.176969
     9420.631200       0.179716
     9429.514400       0.182475
     9438.414300       0.185245
     9447.331100       0.188027
     9456.264800       0.190821
     9465.215300       0.193629
     9474.182900       0.196449
     9483.167400       0.199282
     9492.169000       0.202128
     9501.187600       0.204989
     9510.223500       0.207863
     9519.276500       0.210751
     9528.346800       0.213654
     9537.434400       0.216572
     9546.539400       0.219505
     9555.661700       0.222453
     9564.801500       0.225415
     9573.958800       0.228394
     9583.133700       0.231389
     9592.326100       0.234400
     9601.536200       0.237427
     9610.764100       0.240470
     9620.009600       0.243530
     9629.273000       0.246607
     9638.554200       0.249700
     9647.853400       0.252811
     9657.170400       0.255939
     9666.505600       0.259084
     9675.858700       0.262247
     9685.230000       0.265428
     9694.619500       0.268626
     9704.027200       0.271842
     9713.453100       0.275077
     9722.897400       0.278329
     9732.360100       0.281599
     9741.841200       0.284888
     9751.340800       0.288195
     9760.859000       0.291521
     9770.395700       0.294864
     9779.951100       0.298226
     9789.525200       0.301607
     9799.118100       0.305006
     9808.729800       0.308424
     9818.360300       0.311860
     9828.009800       0.315314
     9837.678300       0.318788
     9847.365800       0.322279
     9857.072400       0.325789
     9866.798200       0.329317
     9876.543200       0.332864
     9886.307500       0.336428
     9896.091000       0.340012
     9905.894000       0.343612
     9915.716400       0.347231
     9925.558300       0.350868
     9935.419800       0.354523
     9945.300800       0.358196
     9955.201600       0.361885
     9965.122100       0.365593
     9975.062300       0.369317
     9985.022500       0.373059
     9995.002500       0.376818
    10005.002500       0.380593
    10015.022500       0.384385
    10025.062700       0.388194
    10035.122900       0.392018
    10045.203400       0.395859
    10055.304200       0.399716
    10065.425300       0.403588
    10075.566800       0.407476
    10085.728700       0.411378
    10095.911200       0.415296
    10106.114200       0.419229
    10116.337900       0.423175
    10126.582300       0.427136
    10136.847400       0.431111
    10147.133400       0.435099
    10157.440300       0.439101
    10167.768200       0.443116
    10178.117000       0.447143
    10188.487000       0.451183
    10198.878100       0.455235
    10209.290500       0.459298
    10219.724100       0.463374
    10230.179000       0.467460
    10240.655400       0.471557
    10251.153300       0.475665
    10261.672700       0.479783
    10272.213700       0.483910
    10282.776300       0.488047
    10293.360800       0.492193
    10303.967000       0.496348
    10314.595200       0.500511
    10325.245200       0.504681
    10335.917300       0.508860
    10346.611500       0.513045
    10357.327800       0.517238
    10368.066400       0.521436
    10378.827200       0.525641
    10389.610400       0.529851
    10400.416000       0.534067
    10411.244100       0.538287
    10422.094800       0.542511
    10432.968200       0.546740
    10443.864200       0.550972
    10454.783100       0.555207
    10465.724800       0.559444
    10476.689400       0.563684
    10487.677000       0.567925
    10498.687700       0.572168
    10509.721500       0.576412
    10520.778500       0.580656
    10531.858900       0.584900
    10542.962600       0.589144
    10554.089700       0.593386
    10565.240400       0.597628
    10576.414600       0.601867
    10587.612500       0.606105
    10598.834100       0.610340
    10610.079600       0.614571
    10621.348900       0.618799
    10632.642200       0.623022
    10643.959600       0.627242
    10655.301000       0.631456
    10666.666700       0.635665
    10678.056600       0.639868
    10689.470900       0.644064
    10700.909600       0.648254
    10712.372800       0.652436
    10723.860600       0.656611
    10735.373100       0.660777
    10746.910300       0.664935
    10758.472300       0.669083
    10770.059200       0.673222
    10781.671200       0.677351
    10793.308100       0.681469
    10804.970300       0.685577
    10816.657700       0.689672
    10828.370300       0.693756
    10840.108400       0.697828
    10851.871900       0.701887
    10863.661100       0.705933
    10875.475800       0.709965
    10887.316300       0.713982
    10899.182600       0.717986
    10911.074700       0.721974
    10922.992900       0.725947
    10934.937100       0.729904
    10946.907500       0.733844
    10958.904100       0.737768
    10970.927000       0.741675
    10982.976400       0.745564
    10995.052200       0.749435
    11007.154700       0.753288
    11019.283700       0.757121
    11031.439600       0.760936
    11043.622300       0.764731
    11055.832000       0.768505
    11068.068600       0.772259
    11080.332400       0.775993
    11092.623400       0.779705
    11104.941700       0.783395
    11117.287400       0.787063
    11129.660500       0.790709
    11142.061300       0.794332
    11154.489700       0.797931
    11166.945800       0.801507
    11179.429800       0.805059
    11191.941800       0.808587
    11204.481800       0.812090
    11217.049900       0.815568
    11229.646300       0.819020
    11242.270900       0.822447
    11254.924000       0.825848
    11267.605600       0.829223
    11280.315800       0.832570
    11293.054800       0.835891
    11305.822500       0.839184
    11318.619100       0.842449
    11331.444800       0.845687
    11344.299500       0.848896
    11357.183400       0.852076
    11370.096600       0.855228
    11383.039300       0.858350
    11396.011400       0.861442
    11409.013100       0.864505
    11422.044500       0.867538
    11435.105800       0.870541
    11448.196900       0.873513
    11461.318100       0.876454
    11474.469300       0.879364
    11487.650800       0.882243
    11500.862600       0.885090
    11514.104800       0.887905
    11527.377500       0.890688
    11540.680900       0.893439
    11554.015000       0.896157
    11567.380000       0.898843
    11580.775900       0.901496
    11594.202900       0.904115
    11607.661100       0.906702
    11621.150500       0.909255
    11634.671300       0.911774
    11648.223600       0.914259
    11661.807600       0.916710
    11675.423200       0.919127
    11689.070700       0.921510
    11702.750100       0.923858
    11716.461600       0.926172
    11730.205300       0.928450
    11743.981200       0.930694
    11757.789500       0.932903
    11771.630400       0.935076
    11785.503800       0.937215
    11799.410000       0.939318
    11813.349100       0.941385
    11827.321100       0.943417
    11841.326200       0.945413
    11855.364600       0.947373
    11869.436200       0.949297
    11883.541300       0.951186
    11897.680000       0.953038
    11911.852300       0.954855
    11926.058400       0.956635
    11940.298500       0.958379
    11954.572600       0.960087
    11968.880900       0.961758
    11983.223500       0.963394
    11997.600500       0.964993
    12012.012000       0.966555
    12026.458200       0.968082
    12040.939200       0.969571
    12055.455100       0.971025
    12070.006000       0.972442
    12084.592100       0.973823
    12099.213600       0.975167
    12113.870400       0.976476
    12128.562800       0.977747
    12143.290800       0.978983
    12158.054700       0.980182
    12172.854500       0.981346
    12187.690400       0.982473
    12202.562500       0.983563
    12217.471000       0.984618
    12232.415900       0.985637
    12247.397400       0.986620
    12262.415700       0.987567
    12277.470800       0.988479
    12292.563000       0.989355
    12307.692300       0.990195
    12322.858900       0.991000
    12338.062900       0.991769
    12353.304500       0.992503
    12368.583800       0.993202
    12383.900900       0.993866
    12399.256000       0.994494
    12414.649300       0.995088
    12430.080800       0.995648
    12445.550700       0.996173
    12461.059200       0.996663
    12476.606400       0.997119
    12492.192400       0.997541
    12507.817400       0.997929
    12523.481500       0.998283
    12539.185000       0.998603
    12554.927800       0.998890
    12570.710200       0.999144
    12586.532400       0.999364
    12602.394500       0.999552
    12618.296500       0.999706
    12634.238800       0.999828
    12650.221400       0.999918
    12666.244500       0.999975
    12682.308200       1.000000
    12698.412700       0.999993
    12714.558200       0.999955
    12730.744700       0.999885
    12746.972600       0.999784
    12763.241900       0.999652
    12779.552700       0.999489
    12795.905300       0.999295
    12812.299800       0.999071
    12828.736400       0.998817
    12845.215200       0.998533
    12861.736300       0.998219
    12878.300100       0.997875
    12894.906500       0.997503
    12911.555800       0.997101
    12928.248200       0.996670
    12944.983800       0.996211
    12961.762800       0.995724
    12978.585300       0.995209
    12995.451600       0.994666
    13012.361700       0.994095
    13029.316000       0.993497
    13046.314400       0.992872
    13063.357300       0.992220
    13080.444700       0.991541
    13097.576900       0.990837
    13114.754100       0.990106
    13131.976400       0.989350
    13149.243900       0.988568
    13166.556900       0.987760
    13183.915600       0.986928
    13201.320100       0.986071
    13218.770700       0.985190
    13236.267400       0.984285
    13253.810500       0.983356
    13271.400100       0.982403
    13289.036500       0.981427
    13306.719900       0.980427
    13324.450400       0.979405
    13342.228200       0.978361
    13360.053400       0.977294
    13377.926400       0.976205
    13395.847300       0.975095
    13413.816200       0.973963
    13431.833400       0.972810
    13449.899100       0.971637
    13468.013500       0.970442
    13486.176700       0.969228
    13504.388900       0.967993
    13522.650400       0.966739
    13540.961400       0.965465
    13559.322000       0.964172
    13577.732500       0.962860
    13596.193100       0.961530
    13614.703900       0.960181
    13633.265200       0.958814
    13651.877100       0.957430
    13670.540000       0.956027
    13689.253900       0.954608
    13708.019200       0.953172
    13726.836000       0.951719
    13745.704500       0.950249
    13764.624900       0.948763
    13783.597500       0.947262
    13802.622500       0.945745
    13821.700100       0.944212
    13840.830400       0.942664
    13860.013900       0.941102
    13879.250500       0.939525
    13898.540700       0.937933
    13917.884500       0.936328
    13937.282200       0.934709
    13956.734100       0.933076
    13976.240400       0.931430
    13995.801300       0.929771
    14015.417000       0.928099
    14035.087700       0.926414
    14054.813800       0.924718
    14074.595400       0.923009
    14094.432700       0.921288
    14114.326000       0.919556
    14134.275600       0.917813
    14154.281700       0.916058
    14174.344400       0.914293
    14194.464200       0.912517
    14214.641100       0.910730
    14234.875400       0.908934
    14255.167500       0.907127
    14275.517500       0.905311
    14295.925700       0.903485
    14316.392300       0.901650
    14336.917600       0.899805
    14357.501800       0.897952
    14378.145200       0.896091
    14398.848100       0.894220
    14419.610700       0.892342
    14440.433200       0.890455
    14461.316000       0.888561
    14482.259200       0.886658
    14503.263200       0.884749
    14524.328200       0.882832
    14545.454500       0.880908
    14566.642400       0.878977
    14587.892000       0.877039
    14609.203800       0.875094
    14630.577900       0.873143
    14652.014700       0.871186
    14673.514300       0.869223
    14695.077100       0.867254
    14716.703500       0.865279
    14738.393500       0.863298
    14760.147600       0.861312
    14781.966000       0.859321
    14803.849000       0.857324
    14825.796900       0.855323
    14847.809900       0.853316
    14869.888500       0.851305
    14892.032800       0.849289
    14914.243100       0.847268
    14936.519800       0.845244
    14958.863100       0.843214
    14981.273400       0.841181
    15003.750900       0.839144
    15026.296000       0.837102
    15048.909000       0.835057
    15071.590100       0.833008
    15094.339600       0.830956
    15117.158000       0.828900
    15140.045400       0.826840
    15163.002300       0.824777
    15186.028900       0.822711
    15209.125500       0.820642
    15232.292500       0.818569
    15255.530100       0.816493
    15278.838800       0.814415
    15302.218800       0.812333
    15325.670500       0.810249
    15349.194200       0.808162
    15372.790200       0.806072
    15396.458800       0.803979
    15420.200500       0.801884
    15444.015400       0.799786
    15467.904100       0.797686
    15491.866800       0.795583
    15515.903800       0.793477
    15540.015500       0.791369
    15564.202300       0.789259
    15588.464500       0.787146
    15612.802500       0.785031
    15637.216600       0.782913
    15661.707100       0.780793
    15686.274500       0.778671
    15710.919100       0.776546
    15735.641200       0.774419
    15760.441300       0.772290
    15785.319700       0.770158
    15810.276700       0.768024
    15835.312700       0.765888
    15860.428200       0.763749
    15885.623500       0.761608
    15910.899000       0.759465
    15936.255000       0.757319
    15961.691900       0.755170
    15987.210200       0.753020
    16012.810200       0.750866
    16038.492400       0.748710
    16064.257000       0.746552
    16090.104600       0.744391
    16116.035500       0.742227
    16142.050000       0.740061
    16168.148700       0.737892
    16194.332000       0.735720
    16220.600200       0.733545
    16246.953700       0.731367
    16273.393000       0.729187
    16299.918500       0.727003
    16326.530600       0.724817
    16353.229800       0.722627
    16380.016400       0.720434
    16406.890900       0.718238
    16433.853700       0.716039
    16460.905300       0.713836
    16488.046200       0.711630
    16515.276600       0.709420
    16542.597200       0.707207
    16570.008300       0.704990
    16597.510400       0.702769
    16625.103900       0.700544
    16652.789300       0.698315
    16680.567100       0.696083
    16708.437800       0.693846
    16736.401700       0.691605
    16764.459300       0.689360
    16792.611300       0.687111
    16820.857900       0.684857
    16849.199700       0.682599
    16877.637100       0.680335
    16906.170800       0.678068
    16934.801000       0.675795
    16963.528400       0.673518
    16992.353400       0.671235
    17021.276600       0.668948
    17050.298400       0.666655
    17079.419300       0.664357
    17108.639900       0.662054
    17137.960600       0.659745
    17167.382000       0.657430
    17196.904600       0.655110
    17226.528900       0.652784
    17256.255400       0.650453
    17286.084700       0.648115
    17316.017300       0.645771
    17346.053800       0.643421
    17376.194600       0.641065
    17406.440400       0.638703
    17436.791600       0.636333
    17467.248900       0.633958
    17497.812800       0.631576
    17528.483800       0.629187
    17559.262500       0.626791
    17590.149500       0.624388
    17621.145400       0.621979
    17652.250700       0.619562
    17683.466000       0.617138
    17714.791900       0.614707
    17746.228900       0.612268
    17777.777800       0.609822
    17809.439000       0.607369
    17841.213200       0.604907
    17873.101000       0.602438
    17905.103000       0.599962
    17937.219700       0.597477
    17969.451900       0.594985
    18001.800200       0.592484
    18034.265100       0.589975
    18066.847300       0.587459
    18099.547500       0.584934
    18132.366300       0.582400
    18165.304300       0.579859
    18198.362100       0.577309
    18231.540600       0.574750
    18264.840200       0.572183
    18298.261700       0.569608
    18331.805700       0.567023
    18365.472900       0.564430
    18399.264000       0.561828
    18433.179700       0.559218
    18467.220700       0.556599
    18501.387600       0.553970
    18535.681200       0.551333
    18570.102100       0.548687
    18604.651200       0.546033
    18639.329000       0.543368
    18674.136300       0.540696
    18709.073900       0.538014
    18744.142500       0.535323
    18779.342700       0.532623
    18814.675400       0.529914
    18850.141400       0.527196
    18885.741300       0.524468
    18921.475900       0.521732
    18957.346000       0.518987
    18993.352300       0.516233
    19029.495700       0.513469
    19065.776900       0.510697
    19102.196800       0.507916
    19138.756000       0.505126
    19175.455400       0.502327
    19212.295900       0.499519
    19249.278200       0.496702
    19286.403100       0.493876
    19323.671500       0.491042
    19361.084200       0.488199
    19398.642100       0.485347
