32,   32, MVIRI VIS channel from srf_MET4_1993168_1993169_1801-Release_S10EL_10.dat
Number of data points:
752
Wavenumber (cm-1)   Filter response
     8745.080900       0.000000
     8752.735200       0.000000
     8760.403000       0.000001
     8768.084200       0.000060
     8775.778900       0.000201
     8783.487000       0.000424
     8791.208800       0.000726
     8798.944100       0.001104
     8806.693100       0.001556
     8814.455700       0.002079
     8822.232000       0.002673
     8830.022100       0.003333
     8837.825900       0.004060
     8845.643500       0.004850
     8853.475000       0.005701
     8861.320300       0.006612
     8869.179600       0.007581
     8877.052800       0.008606
     8884.940000       0.009685
     8892.841300       0.010818
     8900.756600       0.012001
     8908.686000       0.013235
     8916.629500       0.014516
     8924.587200       0.015844
     8932.559200       0.017218
     8940.545400       0.018635
     8948.545900       0.020096
     8956.560700       0.021598
     8964.589900       0.023140
     8972.633500       0.024721
     8980.691500       0.026340
     8988.764000       0.027997
     8996.851100       0.029689
     9004.952700       0.031416
     9013.068900       0.033177
     9021.199800       0.034971
     9029.345400       0.036797
     9037.505600       0.038654
     9045.680700       0.040542
     9053.870500       0.042459
     9062.075200       0.044406
     9070.294800       0.046380
     9078.529300       0.048382
     9086.778700       0.050411
     9095.043200       0.052466
     9103.322700       0.054546
     9111.617300       0.056652
     9119.927000       0.058782
     9128.251900       0.060936
     9136.592100       0.063113
     9144.947400       0.065313
     9153.318100       0.067535
     9161.704100       0.069780
     9170.105500       0.072046
     9178.522300       0.074334
     9186.954500       0.076642
     9195.402300       0.078971
     9203.865600       0.081320
     9212.344500       0.083689
     9220.839100       0.086077
     9229.349300       0.088485
     9237.875300       0.090912
     9246.417000       0.093357
     9254.974500       0.095822
     9263.547900       0.098305
     9272.137200       0.100805
     9280.742500       0.103324
     9289.363700       0.105860
     9298.000900       0.108415
     9306.654300       0.110987
     9315.323700       0.113576
     9324.009300       0.116183
     9332.711200       0.118806
     9341.429200       0.121447
     9350.163600       0.124105
     9358.914400       0.126779
     9367.681500       0.129471
     9376.465100       0.132179
     9385.265100       0.134904
     9394.081700       0.137645
     9402.914900       0.140403
     9411.764700       0.143178
     9420.631200       0.145969
     9429.514400       0.148777
     9438.414300       0.151601
     9447.331100       0.154442
     9456.264800       0.157299
     9465.215300       0.160173
     9474.182900       0.163063
     9483.167400       0.165970
     9492.169000       0.168893
     9501.187600       0.171833
     9510.223500       0.174789
     9519.276500       0.177761
     9528.346800       0.180751
     9537.434400       0.183757
     9546.539400       0.186779
     9555.661700       0.189818
     9564.801500       0.192873
     9573.958800       0.195946
     9583.133700       0.199035
     9592.326100       0.202140
     9601.536200       0.205263
     9610.764100       0.208402
     9620.009600       0.211558
     9629.273000       0.214730
     9638.554200       0.217920
     9647.853400       0.221126
     9657.170400       0.224349
     9666.505600       0.227589
     9675.858700       0.230846
     9685.230000       0.234119
     9694.619500       0.237410
     9704.027200       0.240717
     9713.453100       0.244041
     9722.897400       0.247383
     9732.360100       0.250741
     9741.841200       0.254116
     9751.340800       0.257507
     9760.859000       0.260916
     9770.395700       0.264342
     9779.951100       0.267784
     9789.525200       0.271243
     9799.118100       0.274719
     9808.729800       0.278212
     9818.360300       0.281721
     9828.009800       0.285247
     9837.678300       0.288789
     9847.365800       0.292349
     9857.072400       0.295924
     9866.798200       0.299516
     9876.543200       0.303125
     9886.307500       0.306750
     9896.091000       0.310391
     9905.894000       0.314048
     9915.716400       0.317721
     9925.558300       0.321410
     9935.419800       0.325115
     9945.300800       0.328836
     9955.201600       0.332573
     9965.122100       0.336325
     9975.062300       0.340092
     9985.022500       0.343876
     9995.002500       0.347674
    10005.002500       0.351487
    10015.022500       0.355315
    10025.062700       0.359158
    10035.122900       0.363016
    10045.203400       0.366888
    10055.304200       0.370775
    10065.425300       0.374675
    10075.566800       0.378590
    10085.728700       0.382518
    10095.911200       0.386461
    10106.114200       0.390416
    10116.337900       0.394385
    10126.582300       0.398367
    10136.847400       0.402362
    10147.133400       0.406369
    10157.440300       0.410389
    10167.768200       0.414421
    10178.117000       0.418465
    10188.487000       0.422521
    10198.878100       0.426589
    10209.290500       0.430668
    10219.724100       0.434757
    10230.179000       0.438858
    10240.655400       0.442969
    10251.153300       0.447090
    10261.672700       0.451221
    10272.213700       0.455362
    10282.776300       0.459513
    10293.360800       0.463673
    10303.967000       0.467841
    10314.595200       0.472018
    10325.245200       0.476204
    10335.917300       0.480397
    10346.611500       0.484598
    10357.327800       0.488807
    10368.066400       0.493022
    10378.827200       0.497244
    10389.610400       0.501473
    10400.416000       0.505708
    10411.244100       0.509948
    10422.094800       0.514194
    10432.968200       0.518445
    10443.864200       0.522700
    10454.783100       0.526960
    10465.724800       0.531224
    10476.689400       0.535492
    10487.677000       0.539763
    10498.687700       0.544037
    10509.721500       0.548313
    10520.778500       0.552592
    10531.858900       0.556872
    10542.962600       0.561155
    10554.089700       0.565438
    10565.240400       0.569721
    10576.414600       0.574005
    10587.612500       0.578289
    10598.834100       0.582572
    10610.079600       0.586855
    10621.348900       0.591136
    10632.642200       0.595416
    10643.959600       0.599693
    10655.301000       0.603968
    10666.666700       0.608240
    10678.056600       0.612509
    10689.470900       0.616774
    10700.909600       0.621035
    10712.372800       0.625291
    10723.860600       0.629542
    10735.373100       0.633788
    10746.910300       0.638029
    10758.472300       0.642263
    10770.059200       0.646490
    10781.671200       0.650710
    10793.308100       0.654923
    10804.970300       0.659128
    10816.657700       0.663324
    10828.370300       0.667512
    10840.108400       0.671690
    10851.871900       0.675859
    10863.661100       0.680018
    10875.475800       0.684166
    10887.316300       0.688303
    10899.182600       0.692429
    10911.074700       0.696543
    10922.992900       0.700645
    10934.937100       0.704735
    10946.907500       0.708811
    10958.904100       0.712874
    10970.927000       0.716922
    10982.976400       0.720957
    10995.052200       0.724976
    11007.154700       0.728981
    11019.283700       0.732970
    11031.439600       0.736942
    11043.622300       0.740899
    11055.832000       0.744838
    11068.068600       0.748760
    11080.332400       0.752664
    11092.623400       0.756550
    11104.941700       0.760418
    11117.287400       0.764266
    11129.660500       0.768095
    11142.061300       0.771904
    11154.489700       0.775693
    11166.945800       0.779461
    11179.429800       0.783209
    11191.941800       0.786934
    11204.481800       0.790638
    11217.049900       0.794320
    11229.646300       0.797979
    11242.270900       0.801615
    11254.924000       0.805227
    11267.605600       0.808816
    11280.315800       0.812380
    11293.054800       0.815920
    11305.822500       0.819435
    11318.619100       0.822925
    11331.444800       0.826388
    11344.299500       0.829826
    11357.183400       0.833237
    11370.096600       0.836622
    11383.039300       0.839979
    11396.011400       0.843309
    11409.013100       0.846610
    11422.044500       0.849884
    11435.105800       0.853129
    11448.196900       0.856345
    11461.318100       0.859532
    11474.469300       0.862689
    11487.650800       0.865816
    11500.862600       0.868914
    11514.104800       0.871980
    11527.377500       0.875016
    11540.680900       0.878020
    11554.015000       0.880993
    11567.380000       0.883935
    11580.775900       0.886844
    11594.202900       0.889721
    11607.661100       0.892565
    11621.150500       0.895376
    11634.671300       0.898154
    11648.223600       0.900899
    11661.807600       0.903610
    11675.423200       0.906286
    11689.070700       0.908929
    11702.750100       0.911537
    11716.461600       0.914111
    11730.205300       0.916649
    11743.981200       0.919152
    11757.789500       0.921620
    11771.630400       0.924052
    11785.503800       0.926448
    11799.410000       0.928808
    11813.349100       0.931132
    11827.321100       0.933419
    11841.326200       0.935669
    11855.364600       0.937883
    11869.436200       0.940060
    11883.541300       0.942199
    11897.680000       0.944301
    11911.852300       0.946365
    11926.058400       0.948392
    11940.298500       0.950380
    11954.572600       0.952331
    11968.880900       0.954243
    11983.223500       0.956118
    11997.600500       0.957953
    12012.012000       0.959750
    12026.458200       0.961509
    12040.939200       0.963229
    12055.455100       0.964909
    12070.006000       0.966551
    12084.592100       0.968154
    12099.213600       0.969718
    12113.870400       0.971242
    12128.562800       0.972727
    12143.290800       0.974173
    12158.054700       0.975579
    12172.854500       0.976946
    12187.690400       0.978273
    12202.562500       0.979561
    12217.471000       0.980809
    12232.415900       0.982018
    12247.397400       0.983187
    12262.415700       0.984316
    12277.470800       0.985406
    12292.563000       0.986456
    12307.692300       0.987466
    12322.858900       0.988437
    12338.062900       0.989368
    12353.304500       0.990259
    12368.583800       0.991111
    12383.900900       0.991924
    12399.256000       0.992697
    12414.649300       0.993430
    12430.080800       0.994125
    12445.550700       0.994780
    12461.059200       0.995395
    12476.606400       0.995972
    12492.192400       0.996510
    12507.817400       0.997008
    12523.481500       0.997468
    12539.185000       0.997889
    12554.927800       0.998272
    12570.710200       0.998616
    12586.532400       0.998921
    12602.394500       0.999188
    12618.296500       0.999418
    12634.238800       0.999609
    12650.221400       0.999762
    12666.244500       0.999878
    12682.308200       0.999956
    12698.412700       0.999996
    12714.558200       1.000000
    12730.744700       0.999967
    12746.972600       0.999896
    12763.241900       0.999789
    12779.552700       0.999646
    12795.905300       0.999467
    12812.299800       0.999251
    12828.736400       0.999000
    12845.215200       0.998713
    12861.736300       0.998391
    12878.300100       0.998033
    12894.906500       0.997641
    12911.555800       0.997214
    12928.248200       0.996753
    12944.983800       0.996257
    12961.762800       0.995728
    12978.585300       0.995165
    12995.451600       0.994569
    13012.361700       0.993939
    13029.316000       0.993277
    13046.314400       0.992583
    13063.357300       0.991856
    13080.444700       0.991097
    13097.576900       0.990307
    13114.754100       0.989485
    13131.976400       0.988632
    13149.243900       0.987749
    13166.556900       0.986835
    13183.915600       0.985892
    13201.320100       0.984918
    13218.770700       0.983915
    13236.267400       0.982884
    13253.810500       0.981823
    13271.400100       0.980734
    13289.036500       0.979617
    13306.719900       0.978473
    13324.450400       0.977301
    13342.228200       0.976102
    13360.053400       0.974877
    13377.926400       0.973626
    13395.847300       0.972349
    13413.816200       0.971046
    13431.833400       0.969718
    13449.899100       0.968366
    13468.013500       0.966989
    13486.176700       0.965589
    13504.388900       0.964165
    13522.650400       0.962718
    13540.961400       0.961248
    13559.322000       0.959757
    13577.732500       0.958243
    13596.193100       0.956707
    13614.703900       0.955151
    13633.265200       0.953574
    13651.877100       0.951977
    13670.540000       0.950360
    13689.253900       0.948724
    13708.019200       0.947069
    13726.836000       0.945395
    13745.704500       0.943704
    13764.624900       0.941994
    13783.597500       0.940268
    13802.622500       0.938524
    13821.700100       0.936765
    13840.830400       0.934989
    13860.013900       0.933198
    13879.250500       0.931392
    13898.540700       0.929571
    13917.884500       0.927737
    13937.282200       0.925888
    13956.734100       0.924026
    13976.240400       0.922152
    13995.801300       0.920265
    14015.417000       0.918367
    14035.087700       0.916456
    14054.813800       0.914535
    14074.595400       0.912604
    14094.432700       0.910662
    14114.326000       0.908711
    14134.275600       0.906750
    14154.281700       0.904781
    14174.344400       0.902803
    14194.464200       0.900818
    14214.641100       0.898825
    14234.875400       0.896826
    14255.167500       0.894819
    14275.517500       0.892807
    14295.925700       0.890789
    14316.392300       0.888766
    14336.917600       0.886739
    14357.501800       0.884707
    14378.145200       0.882671
    14398.848100       0.880632
    14419.610700       0.878590
    14440.433200       0.876546
    14461.316000       0.874499
    14482.259200       0.872451
    14503.263200       0.870402
    14524.328200       0.868352
    14545.454500       0.866302
    14566.642400       0.864252
    14587.892000       0.862202
    14609.203800       0.860153
    14630.577900       0.858106
    14652.014700       0.856060
    14673.514300       0.854017
    14695.077100       0.851976
    14716.703500       0.849939
    14738.393500       0.847905
    14760.147600       0.845874
    14781.966000       0.843848
    14803.849000       0.841827
    14825.796900       0.839811
    14847.809900       0.837800
    14869.888500       0.835795
    14892.032800       0.833796
    14914.243100       0.831803
    14936.519800       0.829818
    14958.863100       0.827840
    14981.273400       0.825870
    15003.750900       0.823907
    15026.296000       0.821954
    15048.909000       0.820009
    15071.590100       0.818073
    15094.339600       0.816146
    15117.158000       0.814229
    15140.045400       0.812323
    15163.002300       0.810427
    15186.028900       0.808541
    15209.125500       0.806667
    15232.292500       0.804804
    15255.530100       0.802953
    15278.838800       0.801114
    15302.218800       0.799287
    15325.670500       0.797473
    15349.194200       0.795672
    15372.790200       0.793884
    15396.458800       0.792109
    15420.200500       0.790348
    15444.015400       0.788601
    15467.904100       0.786868
    15491.866800       0.785150
    15515.903800       0.783447
    15540.015500       0.781758
    15564.202300       0.780085
    15588.464500       0.778427
    15612.802500       0.776784
    15637.216600       0.775158
    15661.707100       0.773547
    15686.274500       0.771953
    15710.919100       0.770375
    15735.641200       0.768814
    15760.441300       0.767270
    15785.319700       0.765742
    15810.276700       0.764232
    15835.312700       0.762739
    15860.428200       0.761263
    15885.623500       0.759805
    15910.899000       0.758364
    15936.255000       0.756941
    15961.691900       0.755536
    15987.210200       0.754149
    16012.810200       0.752780
    16038.492400       0.751429
    16064.257000       0.750097
    16090.104600       0.748783
    16116.035500       0.747487
    16142.050000       0.746209
    16168.148700       0.744951
    16194.332000       0.743710
    16220.600200       0.742488
    16246.953700       0.741285
    16273.393000       0.740100
    16299.918500       0.738934
    16326.530600       0.737787
    16353.229800       0.736658
    16380.016400       0.735547
    16406.890900       0.734456
    16433.853700       0.733382
    16460.905300       0.732327
    16488.046200       0.731290
    16515.276600       0.730272
    16542.597200       0.729272
    16570.008300       0.728290
    16597.510400       0.727326
    16625.103900       0.726380
    16652.789300       0.725452
    16680.567100       0.724541
    16708.437800       0.723648
    16736.401700       0.722773
    16764.459300       0.721914
    16792.611300       0.721073
    16820.857900       0.720249
    16849.199700       0.719442
    16877.637100       0.718651
    16906.170800       0.717877
    16934.801000       0.717118
    16963.528400       0.716376
    16992.353400       0.715649
    17021.276600       0.714938
    17050.298400       0.714243
    17079.419300       0.713562
    17108.639900       0.712896
    17137.960600       0.712244
    17167.382000       0.711607
    17196.904600       0.710984
    17226.528900       0.710374
    17256.255400       0.709777
    17286.084700       0.709194
    17316.017300       0.708623
    17346.053800       0.708065
    17376.194600       0.707518
    17406.440400       0.706983
    17436.791600       0.706460
    17467.248900       0.705947
    17497.812800       0.705445
    17528.483800       0.704952
    17559.262500       0.704470
    17590.149500       0.703997
    17621.145400       0.703533
    17652.250700       0.703077
    17683.466000       0.702629
    17714.791900       0.702189
    17746.228900       0.701756
    17777.777800       0.701330
    17809.439000       0.700910
    17841.213200       0.700495
    17873.101000       0.700086
    17905.103000       0.699682
    17937.219700       0.699282
    17969.451900       0.698885
    18001.800200       0.698492
    18034.265100       0.698102
    18066.847300       0.697713
    18099.547500       0.697327
    18132.366300       0.696941
    18165.304300       0.696556
    18198.362100       0.696171
    18231.540600       0.695785
    18264.840200       0.695398
    18298.261700       0.695009
    18331.805700       0.694618
    18365.472900       0.694224
    18399.264000       0.693826
    18433.179700       0.693424
    18467.220700       0.693017
    18501.387600       0.692605
    18535.681200       0.692187
    18570.102100       0.691761
    18604.651200       0.691329
    18639.329000       0.690888
    18674.136300       0.690439
    18709.073900       0.689981
    18744.142500       0.689512
    18779.342700       0.689033
    18814.675400       0.688543
    18850.141400       0.688040
    18885.741300       0.687525
    18921.475900       0.686996
    18957.346000       0.686453
    18993.352300       0.685895
    19029.495700       0.685322
    19065.776900       0.684733
