23,   23, MVIRI VIS channel from srf_MET7_2000168_2000169_1801-Release_S10EE_10.dat
Number of data points:
793
Wavenumber (cm-1)   Filter response
     8442.380800       0.000000
     8449.514200       0.000000
     8456.659600       0.000004
     8463.817200       0.000053
     8470.986900       0.000156
     8478.168700       0.000312
     8485.362700       0.000520
     8492.569000       0.000777
     8499.787500       0.001083
     8507.018300       0.001435
     8514.261400       0.001834
     8521.516800       0.002276
     8528.784600       0.002762
     8536.064900       0.003290
     8543.357500       0.003859
     8550.662700       0.004467
     8557.980300       0.005114
     8565.310500       0.005799
     8572.653200       0.006520
     8580.008600       0.007276
     8587.376600       0.008068
     8594.757200       0.008893
     8602.150500       0.009752
     8609.556600       0.010642
     8616.975400       0.011564
     8624.407100       0.012517
     8631.851500       0.013500
     8639.308900       0.014512
     8646.779100       0.015552
     8654.262200       0.016621
     8661.758300       0.017717
     8669.267400       0.018840
     8676.789600       0.019990
     8684.324800       0.021165
     8691.873100       0.022366
     8699.434500       0.023592
     8707.009100       0.024842
     8714.596900       0.026117
     8722.198000       0.027415
     8729.812300       0.028737
     8737.439900       0.030082
     8745.080900       0.031449
     8752.735200       0.032839
     8760.403000       0.034252
     8768.084200       0.035686
     8775.778900       0.037142
     8783.487000       0.038619
     8791.208800       0.040118
     8798.944100       0.041638
     8806.693100       0.043179
     8814.455700       0.044741
     8822.232000       0.046323
     8830.022100       0.047926
     8837.825900       0.049549
     8845.643500       0.051193
     8853.475000       0.052857
     8861.320300       0.054541
     8869.179600       0.056246
     8877.052800       0.057970
     8884.940000       0.059715
     8892.841300       0.061479
     8900.756600       0.063264
     8908.686000       0.065069
     8916.629500       0.066893
     8924.587200       0.068738
     8932.559200       0.070602
     8940.545400       0.072487
     8948.545900       0.074392
     8956.560700       0.076317
     8964.589900       0.078262
     8972.633500       0.080228
     8980.691500       0.082213
     8988.764000       0.084220
     8996.851100       0.086246
     9004.952700       0.088293
     9013.068900       0.090360
     9021.199800       0.092449
     9029.345400       0.094558
     9037.505600       0.096687
     9045.680700       0.098838
     9053.870500       0.101009
     9062.075200       0.103202
     9070.294800       0.105416
     9078.529300       0.107651
     9086.778700       0.109907
     9095.043200       0.112185
     9103.322700       0.114484
     9111.617300       0.116805
     9119.927000       0.119148
     9128.251900       0.121512
     9136.592100       0.123899
     9144.947400       0.126307
     9153.318100       0.128738
     9161.704100       0.131190
     9170.105500       0.133665
     9178.522300       0.136163
     9186.954500       0.138683
     9195.402300       0.141225
     9203.865600       0.143790
     9212.344500       0.146378
     9220.839100       0.148988
     9229.349300       0.151621
     9237.875300       0.154278
     9246.417000       0.156957
     9254.974500       0.159659
     9263.547900       0.162385
     9272.137200       0.165133
     9280.742500       0.167905
     9289.363700       0.170700
     9298.000900       0.173518
     9306.654300       0.176360
     9315.323700       0.179225
     9324.009300       0.182113
     9332.711200       0.185025
     9341.429200       0.187961
     9350.163600       0.190920
     9358.914400       0.193902
     9367.681500       0.196908
     9376.465100       0.199937
     9385.265100       0.202990
     9394.081700       0.206066
     9402.914900       0.209166
     9411.764700       0.212289
     9420.631200       0.215436
     9429.514400       0.218606
     9438.414300       0.221799
     9447.331100       0.225016
     9456.264800       0.228256
     9465.215300       0.231519
     9474.182900       0.234805
     9483.167400       0.238114
     9492.169000       0.241447
     9501.187600       0.244802
     9510.223500       0.248180
     9519.276500       0.251581
     9528.346800       0.255005
     9537.434400       0.258451
     9546.539400       0.261919
     9555.661700       0.265410
     9564.801500       0.268923
     9573.958800       0.272458
     9583.133700       0.276015
     9592.326100       0.279594
     9601.536200       0.283194
     9610.764100       0.286816
     9620.009600       0.290459
     9629.273000       0.294124
     9638.554200       0.297809
     9647.853400       0.301515
     9657.170400       0.305242
     9666.505600       0.308989
     9675.858700       0.312757
     9685.230000       0.316545
     9694.619500       0.320352
     9704.027200       0.324179
     9713.453100       0.328025
     9722.897400       0.331891
     9732.360100       0.335776
     9741.841200       0.339679
     9751.340800       0.343600
     9760.859000       0.347540
     9770.395700       0.351498
     9779.951100       0.355474
     9789.525200       0.359467
     9799.118100       0.363477
     9808.729800       0.367504
     9818.360300       0.371548
     9828.009800       0.375607
     9837.678300       0.379683
     9847.365800       0.383775
     9857.072400       0.387882
     9866.798200       0.392004
     9876.543200       0.396140
     9886.307500       0.400292
     9896.091000       0.404457
     9905.894000       0.408636
     9915.716400       0.412829
     9925.558300       0.417034
     9935.419800       0.421253
     9945.300800       0.425484
     9955.201600       0.429727
     9965.122100       0.433982
     9975.062300       0.438248
     9985.022500       0.442525
     9995.002500       0.446813
    10005.002500       0.451111
    10015.022500       0.455419
    10025.062700       0.459736
    10035.122900       0.464062
    10045.203400       0.468397
    10055.304200       0.472741
    10065.425300       0.477092
    10075.566800       0.481451
    10085.728700       0.485817
    10095.911200       0.490190
    10106.114200       0.494569
    10116.337900       0.498954
    10126.582300       0.503344
    10136.847400       0.507739
    10147.133400       0.512139
    10157.440300       0.516544
    10167.768200       0.520951
    10178.117000       0.525363
    10188.487000       0.529777
    10198.878100       0.534194
    10209.290500       0.538613
    10219.724100       0.543033
    10230.179000       0.547454
    10240.655400       0.551877
    10251.153300       0.556299
    10261.672700       0.560722
    10272.213700       0.565144
    10282.776300       0.569564
    10293.360800       0.573984
    10303.967000       0.578401
    10314.595200       0.582816
    10325.245200       0.587228
    10335.917300       0.591637
    10346.611500       0.596042
    10357.327800       0.600442
    10368.066400       0.604838
    10378.827200       0.609229
    10389.610400       0.613615
    10400.416000       0.617994
    10411.244100       0.622367
    10422.094800       0.626732
    10432.968200       0.631091
    10443.864200       0.635441
    10454.783100       0.639784
    10465.724800       0.644117
    10476.689400       0.648441
    10487.677000       0.652756
    10498.687700       0.657060
    10509.721500       0.661354
    10520.778500       0.665636
    10531.858900       0.669907
    10542.962600       0.674167
    10554.089700       0.678414
    10565.240400       0.682648
    10576.414600       0.686868
    10587.612500       0.691075
    10598.834100       0.695268
    10610.079600       0.699446
    10621.348900       0.703609
    10632.642200       0.707756
    10643.959600       0.711888
    10655.301000       0.716003
    10666.666700       0.720102
    10678.056600       0.724183
    10689.470900       0.728246
    10700.909600       0.732292
    10712.372800       0.736318
    10723.860600       0.740326
    10735.373100       0.744315
    10746.910300       0.748284
    10758.472300       0.752232
    10770.059200       0.756160
    10781.671200       0.760067
    10793.308100       0.763953
    10804.970300       0.767817
    10816.657700       0.771658
    10828.370300       0.775477
    10840.108400       0.779273
    10851.871900       0.783046
    10863.661100       0.786795
    10875.475800       0.790520
    10887.316300       0.794220
    10899.182600       0.797895
    10911.074700       0.801546
    10922.992900       0.805170
    10934.937100       0.808769
    10946.907500       0.812341
    10958.904100       0.815887
    10970.927000       0.819406
    10982.976400       0.822897
    10995.052200       0.826361
    11007.154700       0.829797
    11019.283700       0.833204
    11031.439600       0.836583
    11043.622300       0.839933
    11055.832000       0.843253
    11068.068600       0.846544
    11080.332400       0.849805
    11092.623400       0.853036
    11104.941700       0.856236
    11117.287400       0.859406
    11129.660500       0.862544
    11142.061300       0.865652
    11154.489700       0.868727
    11166.945800       0.871771
    11179.429800       0.874783
    11191.941800       0.877762
    11204.481800       0.880709
    11217.049900       0.883622
    11229.646300       0.886503
    11242.270900       0.889350
    11254.924000       0.892164
    11267.605600       0.894944
    11280.315800       0.897690
    11293.054800       0.900402
    11305.822500       0.903079
    11318.619100       0.905722
    11331.444800       0.908330
    11344.299500       0.910903
    11357.183400       0.913440
    11370.096600       0.915943
    11383.039300       0.918410
    11396.011400       0.920841
    11409.013100       0.923236
    11422.044500       0.925596
    11435.105800       0.927919
    11448.196900       0.930206
    11461.318100       0.932457
    11474.469300       0.934671
    11487.650800       0.936849
    11500.862600       0.938990
    11514.104800       0.941094
    11527.377500       0.943161
    11540.680900       0.945191
    11554.015000       0.947184
    11567.380000       0.949140
    11580.775900       0.951059
    11594.202900       0.952940
    11607.661100       0.954784
    11621.150500       0.956590
    11634.671300       0.958359
    11648.223600       0.960091
    11661.807600       0.961785
    11675.423200       0.963441
    11689.070700       0.965060
    11702.750100       0.966642
    11716.461600       0.968185
    11730.205300       0.969692
    11743.981200       0.971160
    11757.789500       0.972591
    11771.630400       0.973985
    11785.503800       0.975341
    11799.410000       0.976659
    11813.349100       0.977940
    11827.321100       0.979184
    11841.326200       0.980390
    11855.364600       0.981559
    11869.436200       0.982691
    11883.541300       0.983785
    11897.680000       0.984843
    11911.852300       0.985864
    11926.058400       0.986847
    11940.298500       0.987794
    11954.572600       0.988705
    11968.880900       0.989579
    11983.223500       0.990416
    11997.600500       0.991217
    12012.012000       0.991982
    12026.458200       0.992711
    12040.939200       0.993404
    12055.455100       0.994061
    12070.006000       0.994682
    12084.592100       0.995268
    12099.213600       0.995819
    12113.870400       0.996335
    12128.562800       0.996816
    12143.290800       0.997262
    12158.054700       0.997674
    12172.854500       0.998051
    12187.690400       0.998395
    12202.562500       0.998704
    12217.471000       0.998980
    12232.415900       0.999222
    12247.397400       0.999431
    12262.415700       0.999607
    12277.470800       0.999750
    12292.563000       0.999861
    12307.692300       0.999939
    12322.858900       0.999985
    12338.062900       1.000000
    12353.304500       0.999983
    12368.583800       0.999935
    12383.900900       0.999856
    12399.256000       0.999747
    12414.649300       0.999607
    12430.080800       0.999436
    12445.550700       0.999237
    12461.059200       0.999007
    12476.606400       0.998749
    12492.192400       0.998462
    12507.817400       0.998146
    12523.481500       0.997802
    12539.185000       0.997430
    12554.927800       0.997030
    12570.710200       0.996604
    12586.532400       0.996150
    12602.394500       0.995670
    12618.296500       0.995164
    12634.238800       0.994632
    12650.221400       0.994074
    12666.244500       0.993492
    12682.308200       0.992884
    12698.412700       0.992253
    12714.558200       0.991597
    12730.744700       0.990918
    12746.972600       0.990215
    12763.241900       0.989490
    12779.552700       0.988742
    12795.905300       0.987972
    12812.299800       0.987180
    12828.736400       0.986367
    12845.215200       0.985533
    12861.736300       0.984679
    12878.300100       0.983804
    12894.906500       0.982910
    12911.555800       0.981997
    12928.248200       0.981065
    12944.983800       0.980114
    12961.762800       0.979146
    12978.585300       0.978159
    12995.451600       0.977156
    13012.361700       0.976136
    13029.316000       0.975100
    13046.314400       0.974048
    13063.357300       0.972980
    13080.444700       0.971897
    13097.576900       0.970800
    13114.754100       0.969689
    13131.976400       0.968564
    13149.243900       0.967426
    13166.556900       0.966275
    13183.915600       0.965111
    13201.320100       0.963936
    13218.770700       0.962749
    13236.267400       0.961552
    13253.810500       0.960343
    13271.400100       0.959125
    13289.036500       0.957897
    13306.719900       0.956660
    13324.450400       0.955414
    13342.228200       0.954159
    13360.053400       0.952897
    13377.926400       0.951627
    13395.847300       0.950351
    13413.816200       0.949068
    13431.833400       0.947779
    13449.899100       0.946484
    13468.013500       0.945184
    13486.176700       0.943880
    13504.388900       0.942571
    13522.650400       0.941258
    13540.961400       0.939942
    13559.322000       0.938623
    13577.732500       0.937302
    13596.193100       0.935979
    13614.703900       0.934654
    13633.265200       0.933328
    13651.877100       0.932001
    13670.540000       0.930674
    13689.253900       0.929347
    13708.019200       0.928021
    13726.836000       0.926696
    13745.704500       0.925372
    13764.624900       0.924050
    13783.597500       0.922731
    13802.622500       0.921414
    13821.700100       0.920101
    13840.830400       0.918791
    13860.013900       0.917486
    13879.250500       0.916184
    13898.540700       0.914888
    13917.884500       0.913597
    13937.282200       0.912311
    13956.734100       0.911032
    13976.240400       0.909759
    13995.801300       0.908493
    14015.417000       0.907234
    14035.087700       0.905982
    14054.813800       0.904739
    14074.595400       0.903504
    14094.432700       0.902278
    14114.326000       0.901062
    14134.275600       0.899854
    14154.281700       0.898657
    14174.344400       0.897470
    14194.464200       0.896293
    14214.641100       0.895127
    14234.875400       0.893973
    14255.167500       0.892830
    14275.517500       0.891700
    14295.925700       0.890581
    14316.392300       0.889475
    14336.917600       0.888383
    14357.501800       0.887303
    14378.145200       0.886237
    14398.848100       0.885185
    14419.610700       0.884147
    14440.433200       0.883123
    14461.316000       0.882114
    14482.259200       0.881120
    14503.263200       0.880142
    14524.328200       0.879179
    14545.454500       0.878232
    14566.642400       0.877301
    14587.892000       0.876386
    14609.203800       0.875488
    14630.577900       0.874607
    14652.014700       0.873742
    14673.514300       0.872895
    14695.077100       0.872066
    14716.703500       0.871254
    14738.393500       0.870459
    14760.147600       0.869683
    14781.966000       0.868926
    14803.849000       0.868186
    14825.796900       0.867466
    14847.809900       0.866764
    14869.888500       0.866080
    14892.032800       0.865416
    14914.243100       0.864771
    14936.519800       0.864146
    14958.863100       0.863540
    14981.273400       0.862953
    15003.750900       0.862387
    15026.296000       0.861839
    15048.909000       0.861312
    15071.590100       0.860805
    15094.339600       0.860318
    15117.158000       0.859851
    15140.045400       0.859403
    15163.002300       0.858977
    15186.028900       0.858570
    15209.125500       0.858184
    15232.292500       0.857817
    15255.530100       0.857472
    15278.838800       0.857146
    15302.218800       0.856841
    15325.670500       0.856556
    15349.194200       0.856291
    15372.790200       0.856047
    15396.458800       0.855822
    15420.200500       0.855618
    15444.015400       0.855434
    15467.904100       0.855270
    15491.866800       0.855125
    15515.903800       0.855001
    15540.015500       0.854896
    15564.202300       0.854811
    15588.464500       0.854745
    15612.802500       0.854699
    15637.216600       0.854671
    15661.707100       0.854663
    15686.274500       0.854674
    15710.919100       0.854704
    15735.641200       0.854752
    15760.441300       0.854818
    15785.319700       0.854903
    15810.276700       0.855005
    15835.312700       0.855126
    15860.428200       0.855264
    15885.623500       0.855419
    15910.899000       0.855591
    15936.255000       0.855780
    15961.691900       0.855985
    15987.210200       0.856207
    16012.810200       0.856445
    16038.492400       0.856698
    16064.257000       0.856967
    16090.104600       0.857250
    16116.035500       0.857549
    16142.050000       0.857861
    16168.148700       0.858188
    16194.332000       0.858528
    16220.600200       0.858882
    16246.953700       0.859248
    16273.393000       0.859627
    16299.918500       0.860018
    16326.530600       0.860421
    16353.229800       0.860834
    16380.016400       0.861259
    16406.890900       0.861694
    16433.853700       0.862139
    16460.905300       0.862594
    16488.046200       0.863058
    16515.276600       0.863530
    16542.597200       0.864010
    16570.008300       0.864498
    16597.510400       0.864993
    16625.103900       0.865494
    16652.789300       0.866001
    16680.567100       0.866514
    16708.437800       0.867032
    16736.401700       0.867554
    16764.459300       0.868079
    16792.611300       0.868608
    16820.857900       0.869140
    16849.199700       0.869674
    16877.637100       0.870209
    16906.170800       0.870745
    16934.801000       0.871281
    16963.528400       0.871816
    16992.353400       0.872351
    17021.276600       0.872884
    17050.298400       0.873414
    17079.419300       0.873942
    17108.639900       0.874465
    17137.960600       0.874985
    17167.382000       0.875499
    17196.904600       0.876008
    17226.528900       0.876510
    17256.255400       0.877004
    17286.084700       0.877491
    17316.017300       0.877970
    17346.053800       0.878438
    17376.194600       0.878897
    17406.440400       0.879345
    17436.791600       0.879781
    17467.248900       0.880205
    17497.812800       0.880616
    17528.483800       0.881013
    17559.262500       0.881395
    17590.149500       0.881761
    17621.145400       0.882111
    17652.250700       0.882444
    17683.466000       0.882760
