77,   77, MVIRI VIS channel from srf_MET5_2000303_2000304_1801-Release_S10EL_10.dat
Number of data points:
806
Wavenumber (cm-1)   Filter response
     8350.730700       0.000000
     8357.710000       0.000000
     8364.701000       0.000000
     8371.703600       0.000002
     8378.718100       0.000004
     8385.744200       0.000009
     8392.782200       0.000017
     8399.832000       0.000027
     8406.893700       0.000042
     8413.967200       0.000060
     8421.052600       0.000084
     8428.150000       0.000112
     8435.259400       0.000146
     8442.380800       0.000187
     8449.514200       0.000233
     8456.659600       0.000287
     8463.817200       0.000348
     8470.986900       0.000417
     8478.168700       0.000494
     8485.362700       0.000579
     8492.569000       0.000673
     8499.787500       0.000776
     8507.018300       0.000889
     8514.261400       0.001012
     8521.516800       0.001144
     8528.784600       0.001287
     8536.064900       0.001440
     8543.357500       0.001605
     8550.662700       0.001780
     8557.980300       0.001967
     8565.310500       0.002166
     8572.653200       0.002376
     8580.008600       0.002599
     8587.376600       0.002834
     8594.757200       0.003082
     8602.150500       0.003342
     8609.556600       0.003615
     8616.975400       0.003902
     8624.407100       0.004202
     8631.851500       0.004516
     8639.308900       0.004843
     8646.779100       0.005184
     8654.262200       0.005540
     8661.758300       0.005909
     8669.267400       0.006294
     8676.789600       0.006692
     8684.324800       0.007106
     8691.873100       0.007534
     8699.434500       0.007978
     8707.009100       0.008437
     8714.596900       0.008911
     8722.198000       0.009400
     8729.812300       0.009905
     8737.439900       0.010426
     8745.080900       0.010963
     8752.735200       0.011516
     8760.403000       0.012085
     8768.084200       0.012671
     8775.778900       0.013272
     8783.487000       0.013891
     8791.208800       0.014526
     8798.944100       0.015178
     8806.693100       0.015846
     8814.455700       0.016532
     8822.232000       0.017235
     8830.022100       0.017955
     8837.825900       0.018692
     8845.643500       0.019447
     8853.475000       0.020219
     8861.320300       0.021009
     8869.179600       0.021817
     8877.052800       0.022643
     8884.940000       0.023487
     8892.841300       0.024349
     8900.756600       0.025229
     8908.686000       0.026127
     8916.629500       0.027044
     8924.587200       0.027980
     8932.559200       0.028934
     8940.545400       0.029906
     8948.545900       0.030898
     8956.560700       0.031909
     8964.589900       0.032938
     8972.633500       0.033987
     8980.691500       0.035055
     8988.764000       0.036143
     8996.851100       0.037249
     9004.952700       0.038376
     9013.068900       0.039522
     9021.199800       0.040688
     9029.345400       0.041874
     9037.505600       0.043079
     9045.680700       0.044305
     9053.870500       0.045551
     9062.075200       0.046817
     9070.294800       0.048104
     9078.529300       0.049411
     9086.778700       0.050738
     9095.043200       0.052086
     9103.322700       0.053455
     9111.617300       0.054845
     9119.927000       0.056255
     9128.251900       0.057687
     9136.592100       0.059140
     9144.947400       0.060614
     9153.318100       0.062109
     9161.704100       0.063626
     9170.105500       0.065164
     9178.522300       0.066724
     9186.954500       0.068305
     9195.402300       0.069908
     9203.865600       0.071532
     9212.344500       0.073179
     9220.839100       0.074848
     9229.349300       0.076539
     9237.875300       0.078252
     9246.417000       0.079987
     9254.974500       0.081744
     9263.547900       0.083524
     9272.137200       0.085326
     9280.742500       0.087151
     9289.363700       0.088998
     9298.000900       0.090868
     9306.654300       0.092761
     9315.323700       0.094677
     9324.009300       0.096615
     9332.711200       0.098577
     9341.429200       0.100561
     9350.163600       0.102568
     9358.914400       0.104599
     9367.681500       0.106652
     9376.465100       0.108729
     9385.265100       0.110829
     9394.081700       0.112953
     9402.914900       0.115099
     9411.764700       0.117270
     9420.631200       0.119463
     9429.514400       0.121680
     9438.414300       0.123921
     9447.331100       0.126185
     9456.264800       0.128473
     9465.215300       0.130784
     9474.182900       0.133119
     9483.167400       0.135478
     9492.169000       0.137860
     9501.187600       0.140266
     9510.223500       0.142696
     9519.276500       0.145150
     9528.346800       0.147627
     9537.434400       0.150128
     9546.539400       0.152652
     9555.661700       0.155201
     9564.801500       0.157773
     9573.958800       0.160369
     9583.133700       0.162989
     9592.326100       0.165632
     9601.536200       0.168299
     9610.764100       0.170989
     9620.009600       0.173704
     9629.273000       0.176442
     9638.554200       0.179203
     9647.853400       0.181988
     9657.170400       0.184797
     9666.505600       0.187629
     9675.858700       0.190484
     9685.230000       0.193363
     9694.619500       0.196265
     9704.027200       0.199190
     9713.453100       0.202139
     9722.897400       0.205111
     9732.360100       0.208105
     9741.841200       0.211123
     9751.340800       0.214163
     9760.859000       0.217227
     9770.395700       0.220313
     9779.951100       0.223422
     9789.525200       0.226553
     9799.118100       0.229707
     9808.729800       0.232883
     9818.360300       0.236082
     9828.009800       0.239302
     9837.678300       0.242545
     9847.365800       0.245810
     9857.072400       0.249096
     9866.798200       0.252404
     9876.543200       0.255734
     9886.307500       0.259085
     9896.091000       0.262457
     9905.894000       0.265850
     9915.716400       0.269265
     9925.558300       0.272700
     9935.419800       0.276156
     9945.300800       0.279632
     9955.201600       0.283129
     9965.122100       0.286646
     9975.062300       0.290182
     9985.022500       0.293739
     9995.002500       0.297316
    10005.002500       0.300911
    10015.022500       0.304526
    10025.062700       0.308160
    10035.122900       0.311813
    10045.203400       0.315485
    10055.304200       0.319175
    10065.425300       0.322883
    10075.566800       0.326610
    10085.728700       0.330354
    10095.911200       0.334116
    10106.114200       0.337895
    10116.337900       0.341691
    10126.582300       0.345505
    10136.847400       0.349334
    10147.133400       0.353181
    10157.440300       0.357043
    10167.768200       0.360922
    10178.117000       0.364816
    10188.487000       0.368725
    10198.878100       0.372650
    10209.290500       0.376589
    10219.724100       0.380543
    10230.179000       0.384511
    10240.655400       0.388494
    10251.153300       0.392490
    10261.672700       0.396500
    10272.213700       0.400523
    10282.776300       0.404558
    10293.360800       0.408607
    10303.967000       0.412667
    10314.595200       0.416740
    10325.245200       0.420824
    10335.917300       0.424920
    10346.611500       0.429027
    10357.327800       0.433144
    10368.066400       0.437272
    10378.827200       0.441410
    10389.610400       0.445558
    10400.416000       0.449715
    10411.244100       0.453881
    10422.094800       0.458056
    10432.968200       0.462240
    10443.864200       0.466432
    10454.783100       0.470631
    10465.724800       0.474838
    10476.689400       0.479051
    10487.677000       0.483272
    10498.687700       0.487499
    10509.721500       0.491731
    10520.778500       0.495970
    10531.858900       0.500213
    10542.962600       0.504462
    10554.089700       0.508715
    10565.240400       0.512972
    10576.414600       0.517233
    10587.612500       0.521497
    10598.834100       0.525765
    10610.079600       0.530035
    10621.348900       0.534307
    10632.642200       0.538581
    10643.959600       0.542856
    10655.301000       0.547133
    10666.666700       0.551410
    10678.056600       0.555688
    10689.470900       0.559966
    10700.909600       0.564243
    10712.372800       0.568519
    10723.860600       0.572794
    10735.373100       0.577068
    10746.910300       0.581339
    10758.472300       0.585608
    10770.059200       0.589874
    10781.671200       0.594137
    10793.308100       0.598396
    10804.970300       0.602652
    10816.657700       0.606902
    10828.370300       0.611148
    10840.108400       0.615388
    10851.871900       0.619623
    10863.661100       0.623852
    10875.475800       0.628075
    10887.316300       0.632290
    10899.182600       0.636498
    10911.074700       0.640699
    10922.992900       0.644891
    10934.937100       0.649075
    10946.907500       0.653250
    10958.904100       0.657416
    10970.927000       0.661572
    10982.976400       0.665718
    10995.052200       0.669853
    11007.154700       0.673978
    11019.283700       0.678091
    11031.439600       0.682192
    11043.622300       0.686281
    11055.832000       0.690358
    11068.068600       0.694421
    11080.332400       0.698472
    11092.623400       0.702509
    11104.941700       0.706531
    11117.287400       0.710539
    11129.660500       0.714532
    11142.061300       0.718510
    11154.489700       0.722472
    11166.945800       0.726418
    11179.429800       0.730347
    11191.941800       0.734260
    11204.481800       0.738155
    11217.049900       0.742033
    11229.646300       0.745893
    11242.270900       0.749734
    11254.924000       0.753557
    11267.605600       0.757360
    11280.315800       0.761144
    11293.054800       0.764908
    11305.822500       0.768652
    11318.619100       0.772375
    11331.444800       0.776078
    11344.299500       0.779759
    11357.183400       0.783418
    11370.096600       0.787055
    11383.039300       0.790670
    11396.011400       0.794262
    11409.013100       0.797831
    11422.044500       0.801377
    11435.105800       0.804899
    11448.196900       0.808397
    11461.318100       0.811870
    11474.469300       0.815319
    11487.650800       0.818743
    11500.862600       0.822141
    11514.104800       0.825514
    11527.377500       0.828860
    11540.680900       0.832181
    11554.015000       0.835474
    11567.380000       0.838741
    11580.775900       0.841981
    11594.202900       0.845193
    11607.661100       0.848377
    11621.150500       0.851533
    11634.671300       0.854661
    11648.223600       0.857760
    11661.807600       0.860830
    11675.423200       0.863871
    11689.070700       0.866883
    11702.750100       0.869865
    11716.461600       0.872817
    11730.205300       0.875739
    11743.981200       0.878631
    11757.789500       0.881491
    11771.630400       0.884321
    11785.503800       0.887120
    11799.410000       0.889887
    11813.349100       0.892623
    11827.321100       0.895327
    11841.326200       0.897998
    11855.364600       0.900638
    11869.436200       0.903246
    11883.541300       0.905820
    11897.680000       0.908362
    11911.852300       0.910871
    11926.058400       0.913347
    11940.298500       0.915789
    11954.572600       0.918198
    11968.880900       0.920573
    11983.223500       0.922915
    11997.600500       0.925222
    12012.012000       0.927496
    12026.458200       0.929735
    12040.939200       0.931940
    12055.455100       0.934110
    12070.006000       0.936246
    12084.592100       0.938346
    12099.213600       0.940412
    12113.870400       0.942444
    12128.562800       0.944440
    12143.290800       0.946400
    12158.054700       0.948326
    12172.854500       0.950216
    12187.690400       0.952071
    12202.562500       0.953891
    12217.471000       0.955675
    12232.415900       0.957423
    12247.397400       0.959136
    12262.415700       0.960813
    12277.470800       0.962454
    12292.563000       0.964060
    12307.692300       0.965630
    12322.858900       0.967164
    12338.062900       0.968662
    12353.304500       0.970124
    12368.583800       0.971551
    12383.900900       0.972942
    12399.256000       0.974296
    12414.649300       0.975616
    12430.080800       0.976899
    12445.550700       0.978147
    12461.059200       0.979359
    12476.606400       0.980535
    12492.192400       0.981676
    12507.817400       0.982781
    12523.481500       0.983850
    12539.185000       0.984884
    12554.927800       0.985883
    12570.710200       0.986847
    12586.532400       0.987775
    12602.394500       0.988668
    12618.296500       0.989526
    12634.238800       0.990349
    12650.221400       0.991138
    12666.244500       0.991892
    12682.308200       0.992611
    12698.412700       0.993295
    12714.558200       0.993946
    12730.744700       0.994562
    12746.972600       0.995144
    12763.241900       0.995692
    12779.552700       0.996207
    12795.905300       0.996688
    12812.299800       0.997135
    12828.736400       0.997550
    12845.215200       0.997931
    12861.736300       0.998279
    12878.300100       0.998595
    12894.906500       0.998878
    12911.555800       0.999129
    12928.248200       0.999348
    12944.983800       0.999535
    12961.762800       0.999690
    12978.585300       0.999814
    12995.451600       0.999907
    13012.361700       0.999968
    13029.316000       0.999999
    13046.314400       1.000000
    13063.357300       0.999970
    13080.444700       0.999911
    13097.576900       0.999821
    13114.754100       0.999702
    13131.976400       0.999554
    13149.243900       0.999377
    13166.556900       0.999172
    13183.915600       0.998938
    13201.320100       0.998676
    13218.770700       0.998386
    13236.267400       0.998069
    13253.810500       0.997724
    13271.400100       0.997353
    13289.036500       0.996955
    13306.719900       0.996531
    13324.450400       0.996081
    13342.228200       0.995605
    13360.053400       0.995104
    13377.926400       0.994579
    13395.847300       0.994028
    13413.816200       0.993453
    13431.833400       0.992855
    13449.899100       0.992233
    13468.013500       0.991587
    13486.176700       0.990919
    13504.388900       0.990228
    13522.650400       0.989515
    13540.961400       0.988780
    13559.322000       0.988024
    13577.732500       0.987247
    13596.193100       0.986449
    13614.703900       0.985631
    13633.265200       0.984793
    13651.877100       0.983935
    13670.540000       0.983059
    13689.253900       0.982163
    13708.019200       0.981249
    13726.836000       0.980317
    13745.704500       0.979368
    13764.624900       0.978401
    13783.597500       0.977418
    13802.622500       0.976418
    13821.700100       0.975402
    13840.830400       0.974371
    13860.013900       0.973324
    13879.250500       0.972262
    13898.540700       0.971187
    13917.884500       0.970097
    13937.282200       0.968994
    13956.734100       0.967877
    13976.240400       0.966748
    13995.801300       0.965607
    14015.417000       0.964454
    14035.087700       0.963289
    14054.813800       0.962113
    14074.595400       0.960927
    14094.432700       0.959730
    14114.326000       0.958524
    14134.275600       0.957308
    14154.281700       0.956084
    14174.344400       0.954850
    14194.464200       0.953609
    14214.641100       0.952360
    14234.875400       0.951104
    14255.167500       0.949841
    14275.517500       0.948571
    14295.925700       0.947296
    14316.392300       0.946014
    14336.917600       0.944728
    14357.501800       0.943437
    14378.145200       0.942141
    14398.848100       0.940842
    14419.610700       0.939539
    14440.433200       0.938233
    14461.316000       0.936924
    14482.259200       0.935613
    14503.263200       0.934300
    14524.328200       0.932985
    14545.454500       0.931670
    14566.642400       0.930354
    14587.892000       0.929037
    14609.203800       0.927720
    14630.577900       0.926404
    14652.014700       0.925089
    14673.514300       0.923775
    14695.077100       0.922463
    14716.703500       0.921152
    14738.393500       0.919844
    14760.147600       0.918539
    14781.966000       0.917237
    14803.849000       0.915938
    14825.796900       0.914644
    14847.809900       0.913353
    14869.888500       0.912067
    14892.032800       0.910786
    14914.243100       0.909510
    14936.519800       0.908240
    14958.863100       0.906976
    14981.273400       0.905718
    15003.750900       0.904467
    15026.296000       0.903222
    15048.909000       0.901985
    15071.590100       0.900756
    15094.339600       0.899534
    15117.158000       0.898320
    15140.045400       0.897115
    15163.002300       0.895919
    15186.028900       0.894732
    15209.125500       0.893554
    15232.292500       0.892386
    15255.530100       0.891227
    15278.838800       0.890079
    15302.218800       0.888942
    15325.670500       0.887814
    15349.194200       0.886698
    15372.790200       0.885593
    15396.458800       0.884500
    15420.200500       0.883418
    15444.015400       0.882348
    15467.904100       0.881290
    15491.866800       0.880244
    15515.903800       0.879211
    15540.015500       0.878190
    15564.202300       0.877182
    15588.464500       0.876187
    15612.802500       0.875206
    15637.216600       0.874238
    15661.707100       0.873283
    15686.274500       0.872342
    15710.919100       0.871415
    15735.641200       0.870501
    15760.441300       0.869602
    15785.319700       0.868717
    15810.276700       0.867846
    15835.312700       0.866990
    15860.428200       0.866148
    15885.623500       0.865321
    15910.899000       0.864508
    15936.255000       0.863710
    15961.691900       0.862927
    15987.210200       0.862159
    16012.810200       0.861406
    16038.492400       0.860667
    16064.257000       0.859943
    16090.104600       0.859235
    16116.035500       0.858541
    16142.050000       0.857862
    16168.148700       0.857198
    16194.332000       0.856549
    16220.600200       0.855915
    16246.953700       0.855296
    16273.393000       0.854692
    16299.918500       0.854102
    16326.530600       0.853527
    16353.229800       0.852966
    16380.016400       0.852420
    16406.890900       0.851888
    16433.853700       0.851371
    16460.905300       0.850868
    16488.046200       0.850378
    16515.276600       0.849903
    16542.597200       0.849441
    16570.008300       0.848993
    16597.510400       0.848559
    16625.103900       0.848137
    16652.789300       0.847729
    16680.567100       0.847334
    16708.437800       0.846951
    16736.401700       0.846580
    16764.459300       0.846222
    16792.611300       0.845876
    16820.857900       0.845541
    16849.199700       0.845218
    16877.637100       0.844906
    16906.170800       0.844605
    16934.801000       0.844314
    16963.528400       0.844034
    16992.353400       0.843764
    17021.276600       0.843503
    17050.298400       0.843252
    17079.419300       0.843010
    17108.639900       0.842776
    17137.960600       0.842551
    17167.382000       0.842333
    17196.904600       0.842124
    17226.528900       0.841921
    17256.255400       0.841725
    17286.084700       0.841535
