79,   79, MVIRI VIS channel from srf_MET5_2001033_2001034_1801-Release_S10EL_10.dat
Number of data points:
806
Wavenumber (cm-1)   Filter response
     8350.730700       0.000000
     8357.710000       0.000000
     8364.701000       0.000000
     8371.703600       0.000002
     8378.718100       0.000004
     8385.744200       0.000009
     8392.782200       0.000017
     8399.832000       0.000027
     8406.893700       0.000042
     8413.967200       0.000060
     8421.052600       0.000084
     8428.150000       0.000112
     8435.259400       0.000147
     8442.380800       0.000187
     8449.514200       0.000234
     8456.659600       0.000288
     8463.817200       0.000349
     8470.986900       0.000418
     8478.168700       0.000495
     8485.362700       0.000580
     8492.569000       0.000674
     8499.787500       0.000777
     8507.018300       0.000890
     8514.261400       0.001013
     8521.516800       0.001146
     8528.784600       0.001288
     8536.064900       0.001442
     8543.357500       0.001607
     8550.662700       0.001782
     8557.980300       0.001970
     8565.310500       0.002168
     8572.653200       0.002379
     8580.008600       0.002602
     8587.376600       0.002838
     8594.757200       0.003086
     8602.150500       0.003346
     8609.556600       0.003620
     8616.975400       0.003907
     8624.407100       0.004207
     8631.851500       0.004521
     8639.308900       0.004849
     8646.779100       0.005191
     8654.262200       0.005547
     8661.758300       0.005917
     8669.267400       0.006302
     8676.789600       0.006701
     8684.324800       0.007115
     8691.873100       0.007544
     8699.434500       0.007988
     8707.009100       0.008447
     8714.596900       0.008922
     8722.198000       0.009412
     8729.812300       0.009918
     8737.439900       0.010439
     8745.080900       0.010977
     8752.735200       0.011531
     8760.403000       0.012100
     8768.084200       0.012686
     8775.778900       0.013289
     8783.487000       0.013908
     8791.208800       0.014544
     8798.944100       0.015196
     8806.693100       0.015866
     8814.455700       0.016552
     8822.232000       0.017256
     8830.022100       0.017976
     8837.825900       0.018715
     8845.643500       0.019470
     8853.475000       0.020244
     8861.320300       0.021035
     8869.179600       0.021843
     8877.052800       0.022670
     8884.940000       0.023515
     8892.841300       0.024378
     8900.756600       0.025259
     8908.686000       0.026158
     8916.629500       0.027076
     8924.587200       0.028013
     8932.559200       0.028968
     8940.545400       0.029942
     8948.545900       0.030935
     8956.560700       0.031946
     8964.589900       0.032977
     8972.633500       0.034027
     8980.691500       0.035096
     8988.764000       0.036185
     8996.851100       0.037293
     9004.952700       0.038421
     9013.068900       0.039568
     9021.199800       0.040735
     9029.345400       0.041922
     9037.505600       0.043129
     9045.680700       0.044356
     9053.870500       0.045603
     9062.075200       0.046871
     9070.294800       0.048159
     9078.529300       0.049467
     9086.778700       0.050796
     9095.043200       0.052145
     9103.322700       0.053516
     9111.617300       0.054907
     9119.927000       0.056319
     9128.251900       0.057752
     9136.592100       0.059206
     9144.947400       0.060682
     9153.318100       0.062178
     9161.704100       0.063697
     9170.105500       0.065236
     9178.522300       0.066798
     9186.954500       0.068380
     9195.402300       0.069985
     9203.865600       0.071611
     9212.344500       0.073260
     9220.839100       0.074930
     9229.349300       0.076622
     9237.875300       0.078337
     9246.417000       0.080074
     9254.974500       0.081833
     9263.547900       0.083615
     9272.137200       0.085419
     9280.742500       0.087245
     9289.363700       0.089094
     9298.000900       0.090966
     9306.654300       0.092861
     9315.323700       0.094778
     9324.009300       0.096718
     9332.711200       0.098682
     9341.429200       0.100668
     9350.163600       0.102677
     9358.914400       0.104709
     9367.681500       0.106765
     9376.465100       0.108844
     9385.265100       0.110946
     9394.081700       0.113071
     9402.914900       0.115220
     9411.764700       0.117392
     9420.631200       0.119588
     9429.514400       0.121807
     9438.414300       0.124049
     9447.331100       0.126315
     9456.264800       0.128605
     9465.215300       0.130919
     9474.182900       0.133256
     9483.167400       0.135616
     9492.169000       0.138001
     9501.187600       0.140409
     9510.223500       0.142841
     9519.276500       0.145296
     9528.346800       0.147776
     9537.434400       0.150279
     9546.539400       0.152805
     9555.661700       0.155356
     9564.801500       0.157930
     9573.958800       0.160528
     9583.133700       0.163150
     9592.326100       0.165796
     9601.536200       0.168465
     9610.764100       0.171158
     9620.009600       0.173874
     9629.273000       0.176614
     9638.554200       0.179378
     9647.853400       0.182165
     9657.170400       0.184976
     9666.505600       0.187810
     9675.858700       0.190668
     9685.230000       0.193549
     9694.619500       0.196453
     9704.027200       0.199380
     9713.453100       0.202331
     9722.897400       0.205305
     9732.360100       0.208302
     9741.841200       0.211322
     9751.340800       0.214365
     9760.859000       0.217431
     9770.395700       0.220519
     9779.951100       0.223630
     9789.525200       0.226764
     9799.118100       0.229920
     9808.729800       0.233099
     9818.360300       0.236300
     9828.009800       0.239522
     9837.678300       0.242767
     9847.365800       0.246034
     9857.072400       0.249323
     9866.798200       0.252633
     9876.543200       0.255965
     9886.307500       0.259318
     9896.091000       0.262693
     9905.894000       0.266089
     9915.716400       0.269505
     9925.558300       0.272942
     9935.419800       0.276401
     9945.300800       0.279880
     9955.201600       0.283378
     9965.122100       0.286897
     9975.062300       0.290436
     9985.022500       0.293995
     9995.002500       0.297574
    10005.002500       0.301172
    10015.022500       0.304789
    10025.062700       0.308426
    10035.122900       0.312081
    10045.203400       0.315755
    10055.304200       0.319447
    10065.425300       0.323158
    10075.566800       0.326886
    10085.728700       0.330632
    10095.911200       0.334397
    10106.114200       0.338178
    10116.337900       0.341976
    10126.582300       0.345792
    10136.847400       0.349623
    10147.133400       0.353472
    10157.440300       0.357337
    10167.768200       0.361217
    10178.117000       0.365113
    10188.487000       0.369025
    10198.878100       0.372951
    10209.290500       0.376893
    10219.724100       0.380849
    10230.179000       0.384819
    10240.655400       0.388804
    10251.153300       0.392802
    10261.672700       0.396813
    10272.213700       0.400838
    10282.776300       0.404876
    10293.360800       0.408926
    10303.967000       0.412989
    10314.595200       0.417063
    10325.245200       0.421149
    10335.917300       0.425247
    10346.611500       0.429355
    10357.327800       0.433475
    10368.066400       0.437604
    10378.827200       0.441744
    10389.610400       0.445894
    10400.416000       0.450052
    10411.244100       0.454220
    10422.094800       0.458397
    10432.968200       0.462582
    10443.864200       0.466776
    10454.783100       0.470976
    10465.724800       0.475185
    10476.689400       0.479400
    10487.677000       0.483622
    10498.687700       0.487850
    10509.721500       0.492084
    10520.778500       0.496324
    10531.858900       0.500569
    10542.962600       0.504819
    10554.089700       0.509073
    10565.240400       0.513332
    10576.414600       0.517594
    10587.612500       0.521860
    10598.834100       0.526128
    10610.079600       0.530399
    10621.348900       0.534673
    10632.642200       0.538948
    10643.959600       0.543225
    10655.301000       0.547502
    10666.666700       0.551781
    10678.056600       0.556060
    10689.470900       0.560338
    10700.909600       0.564616
    10712.372800       0.568894
    10723.860600       0.573170
    10735.373100       0.577444
    10746.910300       0.581716
    10758.472300       0.585986
    10770.059200       0.590253
    10781.671200       0.594516
    10793.308100       0.598776
    10804.970300       0.603032
    10816.657700       0.607283
    10828.370300       0.611530
    10840.108400       0.615771
    10851.871900       0.620006
    10863.661100       0.624236
    10875.475800       0.628458
    10887.316300       0.632674
    10899.182600       0.636883
    10911.074700       0.641084
    10922.992900       0.645276
    10934.937100       0.649460
    10946.907500       0.653636
    10958.904100       0.657801
    10970.927000       0.661958
    10982.976400       0.666104
    10995.052200       0.670239
    11007.154700       0.674363
    11019.283700       0.678476
    11031.439600       0.682578
    11043.622300       0.686667
    11055.832000       0.690743
    11068.068600       0.694807
    11080.332400       0.698857
    11092.623400       0.702893
    11104.941700       0.706915
    11117.287400       0.710923
    11129.660500       0.714915
    11142.061300       0.718893
    11154.489700       0.722854
    11166.945800       0.726800
    11179.429800       0.730729
    11191.941800       0.734641
    11204.481800       0.738536
    11217.049900       0.742413
    11229.646300       0.746272
    11242.270900       0.750112
    11254.924000       0.753934
    11267.605600       0.757737
    11280.315800       0.761519
    11293.054800       0.765283
    11305.822500       0.769025
    11318.619100       0.772748
    11331.444800       0.776449
    11344.299500       0.780129
    11357.183400       0.783787
    11370.096600       0.787423
    11383.039300       0.791037
    11396.011400       0.794627
    11409.013100       0.798195
    11422.044500       0.801739
    11435.105800       0.805260
    11448.196900       0.808756
    11461.318100       0.812228
    11474.469300       0.815675
    11487.650800       0.819097
    11500.862600       0.822494
    11514.104800       0.825865
    11527.377500       0.829210
    11540.680900       0.832528
    11554.015000       0.835820
    11567.380000       0.839085
    11580.775900       0.842323
    11594.202900       0.845533
    11607.661100       0.848715
    11621.150500       0.851870
    11634.671300       0.854995
    11648.223600       0.858092
    11661.807600       0.861160
    11675.423200       0.864199
    11689.070700       0.867209
    11702.750100       0.870188
    11716.461600       0.873138
    11730.205300       0.876058
    11743.981200       0.878947
    11757.789500       0.881805
    11771.630400       0.884632
    11785.503800       0.887428
    11799.410000       0.890193
    11813.349100       0.892926
    11827.321100       0.895627
    11841.326200       0.898297
    11855.364600       0.900934
    11869.436200       0.903538
    11883.541300       0.906110
    11897.680000       0.908649
    11911.852300       0.911155
    11926.058400       0.913628
    11940.298500       0.916067
    11954.572600       0.918473
    11968.880900       0.920846
    11983.223500       0.923184
    11997.600500       0.925488
    12012.012000       0.927759
    12026.458200       0.929995
    12040.939200       0.932196
    12055.455100       0.934363
    12070.006000       0.936496
    12084.592100       0.938593
    12099.213600       0.940656
    12113.870400       0.942684
    12128.562800       0.944676
    12143.290800       0.946634
    12158.054700       0.948556
    12172.854500       0.950443
    12187.690400       0.952294
    12202.562500       0.954110
    12217.471000       0.955890
    12232.415900       0.957635
    12247.397400       0.959344
    12262.415700       0.961017
    12277.470800       0.962655
    12292.563000       0.964257
    12307.692300       0.965823
    12322.858900       0.967353
    12338.062900       0.968847
    12353.304500       0.970306
    12368.583800       0.971729
    12383.900900       0.973116
    12399.256000       0.974467
    12414.649300       0.975782
    12430.080800       0.977061
    12445.550700       0.978305
    12461.059200       0.979513
    12476.606400       0.980685
    12492.192400       0.981821
    12507.817400       0.982922
    12523.481500       0.983988
    12539.185000       0.985018
    12554.927800       0.986012
    12570.710200       0.986972
    12586.532400       0.987896
    12602.394500       0.988785
    12618.296500       0.989639
    12634.238800       0.990458
    12650.221400       0.991242
    12666.244500       0.991991
    12682.308200       0.992706
    12698.412700       0.993386
    12714.558200       0.994032
    12730.744700       0.994644
    12746.972600       0.995222
    12763.241900       0.995765
    12779.552700       0.996276
    12795.905300       0.996752
    12812.299800       0.997195
    12828.736400       0.997605
    12845.215200       0.997982
    12861.736300       0.998326
    12878.300100       0.998637
    12894.906500       0.998915
    12911.555800       0.999162
    12928.248200       0.999376
    12944.983800       0.999558
    12961.762800       0.999709
    12978.585300       0.999828
    12995.451600       0.999917
    13012.361700       0.999974
    13029.316000       1.000000
    13046.314400       0.999996
    13063.357300       0.999962
    13080.444700       0.999897
    13097.576900       0.999803
    13114.754100       0.999680
    13131.976400       0.999527
    13149.243900       0.999345
    13166.556900       0.999135
    13183.915600       0.998896
    13201.320100       0.998629
    13218.770700       0.998335
    13236.267400       0.998013
    13253.810500       0.997664
    13271.400100       0.997288
    13289.036500       0.996885
    13306.719900       0.996456
    13324.450400       0.996002
    13342.228200       0.995521
    13360.053400       0.995016
    13377.926400       0.994485
    13395.847300       0.993930
    13413.816200       0.993351
    13431.833400       0.992747
    13449.899100       0.992120
    13468.013500       0.991470
    13486.176700       0.990797
    13504.388900       0.990101
    13522.650400       0.989384
    13540.961400       0.988644
    13559.322000       0.987883
    13577.732500       0.987102
    13596.193100       0.986299
    13614.703900       0.985476
    13633.265200       0.984633
    13651.877100       0.983771
    13670.540000       0.982889
    13689.253900       0.981989
    13708.019200       0.981070
    13726.836000       0.980134
    13745.704500       0.979180
    13764.624900       0.978208
    13783.597500       0.977220
    13802.622500       0.976215
    13821.700100       0.975195
    13840.830400       0.974159
    13860.013900       0.973107
    13879.250500       0.972041
    13898.540700       0.970961
    13917.884500       0.969867
    13937.282200       0.968759
    13956.734100       0.967638
    13976.240400       0.966504
    13995.801300       0.965358
    14015.417000       0.964200
    14035.087700       0.963031
    14054.813800       0.961850
    14074.595400       0.960659
    14094.432700       0.959458
    14114.326000       0.958247
    14134.275600       0.957027
    14154.281700       0.955797
    14174.344400       0.954559
    14194.464200       0.953314
    14214.641100       0.952060
    14234.875400       0.950799
    14255.167500       0.949531
    14275.517500       0.948257
    14295.925700       0.946977
    14316.392300       0.945691
    14336.917600       0.944400
    14357.501800       0.943105
    14378.145200       0.941805
    14398.848100       0.940501
    14419.610700       0.939193
    14440.433200       0.937883
    14461.316000       0.936569
    14482.259200       0.935254
    14503.263200       0.933936
    14524.328200       0.932617
    14545.454500       0.931297
    14566.642400       0.929976
    14587.892000       0.928655
    14609.203800       0.927334
    14630.577900       0.926013
    14652.014700       0.924693
    14673.514300       0.923375
    14695.077100       0.922058
    14716.703500       0.920743
    14738.393500       0.919431
    14760.147600       0.918121
    14781.966000       0.916815
    14803.849000       0.915512
    14825.796900       0.914212
    14847.809900       0.912917
    14869.888500       0.911627
    14892.032800       0.910341
    14914.243100       0.909061
    14936.519800       0.907787
    14958.863100       0.906518
    14981.273400       0.905256
    15003.750900       0.904000
    15026.296000       0.902751
    15048.909000       0.901509
    15071.590100       0.900275
    15094.339600       0.899049
    15117.158000       0.897831
    15140.045400       0.896622
    15163.002300       0.895421
    15186.028900       0.894229
    15209.125500       0.893047
    15232.292500       0.891874
    15255.530100       0.890712
    15278.838800       0.889559
    15302.218800       0.888417
    15325.670500       0.887285
    15349.194200       0.886165
    15372.790200       0.885055
    15396.458800       0.883957
    15420.200500       0.882871
    15444.015400       0.881796
    15467.904100       0.880733
    15491.866800       0.879683
    15515.903800       0.878645
    15540.015500       0.877620
    15564.202300       0.876608
    15588.464500       0.875609
    15612.802500       0.874622
    15637.216600       0.873650
    15661.707100       0.872690
    15686.274500       0.871745
    15710.919100       0.870813
    15735.641200       0.869895
    15760.441300       0.868991
    15785.319700       0.868102
    15810.276700       0.867227
    15835.312700       0.866366
    15860.428200       0.865519
    15885.623500       0.864687
    15910.899000       0.863870
    15936.255000       0.863067
    15961.691900       0.862280
    15987.210200       0.861507
    16012.810200       0.860749
    16038.492400       0.860005
    16064.257000       0.859277
    16090.104600       0.858564
    16116.035500       0.857865
    16142.050000       0.857182
    16168.148700       0.856513
    16194.332000       0.855859
    16220.600200       0.855220
    16246.953700       0.854596
    16273.393000       0.853987
    16299.918500       0.853392
    16326.530600       0.852812
    16353.229800       0.852247
    16380.016400       0.851696
    16406.890900       0.851159
    16433.853700       0.850637
    16460.905300       0.850129
    16488.046200       0.849635
    16515.276600       0.849154
    16542.597200       0.848688
    16570.008300       0.848235
    16597.510400       0.847795
    16625.103900       0.847369
    16652.789300       0.846955
    16680.567100       0.846555
    16708.437800       0.846167
    16736.401700       0.845791
    16764.459300       0.845428
    16792.611300       0.845076
    16820.857900       0.844737
    16849.199700       0.844408
    16877.637100       0.844091
    16906.170800       0.843785
    16934.801000       0.843489
    16963.528400       0.843204
    16992.353400       0.842928
    17021.276600       0.842662
    17050.298400       0.842406
    17079.419300       0.842158
    17108.639900       0.841919
    17137.960600       0.841689
    17167.382000       0.841466
    17196.904600       0.841250
    17226.528900       0.841042
    17256.255400       0.840841
    17286.084700       0.840645
